# ================= DQRFIT RESULTS ================
# INPUT FILE: series/AIS6.rad
# OUTPUT: LDETRENDED
# FILTER FUNCTION: f(t)
# f(t)=+line(t)+annual(t)+jumps(t)
# line(t)=+P 1+P 2*t
# annual(t)=+P 3*sin(2*pi*t+P 4)
# jumps(t)=+P 5*heav(t-2012.8438  )
# heav(t)=(t<0?0:1)
# TOTAL OBSERVATIONS MTOT= 3873
# INITIAL TIME INTERVAL= 2020.4952 - 2008.1156 = 12.3795
# TOTAL OBSERVATIONS AFTER PREFILTER M= 3780
# TIME-SPAN= 2020.4952 - 2008.1156 = 12.3795
# OBSERVATIONS: USED M=  3780 REJECTED MTOT-M=    93 %USED=   97.5988
# N=  5 PARAMETERS
# MAXSIG= 175.00000
# MAXRES=  77.05425
# SCALE FACTOR FOR LENGTHS: SCL=  10.00000
# SCALE FACTOR FOR SIGMAS: SCLSIG=   1.00000
# CHI^2=   2995.451 DOF=  3775 CHI^2/DOF=   0.79350
# RMS=      6.370 SDEV=      6.371 MEAN=    0.06028
#  P #       PARAMETER +-    SIGMA %error PARAMETER NAME
# P 1 =     -1867.00566 +-   83.107   4.45 YZERO                              
# P 2 =         0.92919 +-    0.041   4.45 SLOPE                              
# P 3 =         4.23640 +-    0.116   2.74 ANNUAL AMPLITUDE                   
# P 4 =         2.97335 +-    0.038   1.28 ANNUAL PHASE                       
# P 5 =        -2.56617 +-    0.294  11.45 OFFSET 2012.8438                   
#       T            LDETRENDED       SIG_OBS
     2008.11563        -0.49148         9.58395
     2008.30984         3.34906        11.49914
     2008.32969         4.06762        13.38671
     2008.33065        -6.49027         6.96683
     2008.37056        -6.20936         8.95238
     2008.37178       -12.73049         6.72631
     2008.46940        -6.46820        16.16061
     2008.47091        -4.70560         5.10063
     2008.47364        -5.99114         5.04897
     2008.47594        -5.11828         6.27290
     2008.69057        13.87329        15.11928
     2008.81040         5.53195         5.02313
     2008.81587         4.82786         4.99017
     2008.81861         6.84231         4.95365
     2008.82135         2.96277         5.00799
     2008.82409        -2.72077         5.62976
     2008.82677         2.66174         5.18971
     2008.82956         5.61814         4.98750
     2008.83230         0.48259         5.51039
     2008.83504        13.63205         5.05342
     2008.83778         9.69851         5.03560
     2008.84052         5.72996         5.07925
     2008.84325        11.98242         5.17635
     2008.84599         6.35187         5.06856
     2008.84873         4.06833         5.02135
     2008.85147         2.22779         5.15675
     2008.85420         6.74424         5.01155
     2008.85694         6.09670         5.07480
     2008.85968        11.88915         4.99107
     2008.86242         2.00361         5.25028
     2008.86516         8.57607         5.07213
     2008.88980         1.27317         5.22089
     2008.89253         9.37863         5.09529
     2008.89527         6.30608         5.19773
     2008.89801        11.45654         5.13092
     2008.90075        -1.72101         5.07035
     2008.90896         3.00736         5.18437
     2008.91170         6.05282         5.05253
     2008.91444         6.66928         5.24138
     2008.91718        -2.10927         5.09885
     2008.92117         0.38802        18.52386
     2008.92265        -1.76536         5.22534
     2008.92539       -13.69490         5.43646
     2008.92781         6.90985         5.96202
     2008.93724         6.23508        12.13605
     2008.96646        -6.08906         5.00532
     2008.96919        -6.28360         4.88595
     2008.97193         1.63385         4.85656
     2008.97467        -5.01469         4.93049
     2008.97741        -4.89924         4.90644
     2008.98015         2.72622         4.93851
     2008.98288        -0.65832         4.99908
     2008.98562        -1.60887         4.99730
     2008.98836        -0.03641         4.97414
     2008.99110        -5.52496         5.16210
     2008.99384        -7.24950         5.19327
     2008.99657       -16.25404         5.53979
     2008.99846        -0.06679         8.61210
     2009.00609         4.45611        28.70375
     2009.00752        -9.13722         5.01957
     2009.01026        -1.44276         5.09796
     2009.01403        -7.94726         9.84228
     2009.01574        -1.68485         5.10687
     2009.01848        -4.44140         5.04808
     2009.02121        -6.50394         4.99107
     2009.02669        -9.96403         4.99463
     2009.02943       -12.15957         5.02759
     2009.03216        -8.56512         5.10954
     2009.03490        -9.96466         5.23603
     2009.03764        -6.81620         5.05431
     2009.04038        -4.14875         5.20307
     2009.04312       -10.64329         5.14606
     2009.04585        -5.02884         5.06678
     2009.04859        -7.61238         5.00621
     2009.05133       -13.57192         5.00977
     2009.05407        -8.72147         4.99552
     2009.05681        -5.88201         5.02759
     2009.05954        -9.10856         4.94474
     2009.06228       -11.38110         4.95900
     2009.06502       -12.79964         4.96078
     2009.06776       -13.10919         4.94385
     2009.07049       -14.90573         5.02402
     2009.07323        -6.59028         5.17991
     2009.07597        -2.98282         5.05787
     2009.07871        -6.56136         5.18882
     2009.08145         0.08009         5.23781
     2009.08418        -5.67145         5.05342
     2009.08692        -7.85600         5.13804
     2009.08966        -8.68754         5.14250
     2009.09245        -1.83914         6.42968
     2009.09519       -13.08068         6.25153
     2009.09787        -3.35917         5.14517
     2009.10061        -6.55072         5.10152
     2009.10341        -8.36931         6.20164
     2009.10609        -2.74380         5.11399
     2009.10882        -7.78335         4.98038
     2009.11156       -13.55589         5.03917
     2009.11430        -6.31944         5.07391
     2009.11704        -8.07898         5.01423
     2009.11978        -4.10252         4.99730
     2009.12251        -0.79707         4.96167
     2009.12525        -9.04561         4.94564
     2009.12799        -8.24616         4.94742
     2009.13073        -9.38270         5.02135
     2009.13347       -13.47524         5.00265
     2009.13620       -15.07979         5.00532
     2009.13894       -12.54933         5.01066
     2009.14168       -11.00687         5.09440
     2009.14442       -12.88342         4.98305
     2009.14715       -11.23396         5.07124
     2009.14989       -11.98151         5.08905
     2009.15263       -13.49905         4.94920
     2009.15537        -8.40659         5.00354
     2009.15811        -9.99714         5.04718
     2009.16084       -13.17468         4.96880
     2009.16358        -6.98723         5.02581
     2009.16632       -13.73377         5.10687
     2009.16906       -14.05931         5.25117
     2009.17180       -14.28986         5.02313
     2009.17453       -17.82640         5.04273
     2009.17727        -8.58395         5.18169
     2009.18001       -14.64949         5.04718
     2009.18275       -13.06103         4.91446
     2009.18548       -17.99258         5.61461
     2009.18822       -15.40412         4.95187
     2009.19096       -20.00267         5.11043
     2009.19370       -12.05121         4.98305
     2009.19644        -1.41975         5.01512
     2009.19917        -3.71230         4.97414
     2009.20191        -6.55584         5.03471
     2009.20465       -12.38739         5.02848
     2009.20739       -15.23193         5.09083
     2009.21013       -13.18147         5.13359
     2009.21286       -13.14002         4.98216
     2009.21560       -11.43656         5.07747
     2009.21834       -14.66611         5.02313
     2009.22108        -6.59265         5.05609
     2009.22381       -11.31219         5.03382
     2009.22659       -10.20277         5.07658
     2009.22929        -9.19428         4.98483
     2009.23203       -11.99783         5.00888
     2009.23477        -8.87937         5.08193
     2009.23750        -8.00491         4.95009
     2009.24024        -8.62846         5.03828
     2009.24298        -5.70400         5.01779
     2009.24572        -4.90955         4.96078
     2009.24846        -9.09809         5.03471
     2009.25119        -4.33463         5.08282
     2009.25393        -4.93118         5.08638
     2009.25667        -8.50272         5.00977
     2009.25941        -5.76327         5.08994
     2009.26214       -11.12281         5.02224
     2009.26488       -11.45435         5.14072
     2009.26762        -5.46790         5.05966
     2009.27036        -5.47044         4.99819
     2009.27310       -13.06299         4.96880
     2009.27583        -8.91853         5.07925
     2009.27857        -9.68207         5.15230
     2009.28131        -6.88562         5.02313
     2009.28405        -7.32716         5.02848
     2009.28679       -11.54071         5.03739
     2009.28952       -12.69325         5.09796
     2009.29226        -9.44379         5.21109
     2009.29500       -11.76034         5.21465
     2009.29774       -10.63488         5.09351
     2009.30047       -12.10843         5.23603
     2009.30321        -7.74097         5.12023
     2009.30595        -5.24051         5.07925
     2009.30869        -7.43406         5.10152
     2009.31143        -9.73460         5.13537
     2009.31416        -9.42215         5.09172
     2009.31690        -9.55369         5.09618
     2009.31964       -11.03723         5.06055
     2009.32238       -10.80678         5.07124
     2009.32466        -9.97490         7.05234
     2009.32785        -7.91687         5.20753
     2009.33059       -11.14641         5.03471
     2009.33333        -9.47295         5.04718
     2009.33607        -8.37950         5.07213
     2009.33880        -5.48104         5.08727
     2009.34154        -6.21859         4.99641
     2009.34428        -5.78313         5.11399
     2009.34702        -1.80867         5.08371
     2009.34976       -10.61122         5.06322
     2009.35249        -6.79076         5.02670
     2009.35523        -5.99931         5.04095
     2009.35797       -11.48885         5.30640
     2009.36071        -3.26939         5.17189
     2009.36344        -8.91894         5.05876
     2009.36618        -2.00648         5.06055
     2009.36892        -3.09203         5.06589
     2009.37166         0.46843         5.12201
     2009.37440        -9.73511         5.17902
     2009.37713        -7.32166         5.03828
     2009.37987        -7.40420         6.22569
     2009.38261        -5.22574         5.12646
     2009.38535        -3.14829         5.08994
     2009.38809        -3.80483         5.02046
     2009.39082       -10.19238         5.06233
     2009.39356        -9.98992         5.12646
     2009.39630        -7.61946         5.14072
     2009.39904        -2.63901         5.15230
     2009.40175        -2.58353         6.01458
     2009.40451        -2.09010         5.56206
     2009.40725         1.81836         5.13003
     2009.40999        -2.22418         5.05966
     2009.41273        -9.81673         5.13003
     2009.41546        -1.22527         5.08282
     2009.41820        -4.59682         5.62709
     2009.42093        -8.55735         5.35094
     2009.42368        -4.52791         5.12825
     2009.42642        -7.60045         5.37410
     2009.42915        -1.93199         5.19773
     2009.43189        -2.52954         5.19060
     2009.43463        -5.40108         5.15408
     2009.43737        -2.12562         5.19506
     2009.44010        -4.29517         5.09974
     2009.44282        -5.04469         5.49169
     2009.44558       -11.75326         6.41187
     2009.44832        -3.99480         5.48990
     2009.45106        -0.30734         5.75892
     2009.45379        -0.43889         5.48723
     2009.45653         1.20757         5.74645
     2009.45927        -2.91398         5.14962
     2009.46201        -1.66552         5.15675
     2009.46475       -14.81006         5.41419
     2009.46748        -6.42161         5.32066
     2009.47022        -1.84815         5.08727
     2009.47296        -0.78870         5.12557
     2009.47570         1.12176         5.11578
     2009.47843         1.02322         5.24227
     2009.48117         4.21367         5.17635
     2009.48391         0.57613         5.22089
     2009.48665         5.64958         5.34382
     2009.48939         0.25004         5.23069
     2009.49212         2.42050         5.20664
     2009.49486         2.35095         5.21287
     2009.49760        -2.41759         5.21732
     2009.50022        -0.83903         9.95541
     2009.50308         0.07132         5.12646
     2009.50581        -0.80422         5.18347
     2009.50855         0.35923         5.18526
     2009.51129         8.18369         5.13270
     2009.51403         5.21114         5.14606
     2009.51676         2.95360         5.07480
     2009.51950        -1.06994         5.21822
     2009.52224        -3.37849         5.13626
     2009.52498         4.32897         5.13270
     2009.52772         2.57542         5.10598
     2009.53045        -1.07412         5.12557
     2009.53319        -4.82866         5.15764
     2009.53593        -5.82021         5.13804
     2009.53867        -0.61975         5.13626
     2009.54141         1.55570         5.73665
     2009.54431         2.61100        16.72181
     2009.54688        -4.21038         5.17189
     2009.55047       -12.99672       100.89381
     2009.55236         4.66153         5.32867
     2009.55509         8.55398         5.23514
     2009.55783        15.04344         5.24939
     2009.56057         1.48690         5.47565
     2009.56331         5.73935         5.39994
     2009.56610        -4.67224        12.48613
     2009.56878        -9.71774         5.30284
     2009.57152         1.61472         5.29839
     2009.57426         4.69518         5.23959
     2009.57700         3.90963         5.27433
     2009.57974         5.19109         5.13359
     2009.58247         2.26954         5.31709
     2009.58521         9.46600         5.43824
     2009.58795        -1.81254         5.61640
     2009.59069         4.66691         5.92906
     2009.59348       -14.43568        17.29458
     2009.59575       -13.15080        25.07915
     2009.59890         5.83828         5.33402
     2009.60164         9.58074         5.39815
     2009.60438         5.87219         5.27344
     2009.60711         7.33665         5.33045
     2009.60985        11.11010         5.21822
     2009.61259         3.88956         5.20574
     2009.61533         2.21202         5.21465
     2009.61807         2.94347         5.21732
     2009.62080         6.04593         5.24939
     2009.62354         4.91539         5.19773
     2009.62628         6.77884         5.30729
     2009.62902        11.75830         5.31798
     2009.63175         7.71575         5.34916
     2009.63449         7.22421         5.35718
     2009.63723        -0.63933         5.52821
     2009.63997         3.21012         5.33402
     2009.64271         6.68658         5.33580
     2009.64544        12.11503         5.30106
     2009.64818        10.19749         5.57987
     2009.65092         9.72495         5.35451
     2009.65366         1.63440         5.34738
     2009.65639         2.29786         5.34293
     2009.65913         7.89631         5.33402
     2009.66187         0.78977         5.32066
     2009.66461         6.76023         5.26365
     2009.66735        13.38868         5.55315
     2009.66996        10.38225         5.38746
     2009.69047         0.77320        20.63769
     2009.69199         0.28779         5.41241
     2009.69472        10.47724         5.28413
     2009.69746         7.18370         5.25919
     2009.70020        13.59315         5.18971
     2009.70294        13.24561         5.15141
     2009.70568        12.53607         5.31531
     2009.70841         8.59152         5.67073
     2009.71115         5.65898         5.33313
     2009.71389        10.69443         5.39281
     2009.71663         5.93989         5.26721
     2009.71875         0.05192         7.08441
     2009.72331         3.28768        18.87750
     2009.72484         3.17726         5.75447
     2009.72758         5.93871         6.30854
     2009.73032         8.12617         5.73309
     2009.73305        12.06163         6.17492
     2009.73579        15.33308         7.09064
     2009.73855         6.05452         6.86973
     2009.74127         7.11499         5.77674
     2009.74400        10.44345         5.53801
     2009.74675         6.17690         7.36679
     2009.74948        -2.76464         6.14641
     2009.75222         2.12382         5.64401
     2009.75496         8.39527         5.14428
     2009.75770         3.60673         5.20040
     2009.76043         5.28119         5.20753
     2009.76317        -2.50336         5.34114
     2009.76591         3.93010         5.13003
     2009.76861         4.49959         5.32956
     2009.77264       -12.91116        22.49854
     2009.77412         6.86947         5.24049
     2009.77686         7.43992         5.16299
     2009.77960         8.26338         5.14784
     2009.78234         4.08283         5.11756
     2009.78507        16.08529         5.15497
     2009.78778         1.83977         5.52465
     2009.79055         2.86120         5.53266
     2009.79329         2.31366         5.37232
     2009.79603        -4.03489         5.36787
     2009.79876         9.63957         5.39815
     2009.80150         6.02203         5.46496
     2009.80424         5.35548         5.33936
     2009.80698         9.58694         5.47476
     2009.80971         8.42539         5.42042
     2009.81245         7.34985         5.47832
     2009.81519        13.04231         5.50327
     2009.81793         7.81676         5.60303
     2009.82067        14.01422         5.24761
     2009.82340         7.72168         5.42933
     2009.82616        12.86811         5.32066
     2009.82888         8.55959         5.40350
     2009.83162         7.83104         5.80791
     2009.83436         0.59850         5.26899
     2009.83709         3.43595         5.58076
     2009.83983         1.74641         5.27166
     2009.84257         8.56087         5.40172
     2009.84531         3.54832         5.39192
     2009.84804        12.88578         5.32333
     2009.85078        10.04023         5.22980
     2009.85352         6.97769         5.37232
     2009.85626        -2.52685         5.29393
     2009.85900        -0.44340         5.36787
     2009.86173         4.09306         5.26899
     2009.86447        10.84752         5.56651
     2009.86721         2.04697         5.47120
     2009.86995         7.87743         5.44358
     2009.87269         6.97788         5.43289
     2009.87542         5.49234         5.42042
     2009.87816        15.22480         5.50861
     2009.88090         6.26125         5.52643
     2009.88364        12.38671         5.28681
     2009.88637         1.54116         5.29304
     2009.88911         8.24162         5.16388
     2009.89185         8.57808         5.15942
     2009.89459         1.65153         5.22178
     2009.89733         2.70399         5.28948
     2009.90006         4.10544         5.14962
     2009.90280         1.40390         5.21465
     2009.90554        -0.26964         5.19684
     2009.90799         3.35408         5.91214
     2009.91449        -9.88096         9.41648
     2009.91647        -8.52080         6.31833
     2009.91923        -4.48636         6.13038
     2009.92197        -5.00491         5.14517
     2009.92470       -11.33445         5.00621
     2009.92744        -9.14900         4.97592
     2009.93018       -10.50154         5.01957
     2009.93292        -0.86208         4.97949
     2009.93566        -4.43663         4.96880
     2009.93839        -3.62917         5.34471
     2009.94113        -0.37172         5.12112
     2009.94387        -0.10226         5.18169
     2009.94661         0.55120         5.14962
     2009.94935        -2.66135         5.03917
     2009.95208        -3.60789         4.93406
     2009.95482        -7.18944         4.98394
     2009.95756         0.27102         5.00175
     2009.96030        -1.91152         5.05609
     2009.96304        -7.35907         5.06322
     2009.96577        -8.05161         5.10865
     2009.96851        -2.13216         5.10598
     2009.97125        -1.37070         5.10954
     2009.97399        -2.59224         5.09796
     2009.97672       -16.51579         5.17100
     2009.97946        -9.97633         4.98572
     2009.98220       -11.07888         5.01601
     2009.98494        -4.31342         5.01512
     2009.98767        -4.22596         4.98394
     2009.99041        -8.17751         5.01868
     2009.99315        -6.41405         5.10865
     2009.99589        -3.32160         4.92693
     2009.99857        -3.55809         5.08994
     2010.00410        -3.27423         4.97592
     2010.00684       -10.03877         5.05876
     2010.00958        -6.30932         4.95632
     2010.01232       -11.32386         4.96880
     2010.01505        -4.68140         5.11399
     2010.01779         0.93205         5.13448
     2010.02053        -6.00949         5.02046
     2010.02327        -7.02504         5.03739
     2010.02600         0.50442         5.08905
     2010.02874         3.82488         5.55582
     2010.03148        -5.26167         5.60838
     2010.03422        -9.09921         5.10598
     2010.03696         1.02824         5.35629
     2010.03969         1.14170         5.16744
     2010.04243        -1.09584         4.97503
     2010.04517         1.40161         4.97147
     2010.04791         9.92807         5.04986
     2010.05065        -1.92748         5.12112
     2010.05338         2.03198         5.15764
     2010.05612        -1.93256         5.56918
     2010.05886        -3.01511         5.26543
     2010.06160        -4.78565         4.94385
     2010.06433        -1.31820         4.98928
     2010.06707        -1.34374         5.04808
     2010.06981        -8.31928         5.07035
     2010.07255        -5.54183         5.06589
     2010.07529        -6.59437         5.12914
     2010.07802        -1.34792         4.99552
     2010.08076        -5.86846         4.98839
     2010.08350         1.65100         5.01066
     2010.08624        -0.92255         4.94742
     2010.08858         9.15528         6.31299
     2010.09171         3.24636         5.03115
     2010.09447         5.51680         5.41508
     2010.09719         0.90328         5.14072
     2010.09993        -0.88527         4.99908
     2010.10266        -1.71881         4.97592
     2010.10540         2.76265         5.10954
     2010.10814        -0.64590         5.11132
     2010.11088         1.92456         5.11221
     2010.11362         4.80801         5.07035
     2010.11635        10.94647         5.14161
     2010.11909         3.79693         4.98661
     2010.12183         3.60238         5.02492
     2010.12457        -0.39116         5.01779
     2010.12731         1.64529         5.15675
     2010.13004         0.23075         5.09707
     2010.13280        -6.41681         5.63688
     2010.13552        -1.84134         5.02046
     2010.13826         0.16312         5.03560
     2010.14099        -0.99243         4.93495
     2010.14373        -0.81397         5.13270
     2010.14647        -4.87151         5.11756
     2010.14921         5.17594         5.04006
     2010.15195         4.44540         5.01512
     2010.15468         2.63085         5.00354
     2010.15742         1.55431         5.04362
     2010.16016         2.95677         5.01779
     2010.16290         3.24922         4.96880
     2010.16564        -3.58232         5.55671
     2010.16837        -0.45087         5.20129
     2010.17111         2.34659         4.95989
     2010.17385         2.91005         4.91535
     2010.17659        -2.78950         4.93673
     2010.17932         7.29596         4.93049
     2010.18206         3.77341         4.94831
     2010.18480         4.07787         4.91624
     2010.18754         2.09633         4.87348
     2010.19028         8.42078         4.88506
     2010.19301         3.87924         4.93851
     2010.19575         6.60769         4.95454
     2010.19849         4.35815         4.91980
     2010.20123         3.72561         5.17100
     2010.20398         2.16004         5.27077
     2010.20670         1.59052         5.10330
     2010.20944        -3.86203         4.87170
     2010.21218         6.64343         5.00710
     2010.21492         6.04489         4.87972
     2010.21765        -3.10966         4.92158
     2010.22039        -4.67620         4.96523
     2010.22313         9.85025         4.92960
     2010.22587         5.80071         5.17724
     2010.22861         6.67517         4.97236
     2010.23134         2.34562         5.17813
     2010.23402         3.20513         5.19060
     2010.23956        11.62099         5.10865
     2010.24230         8.59045         5.25919
     2010.24503         4.57890         5.18080
     2010.24777        -0.12364         5.04540
     2010.25051        11.70481         5.16388
     2010.25325         7.45427         5.07035
     2010.25598         6.20673         5.19238
     2010.25872        11.63618         5.00175
     2010.26146        -0.46436         5.28413
     2010.26420         4.86909         5.20129
     2010.26694         3.45455         5.09172
     2010.26967         4.82701         5.07480
     2010.27241         5.14646         5.17902
     2010.27515         2.12192         5.10419
     2010.27785        -2.15859         6.25331
     2010.28062         1.05083         5.23959
     2010.28336         1.19629         5.27790
     2010.28611        -3.34826         5.18080
     2010.28884         3.16120         4.99997
     2010.29158        -0.91735         5.26543
     2010.29431         1.28811         5.19684
     2010.29705         8.38557         5.03471
     2010.29979         6.99602         5.06678
     2010.30253        12.27148         5.06411
     2010.30527         8.94093         5.53801
     2010.30800         9.25439         5.15675
     2010.31074         5.63585         4.97236
     2010.31348        11.36630         4.99730
     2010.31622        11.32776         4.95632
     2010.31895         8.81921         5.08994
     2010.32169         8.41367         5.05520
     2010.32443         3.80013         5.14428
     2010.32717         7.83958         4.97147
     2010.32991         2.26504         5.00888
     2010.33264        11.64350         5.01155
     2010.33538         5.62795         5.14784
     2010.33812         6.45641         5.02313
     2010.34086         3.17286         5.05520
     2010.34360         1.85832         4.97414
     2010.34633         0.86078         5.01423
     2010.34907        -1.95177         5.01690
     2010.35181        -1.47931         4.98038
     2010.35455         1.23214         5.04362
     2010.35728         0.77960         5.03650
     2010.36002         2.56606         5.19149
     2010.36276         1.10951         4.99017
     2010.36550         0.11897         5.22267
     2010.36824         8.80142         5.18347
     2010.37097         5.97788         4.96078
     2010.37371         3.59534         4.96612
     2010.37645        11.57679         5.10152
     2010.37919        10.10525         5.22000
     2010.38193         5.44370         5.19506
     2010.38466         1.43016         5.24939
     2010.38740         7.76862         5.04006
     2010.39014         4.13607         5.11667
     2010.39288         3.92153         5.17011
     2010.39561        -5.46402         5.09974
     2010.39835         3.38544         5.07658
     2010.40109         2.48390         4.92871
     2010.40383         3.41135         4.93584
     2010.40657         3.88381         5.09885
     2010.40930         2.65826         4.99196
     2010.41204        -3.29128         4.98305
     2010.41478         6.63118         4.98305
     2010.41752         4.94963         4.95187
     2010.42026         5.61609         5.00621
     2010.42299         8.36754         4.98394
     2010.42573         0.18400         4.99819
     2010.42847         0.20246         4.94831
     2010.43121        -0.66109         4.92426
     2010.43394         0.14537         4.92871
     2010.43660        -5.31610         5.12023
     2010.44034         5.23743         8.43840
     2010.44216         2.62374         4.99819
     2010.44490         2.87119         5.16744
     2010.44763         0.70765         4.96345
     2010.45037         0.59910         5.24138
     2010.45311         0.48756         4.96880
     2010.45585        -5.68798         4.97770
     2010.45859         0.95947         5.02313
     2010.46132         3.44093         5.03026
     2010.46406         7.57138         5.02937
     2010.46680         3.18584         5.00799
     2010.46954        -5.34870         5.17189
     2010.47227         3.27675         4.97325
     2010.47501         2.24521         5.42666
     2010.47775         3.78666         5.20931
     2010.48049         0.20112         5.12468
     2010.48323        10.36258         4.96256
     2010.48596         9.74503         4.99017
     2010.48870        12.01449         5.00532
     2010.49144        10.63694         4.98305
     2010.49418         2.55340         5.00354
     2010.49692         3.80686         4.96790
     2010.49965         0.01131         5.05431
     2010.50239         6.72377         4.98127
     2010.50513         5.62022         4.96523
     2010.50787         5.11368         5.00175
     2010.51060         2.33314         4.95811
     2010.51334         6.06359         5.78832
     2010.51608         6.81105         5.04006
     2010.51882        11.10450         5.01779
     2010.52156         0.22096         5.14784
     2010.52429        14.03442         4.99641
     2010.52703         2.08987         4.94920
     2010.52977         2.02933         4.98839
     2010.53251        -0.37222         5.03917
     2010.53525         6.97624         4.99730
     2010.53798         0.11170         4.96434
     2010.54072         1.48715         4.92604
     2010.54346         1.99061         4.95989
     2010.54620         3.47606         5.06767
     2010.54893         5.29752         5.00799
     2010.55167         0.18198         5.00532
     2010.55441         2.20043         4.97503
     2010.55715         4.49689         5.10598
     2010.55989         5.03434         5.03382
     2010.56262         3.46380         5.00799
     2010.56536         6.66226         4.96434
     2010.56810         7.36571         4.92960
     2010.57084         1.63117         5.01423
     2010.57357         0.78063         5.20129
     2010.57631         6.59508         5.14962
     2010.57905         5.16754         4.98038
     2010.58134         1.15841         6.28003
     2010.58763         3.38357         5.73309
     2010.59000         7.16336         5.20485
     2010.59274         1.24382         5.02581
     2010.59548        12.47627         4.98394
     2010.59822        12.71173         5.04629
     2010.60095         9.66019         4.92871
     2010.60369         5.01564         5.08193
     2010.60643         8.74810         5.00443
     2010.60917         1.04755         5.03115
     2010.61190         8.73401         5.01957
     2010.61464         4.96147         4.97503
     2010.61738         8.20492         4.95543
     2010.62012         9.55038         4.99641
     2010.62286         7.49283         4.96612
     2010.62559         4.35129         5.08282
     2010.62833        22.92275         5.14962
     2010.63107         7.96020         5.07925
     2010.63381        14.33466         5.03917
     2010.63655        15.12911         4.99017
     2010.63928         9.32757         4.97058
     2010.64202         9.64503         5.02670
     2010.64476        11.61848         5.19951
     2010.64750         9.23594         4.93495
     2010.65023         5.75739         5.12023
     2010.65297         7.91385         5.13983
     2010.65571         7.81931         9.11807
     2010.65845        14.41176         4.93762
     2010.66119         7.78422         5.00710
     2010.66392        16.76267         4.99641
     2010.66666        12.43313         4.96434
     2010.66940        18.99159         5.27968
     2010.67214         9.65904         5.37499
     2010.67488        13.60850         4.91357
     2010.67761         9.39595         4.96523
     2010.68035         8.44241         4.93227
     2010.68309         8.97387         4.88328
     2010.68583         8.44432         4.87704
     2010.68856         5.21678         4.97236
     2010.69130         5.27723         4.97859
     2010.69404         5.36169         5.29839
     2010.69678        -0.34485         5.01779
     2010.69952         5.08060         4.87972
     2010.70225         7.36606         4.89308
     2010.70499         7.19851         4.98483
     2010.70773         4.04697         5.42310
     2010.71047         8.01543         4.95454
     2010.71321         4.55888         5.21020
     2010.71594        13.67234         4.91446
     2010.71868         9.32579         5.07391
     2010.72142         6.88625         5.02313
     2010.72416         8.05371         5.21643
     2010.72689         8.78216         5.56028
     2010.72963         8.31862         5.19416
     2010.73237        12.47407         5.35272
     2010.73511        11.65153         4.94296
     2010.73785        10.82899         5.62798
     2010.74058        13.23944         5.08549
     2010.74316         2.39504         5.16922
     2010.74690        12.78357         8.69406
     2010.74880         7.73981         5.09083
     2010.75154        13.16427         4.99730
     2010.75427         6.97672         5.11488
     2010.75701         1.57118         5.11756
     2010.75975         5.55363         5.15497
     2010.76249        15.24209         5.26899
     2010.76522         7.36955         4.98572
     2010.76796        12.80300         5.10063
     2010.77070         5.55746         5.03739
     2010.77344        10.67891         5.25028
     2010.77618         6.34637         5.01244
     2010.77891         0.97183         4.97949
     2010.78165         2.74528         4.99374
     2010.78439         5.47074         5.04006
     2010.78713        10.10019         5.02670
     2010.78987        16.42965         4.89931
     2010.79260         9.07211         4.97325
     2010.79534         2.77856         4.96612
     2010.79808         6.56202         4.91891
     2010.80082         6.02747         5.01601
     2010.80355        12.73693         4.88595
     2010.80629         8.24339         4.94564
     2010.80903         8.04584         5.10330
     2010.81177        11.78930         4.87170
     2010.81451        15.57076         4.91089
     2010.81724        15.97321         4.90466
     2010.81998         6.51567         4.89308
     2010.82272         8.59612         4.90288
     2010.82546        19.70658         5.45249
     2010.82760        11.46359        10.39724
     2010.83107        18.66337        22.08789
     2010.83465         1.99004        10.23600
     2010.83641         1.80040         5.01690
     2010.83915         8.77286         5.25563
     2010.84081         7.11632        10.75088
     2010.90208         6.03238         5.18437
     2010.90485         6.38580         4.96523
     2010.90759         5.96826         4.90822
     2010.91033         7.72372         4.96167
     2010.91307         4.39917         5.12646
     2010.91581         7.22563         5.07480
     2010.91854         9.79908         4.87883
     2010.92128         2.39954         4.80222
     2010.92402         3.79700         4.82716
     2010.92676         3.89545         4.90466
     2010.92950         0.14091         4.91624
     2010.93223         0.06136         4.93316
     2010.93497         6.30982         4.97770
     2010.93771         5.15728         4.81469
     2010.94045         3.38673         4.96345
     2010.94318         7.35919         4.90288
     2010.94592         3.37264         4.88684
     2010.94866         5.80210         4.89842
     2010.95140         9.02056         4.96880
     2010.95414         8.23901         5.05164
     2010.95687        -0.71153         4.83607
     2010.95961        -1.88808         4.92069
     2010.96235         0.97038         4.86279
     2010.96509         5.03284         4.85210
     2010.96783        -0.04471         5.04095
     2010.97056        -0.26525         4.85121
     2010.97330         6.86320         4.85478
     2010.97604         1.89366         4.85299
     2010.97878        -0.31488         4.90822
     2010.98151        -2.14743         4.94118
     2010.98425         0.18603         4.83161
     2010.98699         6.19248         5.02937
     2010.98973         2.74894         4.98394
     2010.99247       -11.70760         4.93406
     2010.99520       -11.63215         4.94029
     2010.99794        -5.42969         4.90733
     2011.00342         1.53522         4.87170
     2011.00616         2.32368         4.83963
     2011.00889         1.50913         5.04540
     2011.01163        -2.16741         4.93940
     2011.01437         2.64404         4.88863
     2011.01711         1.95050         4.84943
     2011.01984        -0.05704         4.89664
     2011.02258        -6.57559         4.81113
     2011.02532        -5.87513         5.09172
     2011.02806        -2.14368         4.89130
     2011.03080        -7.37022         4.73096
     2011.03353        -4.22576         4.72561
     2011.03627        -1.67931         4.70958
     2011.03901        -6.32085         4.76659
     2011.04175        -0.71940         4.82093
     2011.04449        -5.20094         4.83161
     2011.04722        -3.19748         4.90555
     2011.04996        -7.39403         4.91446
     2011.05270        -1.36457         4.76837
     2011.05544        -3.59111         4.85656
     2011.05817         2.06534         4.90911
     2011.06091         5.13480         4.87081
     2011.06365         4.46325         4.89219
     2011.06639        -3.96529         4.84498
     2011.06913        -3.02483         5.17457
     2011.07186        -9.58938         4.89931
     2011.07460       -10.44292         4.83518
     2011.07734         0.58553         4.94207
     2011.08008        -9.49401         4.79687
     2011.08282       -10.09255         4.78797
     2011.08555       -13.45410         4.93495
     2011.08829       -14.31964         4.89308
     2011.09103       -10.12219         4.88863
     2011.09377         4.24027         4.92158
     2011.09650       -14.01627         4.83963
     2011.09924        -1.08082         4.84676
     2011.10198        -6.67936         4.84409
     2011.10472        -8.50991         4.81291
     2011.10746        -3.06145         4.84052
     2011.11019        -5.70099         4.96790
     2011.11293        -3.16354         4.93940
     2011.11567         1.91692         5.04451
     2011.11841        -1.16563         4.79687
     2011.12115        -3.28617         4.79242
     2011.12388        -2.68971         5.00710
     2011.12662        -1.37926         4.96256
     2011.12936         1.54320         4.76124
     2011.13210        -5.46435         4.75857
     2011.13483       -10.13889         4.72116
     2011.13757        -4.45543         4.81469
     2011.14031        -4.72598         4.84320
     2011.14305        -5.04652         4.82271
     2011.14579        -8.38807         4.79509
     2011.14852        -9.12061         4.70691
     2011.15126        -6.27815         4.71849
     2011.15400         7.19630         4.80400
     2011.15674         2.70176         4.76837
     2011.15948         3.34821         5.18882
     2011.16221        -0.69133         4.74788
     2011.16495        -3.98287         4.73363
     2011.16769       -10.16342         4.76035
     2011.17043        -4.52096         4.75679
     2011.17316       -17.00451         4.83251
     2011.17590       -13.89005         4.75768
     2011.17864        -7.14959         4.75768
     2011.18138        -4.44314         4.95632
     2011.18412        -9.52568         4.77639
     2011.18732        27.91734        23.29847
     2011.19043         5.34445         7.75517
     2011.19233        -4.87731         4.81469
     2011.19507         0.77714         5.01957
     2011.19780         0.54560         4.85923
     2011.20054         0.98905         4.81202
     2011.20328         4.59851         4.88150
     2011.20602        -1.57903         5.03026
     2011.20876        -2.98258         4.78529
     2011.21149        -5.07612         4.77282
     2011.21423        -5.20267         4.75234
     2011.21697         5.02779         4.87437
     2011.21971         5.10825         4.95365
     2011.22245         2.22470         4.77460
     2011.22518        -0.99584         4.88773
     2011.22792         2.45661         5.06500
     2011.23066         1.19407         5.34827
     2011.23340         3.72353         4.73897
     2011.23613         1.13498         5.17724
     2011.23887         1.07744         4.81558
     2011.24161         4.89189         4.87615
     2011.24435         0.38335         5.15230
     2011.24709        -1.81719         5.23425
     2011.24982        -0.02074         4.85656
     2011.25256         4.16372         4.91089
     2011.25484         0.88560         6.07693
     2011.25876         2.47796         7.23139
     2011.26078         1.70109         5.11756
     2011.26351        -1.73446         4.90288
     2011.26625         2.91400         4.87526
     2011.26899         4.03345         4.92960
     2011.27173        -2.54409         4.91980
     2011.27446         7.15237         4.89397
     2011.27720        -4.44318         5.22890
     2011.27994        -1.61372         4.92426
     2011.28268         3.90674         5.08460
     2011.28539        -3.49279         4.97236
     2011.28815        -2.45135         4.84765
     2011.29089        -1.72190         4.92247
     2011.29363        -3.90244         4.82894
     2011.29637         2.42302         5.03828
     2011.29911         0.76747         4.82983
     2011.30184         5.44993         4.97592
     2011.30458        -0.42662         4.99196
     2011.30732         0.96484         4.87170
     2011.31006         0.58230         4.91089
     2011.31279         2.60475         5.23781
     2011.31517         1.87855         5.68588
     2011.32198         0.25222         8.98267
     2011.32472        -8.31133         8.82856
     2011.32745         0.51213         8.69317
     2011.33019         5.31359         8.54619
     2011.33196        -0.81606         4.77995
     2011.33470        -3.19760         4.82093
     2011.33744        -2.56414         4.93584
     2011.34017         1.85131         4.98928
     2011.34291         0.77477         4.94296
     2011.34565         1.99722         4.86725
     2011.34839        -2.73832         4.84854
     2011.35112        -3.78586         4.92604
     2011.35386        -4.85541         4.93316
     2011.35660        -1.75395         4.79955
     2011.35934        -8.76750         4.74966
     2011.36208        -3.84104         4.79598
     2011.36481        -7.15858         6.36376
     2011.36755        -5.83013         4.88773
     2011.37029        -1.02767         4.85923
     2011.37303         1.24378         4.87883
     2011.37577        -0.07476         4.87348
     2011.37850        -5.26430         4.95365
     2011.38124        -8.22085         4.91268
     2011.38398       -13.36139         4.96701
     2011.38672        -5.36694         4.84498
     2011.38945        -4.39848         4.85745
     2011.39219         3.41998         4.84498
     2011.39493        -1.22157         4.86012
     2011.39767        -2.53711         5.24494
     2011.40035        -2.81860         5.00443
     2011.40309        -7.17215         5.21198
     2011.40582         0.95531         5.00175
     2011.40856        -2.48023         4.96523
     2011.41130        -1.23678         5.05342
     2011.41410        -5.54238         5.14606
     2011.41683        -1.51192         4.89842
     2011.41920        -0.62211         5.92817
     2011.42254        20.50778        47.65252
     2011.42711        -3.58747        35.94583
     2011.43061        -7.67872        11.25150
     2011.43326        -8.72518         5.76872
     2011.43600        -1.43873         5.09351
     2011.43874        -4.73027         4.91000
     2011.44147         0.24418         4.99107
     2011.44421        -5.43836         5.18258
     2011.44695         0.72010         4.95098
     2011.44969        -1.04745         5.00799
     2011.45243        -1.83699         5.31709
     2011.45516        -2.06454         4.98127
     2011.45790        -0.75208         4.87972
     2011.46064        -3.05062         4.92247
     2011.46338        -8.16617         4.94385
     2011.46611        -1.86971         4.90822
     2011.46885         2.23474         4.99819
     2011.47159        -2.37480         4.89931
     2011.47433         1.44866         5.15141
     2011.47707         4.52911         4.93406
     2011.47980         1.51757         4.90822
     2011.48254         0.78202         4.91179
     2011.48528         2.21148         4.92960
     2011.48802        -3.51806         4.95722
     2011.49076         4.30039         4.92337
     2011.49349         1.50185         5.05075
     2011.49623         6.48030         5.01601
     2011.49897         5.40776         4.95454
     2011.50171         3.70722         5.08905
     2011.50444        -3.85633         5.03471
     2011.50718        -2.02787         5.04897
     2011.50992        -1.70942         4.91446
     2011.51266        -2.92296         4.93584
     2011.51540         2.55750         4.91891
     2011.51813         3.40295         4.90199
     2011.52087         0.43341         4.91268
     2011.52361        -2.72013         4.98127
     2011.52635        -1.36568         4.90466
     2011.52908         1.40278         5.04095
     2011.53182         9.30623         5.09351
     2011.53456         7.22369         4.91802
     2011.53730        -1.24085         5.01244
     2011.54004         0.45060         4.92515
     2011.54277        -4.19894         4.95365
     2011.54551        -0.59049         4.91980
     2011.54825         1.79297         5.01868
     2011.55099         1.64743         4.95098
     2011.55373         1.47388         4.90733
     2011.55646         0.82334         5.02670
     2011.55920         1.18379         4.98305
     2011.56194         4.03225         4.91357
     2011.56468         6.58371         4.90822
     2011.56741         8.44516         4.91713
     2011.57010        -1.63133         5.11132
     2011.57289         0.30107         4.91802
     2011.57563         4.62453         4.95365
     2011.57837         4.43999         4.93049
     2011.58110         4.21444         4.91089
     2011.58384         2.66890         4.96612
     2011.58658         8.36635         5.08193
     2011.58932         5.61381         5.04718
     2011.59206         1.11127         4.90199
     2011.59479        14.75172         5.05342
     2011.59753         8.51918         4.98839
     2011.60027         9.64363         4.97859
     2011.60301        10.72809         4.96167
     2011.60574         2.52455         4.93940
     2011.60848         1.18700         5.13626
     2011.61122         9.77046         5.10509
     2011.61396         7.65991         4.97058
     2011.61670         7.98837         5.26988
     2011.61943         7.73083         4.91446
     2011.62217        10.11328         5.07480
     2011.62491         6.14474         4.91891
     2011.62765         5.73719         4.93584
     2011.63039         6.47365         5.03471
     2011.63312        11.94511         5.05520
     2011.63586        12.05056         5.06767
     2011.63860        10.04202         4.96256
     2011.64134        14.60747         5.15319
     2011.64407        10.80293         5.15586
     2011.64681         7.96239         4.88150
     2011.64955        10.54584         5.18882
     2011.65229         4.68230         5.02402
     2011.65503         5.56575         5.08103
     2011.65776         4.05121         5.03293
     2011.66050         1.52367         5.07124
     2011.66324         7.93212         4.99908
     2011.66598         6.14958         5.20574
     2011.66872         9.03803         5.01601
     2011.67145         8.55949         4.98661
     2011.67416         9.25197         6.65327
     2011.67693        15.76440         4.92247
     2011.67967        11.08886         5.09796
     2011.68240        11.93031         5.04451
     2011.68514         9.66277         5.17813
     2011.68788         2.05023         5.14072
     2011.69062         7.57568         5.18437
     2011.69336         7.72214         4.97058
     2011.69609         4.68359         4.99196
     2011.69883         9.76805         5.30551
     2011.70157         7.36451         4.95632
     2011.70431         6.12296         4.96167
     2011.70705         8.68242         5.06678
     2011.70978         3.54387         5.08460
     2011.71252         9.92333         5.04273
     2011.71526         6.14979         5.04540
     2011.71800        15.34824         5.18793
     2011.72073         7.63970         5.20040
     2011.72342        14.00421         5.15586
     2011.72621        15.86561         5.27523
     2011.72895         7.15607         5.02937
     2011.73169         6.92752         4.98216
     2011.73442         5.48498         5.04718
     2011.73716         7.56043         5.00175
     2011.73990         1.36989         5.06767
     2011.74264        11.84435         4.99107
     2011.74538         3.49280         5.21376
     2011.74811        10.03926         5.18704
     2011.75085        12.15571         5.13003
     2011.75359         7.27617         5.15586
     2011.75633        10.74063         5.03560
     2011.75906         9.14508         5.00799
     2011.76180         6.07154         5.04006
     2011.76454         3.68000         5.04184
     2011.76728         4.20645         5.09351
     2011.77002         7.44991         5.11845
     2011.77275         9.46036         5.00977
     2011.77549         8.60082         5.05253
     2011.77823         8.67228         5.10241
     2011.78097         7.84773         5.09796
     2011.78371         7.59019         5.08103
     2011.78644        13.10464         4.92604
     2011.78918         3.24710         4.97503
     2011.79143         9.39901         5.99587
     2011.79836        -0.87743        10.63953
     2011.80013        12.91092         4.97058
     2011.80287        17.94138         5.16833
     2011.80561         7.91084         5.07925
     2011.80835         6.64729         5.00621
     2011.81108         5.25975         5.01690
     2011.81382        -6.56880         5.63154
     2011.81650        10.05171         7.47814
     2011.81930        -6.37988        11.63365
     2011.82203         5.23657         4.97681
     2011.82477         6.54203         4.97859
     2011.82751         8.31148         5.32422
     2011.83025         5.06394         4.95098
     2011.83299         1.19340         5.12112
     2011.83572         0.55185         5.03650
     2011.83846        -0.44069         4.93762
     2011.84120         3.63076         4.95454
     2011.84394         8.92622         4.96167
     2011.84668         3.47668         4.90733
     2011.84941         3.30513         4.94653
     2011.85215        -0.50741         4.92960
     2011.85489        -4.07496         5.01957
     2011.85763        -1.45850         5.06945
     2011.86036         2.71396         4.94564
     2011.86310         6.34541         4.92871
     2011.86584         2.33787         4.95811
     2011.86858         4.18932         4.90199
     2011.87132         4.29978         4.93227
     2011.87405         3.69324         4.95098
     2011.87679         2.89569         4.95989
     2011.87953         3.88515         4.99017
     2011.88227        -0.29640         4.94920
     2011.88501        -0.89894         5.14517
     2011.88774         4.27152         4.96078
     2011.89048         7.74797         4.92158
     2011.89322         4.14143         4.96434
     2011.89596        -0.17512         4.88061
     2011.89869         3.69534         4.91268
     2011.90085         2.14234         6.51698
     2011.90696         2.24566         5.07836
     2011.90965         4.61616         5.01957
     2011.91238        -6.50438         4.99730
     2011.91512        -3.82192         5.09172
     2011.91786        -7.15147         5.02135
     2011.92060        -6.06301         4.91179
     2011.92334        -0.64056         4.97949
     2011.92607       -12.23010         5.15586
     2011.92973       -10.80250         8.85529
     2011.93155         2.81881         4.91000
     2011.93429         0.45027         4.99107
     2011.93702         0.76072         5.04808
     2011.93976         0.01518         4.95543
     2011.94250        -0.12736         4.97147
     2011.94524        -4.24691         5.11667
     2011.94798         2.76055         4.94029
     2011.95063         1.50908         5.05876
     2011.95670         0.72244         6.60784
     2011.95893        -0.67763         4.84854
     2011.96167         2.95783         4.80756
     2011.96440         1.06428         5.08193
     2011.96714        -1.34026         4.86546
     2011.96988         2.17520         4.82805
     2011.97262         6.76365         5.23247
     2011.97541        -6.89194         5.09529
     2011.97809        -4.50144         4.84676
     2011.98083        -0.41998         4.79598
     2011.98357         3.51248         4.86992
     2011.98631        -0.48407         4.78262
     2011.98899         0.71944         4.95187
     2011.99178         2.40484         4.80133
     2011.99452         2.71230         4.87615
     2011.99726        -3.32724         4.82003
     2012.00273         1.69767         4.86101
     2012.00547        -4.09387         4.85923
     2012.00821        -4.47642         4.87972
     2012.01095         1.22504         4.86992
     2012.01368        -3.12851         4.81380
     2012.01642        -1.38705         4.88328
     2012.01916         0.74441         4.91000
     2012.02190        -2.16214         4.78797
     2012.02450        -9.36456         5.15497
     2012.08213        -5.47011         4.84409
     2012.08487        -3.47965         4.84230
     2012.08761       -12.17119         4.89219
     2012.09034        -9.27274         4.85656
     2012.09308        -5.39428         4.88506
     2012.09582       -13.29283         4.86546
     2012.09856        -4.51437         4.81647
     2012.10130       -10.38191         4.88773
     2012.10403        -6.86446         4.96612
     2012.10679        -7.92302         7.48437
     2012.10951       -10.09255         4.88150
     2012.11225        -9.73209         5.00799
     2012.11498        -7.22663         4.90110
     2012.11772        -4.21518         4.81736
     2012.12046        -2.35872         4.86368
     2012.12320        -5.53527         4.86101
     2012.12594        -8.29081         4.85299
     2012.12867       -10.47635         4.84498
     2012.13141        -7.81290         4.83607
     2012.13415       -16.49644         4.93049
     2012.13689        -4.96199         4.82182
     2012.13963        -4.11253         4.93316
     2012.14236        -7.92407         4.96078
     2012.14510        -8.65062         4.82449
     2012.14784        -9.13416         4.72116
     2012.15058       -10.59571         4.75857
     2012.15331        -7.52325         4.77550
     2012.15605       -10.60879         4.89397
     2012.15879       -10.47134         5.09083
     2012.16153        -7.15188         4.91000
     2012.16425        -9.32841         6.40652
     2012.16678        -4.98976        19.97406
     2012.16957        -2.25735        40.05501
     2012.17249       -24.77907        62.25425
     2012.17555       -17.72591        65.11724
     2012.17774       -29.86794        76.69387
     2012.18073       -11.62672         7.01315
     2012.18343        -9.10323         4.91891
     2012.18617       -11.41378         5.40528
     2012.18891        -9.97632         5.35361
     2012.19164        -6.48887         4.85567
     2012.19438        -3.08641         4.90288
     2012.19712        -5.81595         4.85299
     2012.19986        -6.63450         4.89842
     2012.20260        -4.50004         4.92426
     2012.20533        -1.91759         4.88417
     2012.20807       -11.55013         4.90377
     2012.21081        -8.81667         4.85388
     2012.21355        -8.74522         4.86101
     2012.21629        -2.21976         4.84052
     2012.21902       -10.19631         4.78975
     2012.22158        -7.56768         5.24761
     2012.22473       -18.42161         5.49169
     2012.22724        -8.71594         5.22890
     2012.22999        -8.18550         4.84943
     2012.23273        -7.04104         4.83963
     2012.23545        -6.04457         4.87526
     2012.23819        -2.02011         4.86636
     2012.24093        -4.04966         4.82805
     2012.24366        -5.95320         4.83072
     2012.24640        -9.21574         4.82003
     2012.24914        -7.03529         4.82360
     2012.25188        -6.94883         4.87526
     2012.25462        -8.94438         4.81914
     2012.25735        -8.62192         4.84498
     2012.26009       -13.92146         4.86814
     2012.26283        -8.72101         4.78351
     2012.26557       -12.37055         4.78173
     2012.26705       -20.26693        15.84171
     2012.27178        -8.21933         7.10757
     2012.27378        -9.84518         4.95900
     2012.27652       -12.80473         4.90822
     2012.27926        -8.44827         4.93851
     2012.28199        -5.40282         4.79153
     2012.28473        -7.95936         4.76926
     2012.28747        -7.63890         4.75144
     2012.29021        -8.33645         4.76926
     2012.29295       -12.78599         4.80578
     2012.29548       -11.59835         6.51787
     2012.29848        -4.91413        11.77172
     2012.30116        -9.02962         4.82894
     2012.30393       -15.33020         4.83518
     2012.30663       -12.65271         5.07569
     2012.30937       -10.79026         4.84052
     2012.31211        -7.32080         5.19684
     2012.31485       -11.24734         4.93049
     2012.31759        -7.15089         4.84765
     2012.32032        -5.85243         4.93584
     2012.32306        -9.91198         4.88684
     2012.32580        -7.95852         4.86457
     2012.32854        -9.08906         4.95365
     2012.33128        -5.24161         4.94474
     2012.33401        -8.09415         5.46407
     2012.33675        -5.59670         4.80044
     2012.33949       -10.65824         4.78618
     2012.34223       -11.61078         4.88684
     2012.34476       -19.67714         6.77174
     2012.34787        -9.97003         5.23158
     2012.35044        -5.53042         4.82271
     2012.35318       -11.44796         4.80578
     2012.35592        -7.73350         4.75144
     2012.35865       -13.33105         4.71047
     2012.36139        -4.84459         4.79955
     2012.36413        -4.88714         5.09351
     2012.36687        -8.47568         4.72650
     2012.36961        -5.55122         4.72561
     2012.37234        -7.41077         4.71670
     2012.37508        -6.74531         4.70869
     2012.37782        -8.57286         4.86012
     2012.38056       -12.33240         4.84498
     2012.38329        -6.72694         4.96523
     2012.38603        -3.93149         4.82538
     2012.38877       -10.20303         4.86992
     2012.39151        -6.35058         4.82627
     2012.39425        -7.51012         4.88684
     2012.39698       -11.77466         4.88952
     2012.39972        -4.90821         4.87615
     2012.40246        -8.95575         4.88417
     2012.40520        -9.81330         4.73719
     2012.40794        -8.61084         4.78529
     2012.41067        -6.79038         4.83429
     2012.41341        -8.13193         4.84230
     2012.41615        -4.25647         4.77995
     2012.41889        -6.10002         4.86279
     2012.42162        -8.71456         4.89219
     2012.42435        -2.57109         4.84854
     2012.42710        -8.07065         4.80400
     2012.42984        -3.73219         4.80578
     2012.43258        -9.51374         4.79420
     2012.43530       -12.35327         5.19416
     2012.43805        -4.92882         5.61194
     2012.44079       -10.82437         4.85834
     2012.44353        -8.11991         4.94296
     2012.44626        -6.51346         4.82271
     2012.44888        -3.94288         4.97681
     2012.46865        -6.80225         5.87294
     2012.47091       -10.43535         4.86636
     2012.47364        -4.70289         4.89308
     2012.47638        -9.59444         4.82805
     2012.47912        -2.38398         5.03828
     2012.48186        -5.57453         4.78084
     2012.48459        -7.05107         4.82182
     2012.48733        -7.31161         5.02402
     2012.49007        -3.09816         4.87259
     2012.49281        -3.46170         4.80578
     2012.49555        -5.07025         4.85656
     2012.49828        -5.39479         4.93138
     2012.50102        -5.92033         4.83161
     2012.50376        -5.39888         4.79331
     2012.50650        -5.23342         4.98661
     2012.50924        -3.77297         4.91802
     2012.51197        -3.86351         4.96434
     2012.51471        -6.96805         4.85121
     2012.51745        -6.56760         4.88061
     2012.52019        -8.73514         4.88595
     2012.52292       -12.32969         4.85210
     2012.52566        -2.33523         4.77104
     2012.52839        -4.76876         4.93227
     2012.53114        -7.86632         5.11934
     2012.53388        -4.20686         4.90555
     2012.53661        -3.55741         5.63332
     2012.53935        -2.37095         5.21822
     2012.54209        -6.64849         4.88150
     2012.54483         0.20696         4.87437
     2012.54757        -1.81958         5.22445
     2012.54979         2.19235         6.41098
     2012.55578         4.86379         4.90466
     2012.55852         0.09924         5.36252
     2012.56125        -6.22330         4.88328
     2012.56399        -2.62685         4.86992
     2012.56673        -1.72139         4.88061
     2012.56947        -0.80993         4.87972
     2012.57221         2.74352         4.84141
     2012.57494        -3.27002         4.88328
     2012.57768        -0.94657         4.86457
     2012.58042         1.81189         4.85210
     2012.58316        -8.86065         4.90110
     2012.58590         0.38880         4.86101
     2012.58863         2.90226         5.03115
     2012.59137        -6.91329         5.06945
     2012.59411        -2.18483         4.97681
     2012.59685         1.18263         4.84052
     2012.59958         0.17208         4.97770
     2012.60232        -0.54346         5.14517
     2012.60506        -3.57201         4.86012
     2012.60780         0.55745         5.08638
     2012.61054        -0.62509         4.84765
     2012.61327         0.33136         4.80756
     2012.61601         3.08382         4.92604
     2012.61875        -6.32173         4.89931
     2012.62149        -3.55827         4.88150
     2012.62423        -1.04081         5.13804
     2012.62696        -1.37836         4.95187
     2012.62953        -3.47074         5.20129
     2012.63244        -2.60745         4.92604
     2012.63518        -5.15799         4.86368
     2012.63791         1.56847         4.87526
     2012.64065         3.10692         4.85567
     2012.64339         3.40338         4.86190
     2012.64613        -3.96017         4.81647
     2012.64887        -0.76571         4.88773
     2012.65160         2.49475         4.85567
     2012.65434        -0.47180         4.77015
     2012.65708         3.35666         5.02224
     2012.65982        -3.37789         5.05342
     2012.66256        -2.99443         4.87259
     2012.66529        -1.50097         4.82627
     2012.66803        -2.15852         4.83518
     2012.67077        -1.59206         4.96434
     2012.67351         0.11539         5.02492
     2012.67624        -5.40815         5.02492
     2012.67898         1.22531         4.94474
     2012.68172        -7.18524         4.95811
     2012.68446        -4.83878         4.97949
     2012.68720        -0.48733         5.29215
     2012.68993        -9.92387         5.72596
     2012.69267        -3.34541         5.11934
     2012.69541        -3.68796         5.00265
     2012.69815         1.88450         5.35183
     2012.70089        -0.86805         5.13894
     2012.70362        -5.38659         4.95543
     2012.70636        -2.22113         4.85656
     2012.70910       -10.90768         4.84587
     2012.71184       -11.12922         5.16655
     2012.71457        -1.27576         4.85121
     2012.71731        -1.08931         4.97949
     2012.72005         3.13415         4.80845
     2012.72279        -1.39840         4.89753
     2012.72553        -2.35994         4.80222
     2012.72826        -2.79948         5.60660
     2012.73100        -1.37603         4.96167
     2012.73374         4.12843         4.73007
     2012.73648         2.43088         4.75946
     2012.73915        -2.54460         8.29855
     2012.74195        -2.32320         9.31226
     2012.74469         2.88325         4.73719
     2012.74743         8.39771         5.30908
     2012.75017        -7.85484         5.81059
     2012.75290         3.64762         6.18472
     2012.75564         2.91408         4.89219
     2012.75838         5.18053         4.93673
     2012.76112        -1.30801         4.73185
     2012.76386         3.62444         4.99819
     2012.76659        -0.87110         4.74877
     2012.76933         5.03736         5.29304
     2012.77207         4.69781         5.04362
     2012.77481         4.70127         4.71670
     2012.77754         7.53572         4.90822
     2012.78028         8.80818         4.74877
     2012.78302         2.28764         5.16388
     2012.78576         2.94309         5.32867
     2012.78850         8.04655         5.03739
     2012.79123         3.30200         4.74075
     2012.79397        11.24546         4.90199
     2012.79671         3.39492         4.82093
     2012.79945         7.95837         4.79331
     2012.80219         3.91883         5.22890
     2012.80492        10.21628         4.95722
     2012.80766         1.04474         5.18080
     2012.81040         0.37520         4.87259
     2012.81314         0.61265         4.73808
     2012.81587         0.69911         4.81024
     2012.81861         0.55656         5.13626
     2012.82135         3.78402         4.93316
     2012.82409         3.23148         4.87704
     2012.82683         2.97593         4.73897
     2012.82956         6.85339         4.98839
     2012.83230         7.08384         4.71938
     2012.83504         2.66030         4.83340
     2012.83778        -1.01124         4.81202
     2012.84052        13.25321         4.78084
     2012.84325         6.49967         4.78975
     2012.84599         8.38712         4.79777
     2012.84873         6.28458         4.75768
     2012.85147         6.59804         4.74521
     2012.85420         5.15149         4.73274
     2012.85694         2.89895         4.75412
     2012.85968         5.06640         4.74254
     2012.86242         4.77086         5.08549
     2012.86516        12.48132         4.80133
     2012.86789         4.78977         4.92782
     2012.87063         5.94123         5.19416
     2012.87337         5.66968         4.78886
     2012.87611         7.45314         4.94029
     2012.87885        15.25960         4.72917
     2012.88158         9.56605         4.73274
     2012.88378        13.71201         6.03150
     2012.88822        28.76688        12.16812
     2012.88980        12.65442         4.80935
     2012.89253         1.75288         4.76392
     2012.89527         7.80533         4.74788
     2012.89801         6.28279         4.74699
     2012.90075        13.83424         4.69800
     2012.90349         1.35170         4.70780
     2012.90622         8.66116         4.72917
     2012.90896         5.11061         4.82093
     2012.91170         9.72107         4.75590
     2012.91444         7.30852         4.74165
     2012.91718        12.33298         4.81380
     2012.91991        10.65244         4.88863
     2012.92265         4.63589         4.76748
     2012.92539        10.53035         4.71759
     2012.92813         6.19280         4.71670
     2012.93086         3.87926         4.84943
     2012.93360         5.32772         4.79866
     2012.93634         4.55317         4.69176
     2012.93907         3.68264         4.85032
     2012.94182         8.93308         4.72561
     2012.94729         5.87100         4.76392
     2012.95003        12.11145         4.80222
     2012.95277         9.93791         4.72472
     2012.95551        15.21237         4.70156
     2012.95824        11.17882         4.71225
     2012.96098         3.39028         4.78797
     2012.96372         1.43373         5.16299
     2012.96646        12.90319         4.68909
     2012.96919        -0.04835         4.80133
     2012.97193         3.88910         4.77995
     2012.97467         4.39256         4.69978
     2012.97741         8.44201         4.68820
     2012.98015        -1.76553         4.69800
     2012.98288        -0.01407         4.70691
     2012.98562         5.58938         4.69622
     2012.98836         3.75184         4.70067
     2012.99110        10.16729         4.73808
     2012.99384         8.68775         4.74254
     2012.99657         1.47321         4.73808
     2012.99931         4.71366         4.74343
     2013.00205         7.38512         4.75144
     2013.00479        10.44457         4.79420
     2013.00752         6.29303         4.74343
     2013.01026         8.12949         4.68820
     2013.01300         4.54194         5.12379
     2013.01574         3.63340         4.71938
     2013.01848         6.43385         4.76481
     2013.02121         4.37531         4.79687
     2013.02395        -0.12223         4.72383
     2013.02669        -4.53078         4.81380
     2013.02943        -6.37332         4.70691
     2013.03216        -3.91287         4.81736
     2013.03490        -4.66541         4.76481
     2013.03764        -2.70795         4.74610
     2013.04038        -9.30050         4.77282
     2013.04312        -8.58504         4.88684
     2013.04585        -1.10859         4.89842
     2013.04859        -2.49613         4.83607
     2013.05133        -7.38567         4.72828
     2013.05407        -3.34822         4.70869
     2013.05681        -1.70076         4.74432
     2013.05954        -1.19931         4.87615
     2013.06228        -2.82885         4.81914
     2013.06502        -3.45339         4.78975
     2013.06776         0.69606         4.73452
     2013.07049        -0.32848         4.74432
     2013.07323        -1.45503         5.04451
     2013.07597         1.20743         4.72294
     2013.07871        -2.93811         4.71136
     2013.08145         5.78534         4.78440
     2013.08418         0.76780         5.01155
     2013.08692        -3.38975         4.74788
     2013.08966        -6.13829         5.10776
     2013.09240        -1.02283         4.73274
     2013.09514         2.41862         4.68285
     2013.09787        -0.68992         4.88239
     2013.10061         3.90153         5.79277
     2013.10335        -1.94301         5.54246
     2013.10609        -2.49355         4.74075
     2013.10882        -0.37510         4.68642
     2013.11156       -10.33964         4.84409
     2013.11430        -2.10719         4.70691
     2013.11704        -9.33773         4.79242
     2013.11978        -8.04627         4.88061
     2013.12251        -0.53382         4.72650
     2013.12525        -8.67836         4.72561
     2013.12799        -4.07791         4.66237
     2013.13073        -6.09445         4.68731
     2013.13347        -2.79299         4.70156
     2013.13620        -1.47054         4.70245
     2013.13894         3.04792         4.71136
     2013.14168         4.20637         4.76035
     2013.14442         5.20583         4.88863
     2013.14715         1.55529         4.83874
     2013.14989       -14.07026         4.74966
     2013.15263        -8.98280         4.69622
     2013.15537       -19.55335         4.70691
     2013.15811       -15.78789         4.71581
     2013.16084       -12.19743         4.76302
     2013.16358       -10.73798         4.76659
     2013.16632       -18.40852         5.21554
     2013.16906        -0.45207         4.89130
     2013.17180       -10.52461         4.67751
     2013.17448        -8.58010         4.92871
     2013.17727        -9.46770         4.83161
     2013.18001        -8.15124         4.82093
     2013.18275        -6.88979         4.68642
     2013.18554        -2.92838         4.79242
     2013.18822       -11.14887         4.71849
     2013.19096        -8.90442         4.71938
     2013.19370        -6.02796         4.70245
     2013.19644        -5.16850         4.67929
     2013.19917        -5.46905         4.65702
     2013.20191        -6.71659         4.67306
     2013.20465        -7.26614         4.68285
     2013.20739        -4.77668         5.51930
     2013.21013        -6.99922         4.67216
     2013.21286       -10.19577         4.68018
     2013.21560       -12.47031         4.68196
     2013.21834        -7.81286         4.69087
     2013.22108        -8.63340         4.67929
     2013.22381       -13.49694         4.71314
     2013.22655       -11.12649         4.67840
     2013.22929       -11.13103         4.65079
     2013.23203       -12.54858         4.83696
     2013.23477       -12.98512         5.05253
     2013.23750       -11.80266         4.98216
     2013.24024       -14.64221         4.82182
     2013.24287        -7.82665         5.05075
     2013.24572        -6.57030         4.77371
     2013.24846        -4.33684         4.78084
     2013.25119        -6.44238         4.78529
     2013.25393       -12.21093         4.74699
     2013.25667       -10.38147         4.86457
     2013.25941        -0.30302         4.77015
     2013.26214        -4.01756         4.75144
     2013.26488        -3.95410         4.77728
     2013.26762       -10.05165         5.09529
     2013.27036       -10.04919         5.07480
     2013.27310        -7.64174         4.92337
     2013.27583        -7.73628         4.86190
     2013.27857        -3.36382         5.10330
     2013.28114        -3.35621         5.22000
     2013.28399        -9.75886         4.96167
     2013.28679        -9.90346         4.87883
     2013.28952       -11.94800         4.77550
     2013.29226        -6.98254         4.75234
     2013.29500       -11.36509         4.78618
     2013.29774        -9.61063         4.80935
     2013.30047       -16.43018         4.76659
     2013.30280       -24.79334         5.96380
     2013.30717       -15.52040        13.26022
     2013.30869       -17.37981         5.13270
     2013.31143       -15.49735         4.87437
     2013.31416        -6.15890         5.04184
     2013.31690        -8.24944         4.88952
     2013.31964        -4.06398         4.82894
     2013.32238        -4.46653         4.78262
     2013.32512        -3.38407         4.78886
     2013.32785       -11.87962         4.79420
     2013.33059        -8.37916         4.81202
     2013.33333       -11.89970         4.79420
     2013.33607       -14.54625         4.78084
     2013.33880        -9.95079         4.83251
     2013.34154        -9.07734         5.09707
     2013.34428       -13.08688         4.84141
     2013.34702        -7.37342         4.76213
     2013.34976       -13.18697         4.80311
     2013.35249       -15.06851         4.79331
     2013.35523       -11.32106         4.90644
     2013.35797       -10.33760         4.87704
     2013.36071        -5.83014         4.77371
     2013.36344        -4.61869         4.76837
     2013.36618        -2.34623         4.78886
     2013.36892        -0.53678         4.77550
     2013.37166       -11.29632         4.80756
     2013.37440        -6.98686         4.77282
     2013.37623       -20.10157         9.86989
     2013.38054       -13.85257         6.42968
     2013.38261       -10.70350         4.77906
     2013.38535        -9.94704         4.79955
     2013.38809        -7.81558         4.78975
     2013.39082        -5.57913         4.82627
     2013.39356        -6.37067         4.83963
     2013.39630        -3.87122         4.91179
     2013.39904        -4.42276         4.81202
     2013.40177        -3.23630         4.83161
     2013.40451        -2.62185         4.84676
     2013.40725        -5.39739         4.81825
     2013.41273         0.07852         4.78797
     2013.41546        -9.32102         5.26097
     2013.41820        -5.48557         4.81647
     2013.42094         0.46589         4.84230
     2013.42368       -11.42466         4.85478
     2013.42642        -9.44620         4.81736
     2013.42915        -3.33974         4.86546
     2013.43189        -7.54929         4.98928
     2013.43463        -0.90183         4.84141
     2013.43737        -9.47937         4.80578
     2013.43971        -5.29755         6.43770
     2013.44284        -2.96946         4.82805
     2013.44558        -7.60801         4.92782
     2013.44832        -5.09255         4.81380
     2013.45106        -4.55509         4.81113
     2013.45379        -3.49564         4.81113
     2013.45653        -5.55518         5.10598
     2013.45927        -7.31173         4.79598
     2013.46201        -6.07727         4.85745
     2013.46475        -5.89081         4.83874
     2013.46748        -3.36136         4.85834
     2013.47022        -3.62990         4.83251
     2013.47296        -3.51145         4.75055
     2013.47570        -6.91999         4.82360
     2013.47843        -7.36853         4.83785
     2013.48077         3.92429         5.81504
     2013.48391         0.41738         4.77639
     2013.48665        -6.29817         4.78351
     2013.48939        -9.72071         4.87883
     2013.49212        -6.33825         5.28681
     2013.49486        -2.38180         4.79598
     2013.49760        -1.12134         4.83607
     2013.50034       -10.42889         4.76481
     2013.50308        -5.28043         4.75857
     2013.50581        -4.51497         4.77193
     2013.50747        -1.22051        12.05410
     2013.51129        -6.21606         4.92247
     2013.51403        -1.30061         4.80044
     2013.51676        -6.62615         4.84320
     2013.51950        -6.91969         4.78440
     2013.52224        -1.99324         4.81380
     2013.52498        -0.51878         4.83963
     2013.52766         1.51273         4.84052
     2013.53058        -3.42798         4.95009
     2013.53319        -9.43941         5.05609
     2013.53473         6.43515        46.33326
     2013.53867        -0.93950         4.74521
     2013.54141        -3.66705         4.72650
     2013.54414        -5.02459         4.77995
     2013.54688        -5.92813         4.72472
     2013.54962        -3.85268         4.76481
     2013.55116        -4.93811        16.62560
     2013.55628       -14.16587        15.37138
     2013.55783        -0.53931         4.83963
     2013.56057        -3.69885         4.94564
     2013.56268        -1.06281         6.78778
     2013.56605        -2.32994         4.74610
     2013.56776         9.71347        15.62436
     2013.57226        -1.21372         7.67589
     2013.57426        -1.54657         4.74788
     2013.57700        -4.59512         4.81291
     2013.57974       -13.84066         9.59998
     2013.58247        -2.15021         4.74788
     2013.58521        -3.73575         4.74788
     2013.58795        -0.65729         4.72917
     2013.59069        -2.41084         4.77817
     2013.59342         4.40062         4.83874
     2013.59616        -1.12293         4.77282
     2013.59890         0.06553         4.74877
     2013.60164        -1.03601         4.89308
     2013.60438         1.69044         4.74610
     2013.60711        -7.84610         4.73808
     2013.60985         2.03635         4.82360
     2013.61259         1.80481         5.07747
     2013.61516        -0.00957         5.27433
     2013.61675        24.01894        70.73363
     2013.62080         0.56718         4.81024
     2013.62354        -5.42837         5.00086
     2013.62628         2.62009         4.73007
     2013.62907        -3.44851         4.94831
     2013.63175        -4.69400         4.83963
     2013.63449         4.30946         4.87081
     2013.63723         1.88491         4.80044
     2013.63997         0.57537         4.91357
     2013.64270         4.04883         5.14250
     2013.67903        -2.23493         7.32047
     2013.68092         7.33732         5.28502
     2013.68377        -0.16733         4.76659
     2013.68651         9.17712         5.05164
     2013.68925         0.72458         4.73986
     2013.69199        -1.52296         4.88506
     2013.69472        -4.20051         4.93851
     2013.69729        -0.14489         5.45160
     2013.70113        -4.64746         9.67748
     2013.70294         4.39886         4.74966
     2013.70568         0.18432         4.77906
     2013.70841        -7.27023         5.02937
     2013.71115        -3.19677         4.78173
     2013.71378         0.75079         5.25028
     2013.71663         4.59014         4.77995
     2013.71937        -1.87240         4.79598
     2013.72091        14.95816        13.47133
     2013.72849       -15.34188         9.78349
     2013.73032         4.82342         4.75679
     2013.73305         0.87788         4.74877
     2013.73579         2.67933         4.85834
     2013.73853         3.83279         4.74521
     2013.74127         4.27324         4.74165
     2013.74401        12.15970         4.84765
     2013.74674         2.36716         4.74165
     2013.74948         3.56361         4.74610
     2013.75222        -1.11493         4.90288
     2013.75496        -2.92548         4.75234
     2013.75770        -5.36702         4.84320
     2013.76043         3.35444         4.79955
     2013.76317         1.18589         4.85388
     2013.76591         8.54735         4.82627
     2013.76865         4.26280         4.74343
     2013.77138        -4.09074         4.93316
     2013.77412         2.62172         4.77282
     2013.77686         3.06217         4.71938
     2013.77848         3.08067        12.02025
     2013.78581        -4.88214         7.64471
     2013.78781        -2.97000         4.82716
     2013.79055        -1.24955         4.73897
     2013.79329        -1.48409         4.73007
     2013.79603         3.91336         4.77460
     2013.79876         5.56982         4.77817
     2013.80150         4.94628         4.89931
     2013.80424         8.04773         4.96523
     2013.80629        11.82582         7.69994
     2013.80971         6.77964         4.87259
     2013.81160        11.51290         7.89235
     2013.81519        -1.79244         4.86814
     2013.81793         1.93601         4.91980
     2013.82049        -5.33937         5.04540
     2013.82341         2.47292         4.73808
     2013.82614         0.07538         4.82894
     2013.82888        -3.84116         4.92426
     2013.83162         4.53629         4.87348
     2013.83436         8.67275         4.86012
     2013.83709         1.16820         4.82983
     2013.83983         2.05466         4.80311
     2013.84223         0.21643         5.94599
     2013.84531        -0.40243         5.09885
     2013.84713         2.46688        11.35483
     2013.85078         1.07048         4.82449
     2013.85352         6.98794         4.73986
     2013.85626         2.98140         5.03204
     2013.85900        -0.76215         4.70423
     2013.86173        -0.54369         4.87081
     2013.86447        -1.82524         4.73452
     2013.86721         2.12022         4.75055
     2013.86995        -2.81432         4.77639
     2013.87269         5.60013         4.78975
     2013.87542         5.15559         4.71047
     2013.87736         9.37679         8.77779
     2013.88090         5.58650         4.79242
     2013.88364         7.63496         4.92960
     2013.88637         4.66541         4.72472
     2013.88911         0.48287         4.72205
     2013.89182        -4.34964         4.77104
     2013.89459        -1.43422         4.96256
     2013.89733        -0.58376         4.80222
     2013.90006        -6.80231         4.92337
     2013.90160       -15.83974        95.99450
     2013.90463         0.52045        11.74945
     2013.90742         4.52786         8.77957
     2013.91039         0.39010         6.47689
     2013.91347        -6.74476         5.63867
     2013.91649        -2.50057         4.87704
     2013.91877        -6.96369         6.54103
     2013.92162        -4.70534         5.58967
     2013.92425        -8.36478        14.17594
     2013.92744        -6.77275         4.83161
     2013.93018        -3.55129         4.69176
     2013.93292        -7.70583         4.69711
     2013.93469         0.76452         8.50432
     2013.93839        -0.69392         4.74610
     2013.94113        -1.81647         4.74521
     2013.94387        -1.33501         4.77995
     2013.94661         0.00745         4.86368
     2013.94934        -2.20509         4.83340
     2013.95215        -0.39970         4.91089
     2013.95482         0.82781         5.07213
     2013.95756        -1.78273         4.80222
     2013.96030        -0.38727         4.80044
     2013.96303        -5.77082         4.73541
     2013.96577        -8.34336         4.75590
     2013.96851         5.35509         4.73007
     2013.97125         4.66455         4.73363
     2013.97399        -3.60099         4.81024
     2013.97672        -1.53054         4.80044
     2013.97918        -6.06582         5.62174
     2013.98117        -4.78167        13.74926
     2013.98388         2.65181         9.91265
     2013.98855       -44.48253       148.78773
     2013.99041        -9.63026         4.76124
     2013.99315       -11.16680         4.80578
     2013.99526        -6.17476         6.92140
     2013.99823        -0.60952         5.78208
     2014.00410        -4.20298         4.77639
     2014.00684        -6.60952         4.75946
     2014.00958        -2.72807         4.77906
     2014.01232        -4.26561         4.87081
     2014.01505        -4.12515         4.83874
     2014.01779        -8.55570         4.83429
     2014.02053        -5.93824         4.75234
     2014.02327        -5.88979         4.89041
     2014.02600         2.17767         4.86725
     2014.02874         1.41613         4.78440
     2014.03148         4.92658         4.72383
     2014.03422        -2.82696         4.78975
     2014.03593         5.26645        12.65537
     2014.03969         1.06295         4.82182
     2014.04243         1.33941         5.02135
     2014.04517        -3.39814         4.99730
     2014.04791        -2.97568         4.91268
     2014.05065        -4.49223         4.73541
     2014.05338        -3.50677         4.72561
     2014.05612        -6.20731         4.81113
     2014.05817       -18.27222         7.51822
     2014.06160        -6.05740         4.69443
     2014.06422        -5.45484         5.12379
     2014.06707        -0.73349         4.94029
     2014.06981        -0.75603         4.80222
     2014.07255        -2.77658         4.78173
     2014.07529        -3.64312         4.69978
     2014.07802       -10.32467         4.69532
     2014.08076        -2.78021         4.72917
     2014.08350        -1.23875         4.74610
     2014.08624        -9.80330         4.79777
     2014.08858        -5.74747         6.57221
     2014.09171        -3.37139         4.92960
     2014.09445        -5.57093         4.76302
     2014.09719        -6.94047         5.87829
     2014.09993        -4.11702         4.73185
     2014.10266        -6.91856         4.90466
     2014.10540        -4.32911         4.71047
     2014.10814        -6.28865         4.74254
     2014.11088        -6.89619         4.91000
     2014.11362        -4.41874         4.76926
     2014.11635        -1.34828         4.75768
     2014.11909        -6.00283         4.79331
     2014.12183        -4.98637         4.80311
     2014.12457        -0.45791         4.76392
     2014.12731         2.23254         4.82093
     2014.13004         3.77700         4.82805
     2014.13278         2.78545         5.05876
     2014.13552         0.43691         5.31442
     2014.13826        -2.82363         5.05342
     2014.14099        -1.90518         4.76481
     2014.14373        -2.67272         4.80133
     2014.14647         3.35474         4.80044
     2014.14921         0.44519         4.79777
     2014.15195        -5.55535         4.82360
     2014.15468         0.34710         4.82894
     2014.15742        -6.90644         4.98038
     2014.16016        -3.49698         5.19416
     2014.16290        -4.11553         4.81291
     2014.16564         1.49493         4.97058
     2014.16837        -4.11362         4.87883
     2014.17111        -4.73716         4.99730
     2014.17385        -5.03070         5.01868
     2014.17659        -9.24325         4.86814
     2014.17932        -2.52979         5.02848
     2014.18206        -4.20534         5.32600
     2014.18480        -5.36088         4.82093
     2014.18754        -5.62642         4.81113
     2014.19028        -2.81697         4.93049
     2014.19301         5.75049         4.85121
     2014.19575        -8.66406         4.87081
     2014.19849        -1.37660         4.80935
     2014.20123        -1.75214         4.75144
     2014.20397        -4.16469         4.77460
     2014.20670        -6.53323         4.80667
     2014.20944        -4.15178         4.79687
     2014.21218        -5.25532         4.78708
     2014.21492        -6.20286         4.82716
     2014.21765        -2.68241         4.80489
     2014.22039        -0.70995         4.77015
     2014.22313       -11.96250         4.97592
     2014.22587        -4.72104         4.74966
     2014.22861        -0.22558         4.75055
     2014.23134        -0.53913         4.77728
     2014.23408        -3.42367         4.80489
     2014.23682        -1.92022         4.80133
     2014.23956        -9.29476         4.86368
     2014.24230        -4.97730         4.76035
     2014.24503       -13.00685         4.73630
     2014.24777         1.43361         6.15710
     2014.24954        -6.00004        11.51784
     2014.25325       -10.50548         4.78440
     2014.25598        -6.09402         4.88773
     2014.25872        -8.32157         4.74521
     2014.26146        -6.75211         4.85923
     2014.26420        -4.64966         4.77282
     2014.26694        -6.07420         4.75857
     2014.26967        -2.95374         4.78173
     2014.27241        -5.70629         4.89664
     2014.27515        -6.33983         4.93851
     2014.27789       -10.16938         4.92960
     2014.28062        -9.24492         4.76748
     2014.28325        -8.76436         5.68231
     2014.28610        -8.35701         4.87081
     2014.28884        -5.90655         5.46764
     2014.29158       -12.88810         4.79687
     2014.29431       -10.05064         4.75323
     2014.29705        -7.10018         4.78618
     2014.29979        -9.19873         4.79509
     2014.30241       -11.23117         5.70102
     2014.30450       -11.90510         8.73058
     2014.30800        -5.01136         4.75323
     2014.31074        -4.23990         4.84943
     2014.31348        -7.50245         4.78173
     2014.31622        -7.33999         4.76213
     2014.31895        -1.82054         4.74254
     2014.32169       -13.93208         4.85834
     2014.32443       -11.10862         4.87972
     2014.32717       -13.10017         4.94029
     2014.32991        -9.02871         4.73986
     2014.33264        -8.99126         4.83874
     2014.33441       -26.38190        10.86223
     2014.33812        -6.16834         4.87170
     2014.34046        -8.01952         6.02794
     2014.34360        -5.51443         4.77460
     2014.34633        -9.66298         4.79509
     2014.34822       -17.10372        10.31974
     2014.35181        -7.24006         4.93316
     2014.35455        -1.13061         4.77193
     2014.35711        -8.52599         5.64312
     2014.36002       -13.06170         4.79687
     2014.36194       -11.60448         8.52303
     2014.36665       -12.69985        11.20785
     2014.36710         9.11373        72.23549
     2014.37097        -3.81287         4.80756
     2014.37371        -7.98142         4.77817
     2014.37645        -7.98796         4.81024
     2014.37919        -4.67350         4.82538
     2014.38078         4.68801        73.53515
     2014.38466        -5.01759         4.86903
     2014.38740        -9.25713         4.90288
     2014.39014        -4.61168         4.86457
     2014.39288        -6.22922         4.78262
     2014.39561        -6.51677         4.82894
     2014.39835        -6.54131         4.87437
     2014.40109        -3.98085         4.82716
     2014.40383        -8.58540         4.88417
     2014.40543        23.83612        44.54902
     2014.40850       -15.12174        10.50413
     2014.41204       -11.30303         4.86725
     2014.41478        -4.00857         4.85745
     2014.41752        -6.77612         4.76926
     2014.42026        -3.60466         4.75323
     2014.42299        -4.45921         4.76213
     2014.42533        -9.94838         6.33348
     2014.42847        -0.77029         4.78708
     2014.43081        -5.45247         5.97182
     2014.43394        -3.25338         4.94831
     2014.43668        -6.48093         4.89842
     2014.43942        -2.63147         4.84765
     2014.44216        -3.86801         4.85656
     2014.44763        -3.12110         5.12914
     2014.45037        -8.51765         4.83340
     2014.45311        -6.23419         4.78618
     2014.45585        -3.66873         4.77550
     2014.45859        -7.46428         4.87081
     2014.46132        -7.99282         4.85923
     2014.46406         0.14863         4.80222
     2014.46680       -10.06591         4.80222
     2014.46954        -8.10845         4.79866
     2014.47227        -2.09400         4.80222
     2014.47501        -6.55154         4.80489
     2014.47775       -10.32709         4.87615
     2014.48049        -4.44363         4.77550
     2014.48323        -3.90717         4.82983
     2014.48596        -1.12572         4.95187
     2014.48870         3.61074         4.79420
     2014.49144         0.33119         4.70691
     2014.49418        -1.46335         4.92515
     2014.49692        -5.90089         4.71047
     2014.49965       -10.18544         4.93406
     2014.50239        -6.58098         4.83696
     2014.50513        -4.23553         4.76926
     2014.50787        -8.52007         4.68998
     2014.51060        -5.89161         4.68196
     2014.51334         2.41284         4.76392
     2014.51608         1.33130         4.77460
     2014.51882        -1.77225         4.71938
     2014.52104         1.75869         7.13340
     2014.52429         0.23367         4.73808
     2014.52697         6.01018         4.97147
     2014.52977        -6.81242         4.77193
     2014.53251        -2.42597         4.75144
     2014.53525        -4.93351         4.72650
     2014.53798         0.65095         4.72383
     2014.54072         2.00340         4.77460
     2014.54346         0.30186         4.70156
     2014.54620        -4.03669         4.71136
     2014.54893        -3.52323         4.70780
     2014.55167        -2.91277         4.73986
     2014.55401        -0.09995         5.93441
     2014.55715        -7.25586         4.81647
     2014.55989        -2.77841         4.72027
     2014.56262        -1.17595         4.70245
     2014.56536        -3.98649         4.70869
     2014.56747        -9.89545         7.20645
     2014.57078        -5.21553         4.95009
     2014.57357        -5.54313         4.80935
     2014.57631        -5.84067         4.68731
     2014.57791        22.25685        56.68240
     2014.58179        -1.17776         4.79866
     2014.58726        -9.26985         4.95187
     2014.59000        -1.53139         4.90911
     2014.59274        -0.31993         4.84587
     2014.59434        25.79258        48.78203
     2014.59690        -9.74680       105.12326
     2014.60095        -2.89557         4.85210
     2014.60369        -1.47611         4.78529
     2014.60643        -5.16965         4.84854
     2014.60917       -12.10420         4.83963
     2014.61190        -5.96974         4.96078
     2014.61464        -4.81628         4.79955
     2014.61738         1.30917         4.92426
     2014.62012         0.07363         4.90110
     2014.62286        -8.87592         4.83518
     2014.62451         3.58355        13.85437
     2014.62833        -5.98700         4.82716
     2014.63107         4.14045         4.75234
     2014.63381         1.62591         4.86636
     2014.63655         0.13936         4.77817
     2014.63928        -7.34518         4.87615
     2014.64088       -29.37066        95.07432
     2014.64407        -3.95963         7.99835
     2014.64750        -0.94181         4.95276
     2014.65023        -7.99036         5.13181
     2014.65297        -4.30390         4.87704
     2014.65571        -3.90744         4.99908
     2014.65845         5.32601         4.75590
     2014.66119        -0.48253         4.80311
     2014.66392         3.52692         4.80133
     2014.66666         3.67738         4.78262
     2014.66940        -0.54016         4.79153
     2014.67214        -0.98471         4.78173
     2014.67488        -3.04125         4.76659
     2014.67761        -6.63980         4.76481
     2014.68035         2.51166         4.89041
     2014.68309        -7.50188         4.89397
     2014.68583        -2.60343         4.76481
     2014.68856         1.07803         4.81291
     2014.69130        -7.67752         4.83696
     2014.69404       -14.34106         4.84676
     2014.69678        -7.38760         4.81202
     2014.69952        -3.33015         4.78084
     2014.70225        -7.51369         4.79331
     2014.70499        -2.62924         4.77639
     2014.70773        -0.05678         4.80133
     2014.71047         1.08068         4.80400
     2014.71321         1.45813         4.73185
     2014.71594        -1.38741         5.02670
     2014.71868         2.13904         4.85834
     2014.72142         3.79950         4.82805
     2014.72416        -3.74204         4.80845
     2014.72689         2.35841         4.77550
     2014.72963        -6.36413         4.78708
     2014.73237        -0.46468         4.74075
     2014.73511        -6.53022         4.70601
     2014.73785        -4.79676         4.71225
     2014.74058         5.78469         4.76481
     2014.74332        -0.75985         4.79598
     2014.74606        -1.94040         4.74432
     2014.74880        -4.94494         4.79687
     2014.75154        -3.10748         4.84943
     2014.75427         0.64697         4.91802
     2014.75701        -2.83657         4.84587
     2014.75975        -1.93512         4.92337
     2014.76249         3.27334         4.76570
     2014.76522        -1.02520         4.73007
     2014.76796         3.88725         4.78886
     2014.77070        -1.16729         4.88595
     2014.77344        -4.23284         4.84943
     2014.77618         5.50662         4.78618
     2014.77891         2.74508         5.04540
     2014.78165         9.74753         4.76392
     2014.78439         4.01999         4.83963
     2014.78713        -0.50656         4.77104
     2014.78987        -1.15110         4.74521
     2014.79260        -0.10964         4.79064
     2014.79534        -2.40619         4.80578
     2014.79808         3.45927         4.94207
     2014.80082         2.67172         4.81380
     2014.80322        -0.56951         5.46407
     2014.80658        -2.18363         5.81949
     2014.80903         0.62109         4.86992
     2014.81177        -1.26345         4.69176
     2014.81451         6.16600         4.75234
     2014.81724         7.86646         4.77995
     2014.81998         5.57992         4.78797
     2014.82221         7.03385         6.02259
     2014.82546         1.05983         4.74610
     2014.82820        -3.11572         4.72650
     2014.83093         3.60974         4.79420
     2014.83367         4.26820         4.80845
     2014.83641         3.37965         4.99017
     2014.83915         1.93811         4.84230
     2014.84188         2.12856         5.12023
     2014.84462        -1.39498         4.85478
     2014.84736         5.13048         4.81914
     2014.85010         6.54393         4.82538
     2014.85276         3.93046         4.93584
     2014.86994        -9.92551         7.02562
     2014.87200         1.66358         4.83785
     2014.87474        -6.87796         4.87526
     2014.87748        -4.88451         4.86903
     2014.88021        -4.80305         4.86101
     2014.88295         3.15441         4.76392
     2014.88569         2.14386         4.94742
     2014.88843         5.14132         5.10865
     2014.89117         6.53377         5.01512
     2014.89390        -0.84877         4.92337
     2014.89664         6.00469         4.90555
     2014.89921         1.08330         5.66094
     2014.90212        -4.14140         5.00265
     2014.90485        -8.28995         4.80845
     2014.90759        -4.55749         4.78975
     2014.91033         2.90497         4.72650
     2014.91307         2.84842         5.02046
     2014.91581        -4.73412         4.98750
     2014.91735         1.65445        14.84314
     2014.92128        -3.45321         4.76659
     2014.92402         0.26225         4.78618
     2014.92676        -4.87830         4.78173
     2014.92950        -8.00284         4.88595
     2014.93223        -5.03839         4.85299
     2014.93497       -11.78993         4.86368
     2014.93771        -5.62947         4.85834
     2014.93953         5.25583        10.45603
     2014.94222        -3.60866        10.59232
     2014.94592        -1.45311         4.83874
     2014.94866        -8.30265         4.77015
     2014.95140        -5.88619         4.73719
     2014.95414        -6.94474         4.81291
     2014.95687        -4.50128         4.76481
     2014.95921         2.76254         5.84800
     2014.96235        -0.75837         4.75323
     2014.96509        -2.37491         4.89486
     2014.96691        -1.98261         9.95719
     2014.97056       -11.67800         4.81024
     2014.97330        -9.88155         4.84943
     2014.97604       -14.95009         4.81558
     2014.97878        -4.59563         4.77550
     2014.98151         5.60882         4.79420
     2014.98425        -1.21772         4.81825
     2014.98699        -3.64627         4.72739
     2014.98973        -7.64381         4.71225
     2014.99247       -11.50835         4.71849
     2014.99520        -8.68690         4.70156
     2014.99794        -3.13344         4.75234
     2015.00068        -5.42499         4.85478
     2015.00342        -8.70053         4.80578
     2015.00616       -14.19407         4.70067
     2015.00889        -1.24862         4.87259
     2015.01163        -4.77616         4.81113
     2015.01437        -6.58171         4.82182
     2015.01591        22.61286        45.74535
     2015.01984        -4.99079         4.80935
     2015.02258        -5.01834         4.85210
     2015.02532        -1.03088         4.71314
     2015.02806        -3.55443         4.78797
     2015.03080        -1.59297         4.78173
     2015.03353       -12.21351         4.80845
     2015.03627        -5.58606         4.81113
     2015.03901        -3.19560         4.78084
     2015.04175         4.01285         4.78351
     2015.04449        -3.24869         4.81736
     2015.04722        -1.58123         4.74432
     2015.04996        -2.44578         4.80756
     2015.05270        -1.85632         4.72116
     2015.05544        -0.97787         4.73808
     2015.05812        -2.48836         4.90644
     2015.06091        -3.11095         4.84141
     2015.06365         2.00050         4.88239
     2015.06570        -0.90341         8.11505
     2015.06913        -4.20159         4.77193
     2015.07112        -4.88044         7.97965
     2015.07460        -7.15767         4.79242
     2015.07734       -11.28122         4.82716
     2015.08008        -9.77176         4.77371
     2015.08282        -7.66131         4.75679
     2015.08555        -7.95485         4.82538
     2015.08829        -3.15039         4.81113
     2015.09103        -6.29494         4.80935
     2015.09377        -7.62348         4.76748
     2015.09565        -3.88323         8.69495
     2015.09924        -0.51957         4.94118
     2015.10198        -2.46411         4.84320
     2015.10472        -7.43066         4.72650
     2015.10746        -5.45820         4.73452
     2015.11019       -10.07274         4.84141
     2015.11293        -5.10629         4.80578
     2015.11567        -7.09383         4.74610
     2015.11841       -13.84538         5.07480
     2015.12115        -5.01792         4.79331
     2015.12388        -6.14746         5.14250
     2015.12662        -8.80701         4.74877
     2015.12936        -6.60355         4.72828
     2015.13210        -4.34510         4.80756
     2015.13483        -6.55264         4.83518
     2015.13757        -8.66018         4.79955
     2015.14031       -10.41273         4.75234
     2015.14305        -7.47927         4.78529
     2015.14579        -4.94682         4.80311
     2015.14852        -1.69536         4.78440
     2015.15126        -6.21990         4.76213
     2015.15400        -6.73145         4.72027
     2015.15674        -4.00399         4.99730
     2015.15948        -2.80654         4.76035
     2015.16221        -3.64608         4.84676
     2015.16495        -5.48662         4.92337
     2015.16769        -3.25017         4.72027
     2015.17043        -0.21371         4.76302
     2015.17316        -3.44826         4.84943
     2015.17590        -4.74980         4.82983
     2015.17864        -3.65734         4.75501
     2015.18138         0.13011         5.03115
     2015.18412        -3.77543         4.80400
     2015.18685        -1.90698         4.74165
     2015.18959        -0.51752         4.73630
     2015.19233         1.66294         4.94474
     2015.19507         6.73239         4.77104
     2015.19780         0.00585         4.70601
     2015.20054        -0.87470         4.73897
     2015.20328        -4.91524         4.73541
     2015.20602        -5.20478         5.50683
     2015.20876        -6.21233         4.80845
     2015.21149       -10.98687         4.71492
     2015.21423        -8.30342         4.96790
     2015.21697        -4.68496         4.70780
     2015.21971        -2.97750         4.71403
     2015.22245        -3.96605         4.68285
     2015.22518        -2.58659         4.66237
     2015.22792         0.12286         4.75501
     2015.23066        -6.54468         4.81825
     2015.23340        -2.21122         4.88061
     2015.23613        -0.68477         4.81647
     2015.23887        -0.55131         4.98305
     2015.24161        -2.78586         4.98394
     2015.24435        -2.12540         5.09440
     2015.24709        -1.31494         4.91980
     2015.24982        -1.61049         4.73274
     2015.25256        -3.95003         4.74877
     2015.25530        -4.75258         4.70156
     2015.25804        -5.99412         4.70512
     2015.26078        -4.04066         4.73719
     2015.26351        -2.54021         4.73719
     2015.26625        -8.16775         4.70067
     2015.26899        -3.00930         4.72205
     2015.27173         7.16416         4.93495
     2015.27446         2.99362         4.89486
     2015.27720        -3.56393         4.75590
     2015.27994        -5.29147         4.85656
     2015.28268        -8.43102         4.75590
     2015.28542        -6.37556         4.94029
     2015.28815        -9.48510         4.91179
     2015.29089       -12.70265         4.72116
     2015.29363        -6.01119         4.72294
     2015.29637       -10.73174         4.70512
     2015.29911        -1.79128         4.70334
     2015.30184        -1.41582         4.75412
     2015.30458        -3.32037         4.68374
     2015.30732        -1.71891         4.63921
     2015.31006        -8.68146         4.60981
     2015.31279        -9.50800         4.60357
     2015.31553        -8.51054         4.67216
     2015.31827        -8.37709         4.65346
     2015.32101        -5.31163         4.69087
     2015.32375        -7.32318         4.67038
     2015.32648        -7.06272         4.73007
     2015.32922        -4.61026         4.75590
     2015.33196        -4.10781         4.61426
     2015.33470        -1.28935         4.58754
     2015.33744        -7.35689         4.59021
     2015.34017       -11.69744         4.56883
     2015.34291        -7.54198         4.76124
     2015.34565        -5.82353         4.63386
     2015.34810        -5.23681         5.23692
     2015.35101       -12.36251         5.32422
     2015.35386        -5.93916         4.77371
     2015.35660        -7.51470         4.62406
     2015.35934       -11.41525         4.71047
     2015.36208        -8.61579         4.80845
     2015.36481        -5.79433         4.64188
     2015.36755        -3.54388         4.59288
     2015.36909       -39.61631        55.65265
     2015.37303        -4.87197         4.69978
     2015.37577       -10.19051         4.68731
     2015.37850        -3.50505         4.80222
     2015.38124        -9.41060         4.61426
     2015.38398        -6.98414         4.62406
     2015.38672        -7.97169         4.61248
     2015.38945        -6.04823         4.68731
     2015.39219        -3.27677         4.64811
     2015.39493        -4.57932         4.65435
     2015.39704        -6.65928         6.41365
     2015.41141        -6.47664         4.68374
     2015.41410        -3.22713         4.57685
     2015.41592        -3.79982        10.80878
     2015.41957        -7.61221         4.64811
     2015.42231        -3.46076         4.83251
     2015.42505       -12.13930         4.88863
     2015.42778        -5.73285         4.61872
     2015.43052         1.20661         4.65524
     2015.43326        -8.86493         4.74521
     2015.43600        -7.51948         4.78351
     2015.43874        -8.27202         4.73897
     2015.44147        -3.27457         4.79420
     2015.44421        -4.52911         4.71581
     2015.44695        -1.45565         4.61426
     2015.44969       -10.00020         4.66949
     2015.45243        -2.78674         4.75412
     2015.45408       -15.89628        10.91924
     2015.45790        -7.56283         4.71225
     2015.46064        -4.53037         4.75323
     2015.46338        -3.19692         4.72917
     2015.46611        -1.64446         4.73096
     2015.46885        -1.29501         4.74788
     2015.47159        -3.14855         4.69265
     2015.47433         0.23491         5.13804
     2015.47707       -10.39864         4.77460
     2015.47969        -4.01908         5.30908
     2015.48260        -0.86678         4.78886
     2015.48528        -5.19827         4.66682
     2015.48802        -7.72981         4.66860
     2015.49013        -0.17577         6.25153
     2015.49349        -2.47590         4.72828
     2015.49623        -4.28445         4.77015
     2015.49897       -10.57499         4.95811
     2015.50171        -3.46253         4.60625
     2015.50444        -7.36108         4.64188
     2015.50718        -7.84862         4.61961
     2015.50975        -4.60101         4.88328
     2015.51158        -9.73571        13.67265
     2015.51477         0.73733         6.29785
     2015.51813        -3.84180         4.64811
     2015.52087        -0.91334         4.72027
     2015.52361         1.78011         4.71225
     2015.52635        -6.51543         4.67840
     2015.52908        -6.36597         4.74788
     2015.53182        -3.10552         4.68553
     2015.53456        -1.76606         4.67573
     2015.53730        -3.25961         4.62941
     2015.54004        -4.52815         4.71581
     2015.54277        -9.56769         4.75679
     2015.54551        -3.61024         4.72116
     2015.54825         1.88622         4.73897
     2015.55099        -1.68033         4.69087
     2015.55373        -2.11887         4.65346
     2015.55646        -1.61641         4.83696
     2015.55920         3.75904         4.73007
     2015.56194        -0.39750         4.76124
     2015.56468        -1.58605         4.71670
     2015.56741        -3.22559         4.71849
     2015.56998         2.20403         5.34293
     2015.57289        -4.81868         4.82627
     2015.57563        -4.19422         4.72294
     2015.57837        -1.15276         4.76570
     2015.58110        -5.48631         4.68107
     2015.58384         2.13715         4.85567
     2015.58658         2.55060         4.69443
     2015.58932         0.53406         4.71849
     2015.59206        -2.97748         4.82271
     2015.59479        -5.96403         7.31245
     2015.59753        -4.49857         4.75590
     2015.60027        -3.49512         4.79687
     2015.60301        -1.47366         4.82894
     2015.60574        -0.13420         4.73719
     2015.60848         6.29825         4.77282
     2015.61122         2.53671         4.78618
     2015.61396        -0.76284         4.69889
     2015.61670        -1.59238         4.59021
     2015.61943         0.90508         4.99017
     2015.62217         0.73253         4.68731
     2015.62491         7.61899         4.61783
     2015.62765        11.15344         4.70958
     2015.63039         9.60490         4.80667
     2015.63312         0.08736         4.69622
     2015.63586         3.11781         4.59378
     2015.63860         3.98627         4.83340
     2015.64134         0.48372         5.06322
     2015.64407         5.06018         4.63386
     2015.64681         2.93164         4.67395
     2015.64955         0.94309         4.65524
     2015.65229         1.05055         4.87081
     2015.65503         5.49000         4.77728
     2015.65771        -1.08849         4.68820
     2015.66050         3.32892         4.72828
     2015.66324         3.52137         4.70601
     2015.66598        11.53383         4.70601
     2015.66872         5.96628         4.73185
     2015.67145         2.45774         4.62673
     2015.67379         5.35057         5.34114
     2015.67693        -6.37035         4.60001
     2015.67967         1.78511         4.61070
     2015.68240         4.71156         4.60803
     2015.68514         2.90202         4.91179
     2015.68788         3.87148         4.97414
     2015.69062         2.76893         4.81647
     2015.69336        -0.45261         5.20931
     2015.69609         6.96084         4.67751
     2015.69883        12.77730         4.94742
     2015.70157         4.16276         4.57151
     2015.70391         8.09058         5.38657
     2015.70705         1.37667         4.60090
     2015.70978         0.94112         4.64633
     2015.71252         4.93158         4.63653
     2015.71526         1.57004         4.65079
     2015.71800        -1.65551         4.81647
     2015.72073         6.16495         4.61783
     2015.72347         0.00940         4.68107
     2015.72618         0.26989         5.01155
     2015.72895         2.84732         4.71314
     2015.73169         2.49177         4.60536
     2015.73442         1.62923         4.62317
     2015.73716         6.40668         4.61694
     2015.73990         2.89414         4.66504
     2015.74264         2.32260         4.68553
     2015.74538         0.07305         4.86725
     2015.74811        -3.58949         4.83607
     2015.75085        -5.40104         4.66058
     2015.75359        -4.98258         4.64722
     2015.75633        -0.27912         4.62406
     2015.75906        -0.06567         4.58487
     2015.76180         0.18779         4.59734
     2015.76454        -0.48876         4.99285
     2015.76728         6.18270         4.69354
     2015.77002         3.61616         4.65435
     2015.77275         6.24561         4.60090
     2015.77534         0.06421         5.00710
     2015.80419       -14.04460        68.95384
     2015.80464        -0.51601         9.94205
     2015.80789         1.30297         6.48669
     2015.81017        11.70585        18.01344
     2015.81285         3.86435        17.87092
     2015.81558        13.35282        10.28678
     2015.82867         4.34066        12.60104
     2015.82929        -1.41592        12.56630
     2015.84516       -14.97567        22.80943
     2015.84699         4.01463        11.12323
     2015.84937        -8.09458        23.10784
     2015.85108        23.24383        57.67295
     2015.85381        -2.59470        16.85810
     2015.85658        -5.72528        20.05779
     2015.85957        -0.11505         8.84193
     2015.86207         0.92062        13.18361
     2015.86476        35.48612        30.33923
     2015.86755        15.09453        19.62844
     2015.87023        -9.24196        39.65060
     2015.87301       -19.13955        54.15168
     2015.87571         2.96895        48.22796
     2015.87844       -29.21859       126.26335
     2015.88120         6.31885        66.65384
     2015.88400        17.47224        66.18796
     2015.88668       -13.22724        27.25711
     2015.88954       -22.04690        65.10566
     2015.89492        30.52910        55.97422
     2015.89766       -24.04345        91.58511
     2015.90030         6.78010        30.43632
     2015.90317        -2.89557        61.06773
     2015.90588       -10.67109        27.99736
     2015.90857        14.69741        99.86050
     2015.91145        30.81874        79.76529
     2015.91512        -5.47667         4.93495
     2015.91757        -4.00695         5.88630
     2015.91929        -1.57654        59.18906
     2015.92334        -2.74531         4.67929
     2015.92476         0.45037        63.17354
     2015.92784        -4.04149        10.42930
     2015.93035        12.90818        60.01304
     2015.93309        12.70163        61.61912
     2015.93702        -3.01903         5.22445
     2015.93902        -1.71288         7.18507
     2015.94130       -13.62200        57.83774
     2015.94524        -2.75766         4.78975
     2015.94798        -2.31220         4.86368
     2015.95071        -1.28475         4.67127
     2015.95345        -0.40529         4.61426
     2015.95619        -1.24283         4.68374
     2015.95830         5.87021         7.18329
     2015.96109         4.34361         7.72934
     2015.97968        32.88934        73.52268
     2015.99900        17.77139        36.29858
     2016.04007        37.87122       140.44731
     2016.04936        -8.04141        24.71571
     2016.05653        41.80093        88.71412
     2016.07626        -9.98740        74.35823
     2016.08907        72.87070       113.42091
     2016.10051       -66.95694        71.08282
     2016.10287         7.42087        92.60061
     2016.10588        60.39708        77.39046
     2016.11144         7.97991        30.98683
     2016.11423         3.36732        25.21365
     2016.11698         6.89976        32.60093
     2016.11976        -9.85282        18.39114
     2016.12251       -15.31538        30.56816
     2016.12512       -10.96080        43.07923
     2016.12787         8.51664        33.38393
     2016.13063        38.18208        47.55987
     2016.13334        43.91556        47.51890
     2016.13598         5.16111        19.27925
     2016.13884       -33.92855        25.51919
     2016.14195        -2.90844        13.61920
     2016.14424         1.37244        29.07164
     2016.14692        -0.11106        31.21131
     2016.14961        52.15944        55.35780
     2016.15251       -22.56025        24.41284
     2016.15519       -20.38874        39.84568
     2016.15787       -11.41323        26.49906
     2016.16062         8.77022        37.84765
     2016.16341        14.46362        16.67370
     2016.16594         5.59826        13.73857
     2016.16974        -6.70826         4.74788
     2016.17248        -6.08181         4.81914
     2016.17522        -7.58935         4.73363
     2016.17796       -10.64790         4.92604
     2016.18069        -3.45844         4.82716
     2016.18343        -4.22198         4.92426
     2016.18617        -5.20353         4.84409
     2016.18891        -1.40707         4.69711
     2016.19238       -17.24830       130.91414
     2016.21085       -11.19046         4.88684
     2016.21355        -7.67497         4.75144
     2016.21629       -11.14751         4.90911
     2016.21902        -7.33006         4.65880
     2016.22176        -7.45060         4.69354
     2016.22450        -9.56314         4.70067
     2016.22724       -11.30969         4.65702
     2016.22997       -10.65823         4.65079
     2016.23271        -5.96878         4.66148
     2016.23545        -6.83632         4.68285
     2016.23819       -10.89486         4.68642
     2016.24093        -5.71941         4.77817
     2016.24366        -6.55195         4.63564
     2016.24640        -6.97450         4.62941
     2016.24914        -6.94104         4.64099
     2016.25188        -6.80358         4.67751
     2016.25462        -7.61613         4.63921
     2016.25735        -8.30367         4.64633
     2016.26009        -6.46722         4.67840
     2016.26207        -3.70105         7.27593
     2016.28228        -7.11383         5.23069
     2016.28473        -5.70311         4.66682
     2016.28747        -5.27265         4.71670
     2016.29021        -7.64820         4.65257
     2016.29295        -4.95074         4.66237
     2016.29568        -5.19729         4.69800
     2016.29842        -3.30183         4.81647
     2016.30116        -2.43237         4.81291
     2016.30390       -11.97092         4.68642
     2016.30589        -5.70877         7.90037
     2016.30937        -7.01501         4.67038
     2016.31211        -6.41755         4.72472
     2016.31485        -9.54109         4.69354
     2016.31759        -5.23664         4.70423
     2016.32032        -9.42318         4.69354
     2016.32306        -9.84273         4.69978
     2016.32540        -3.90890         6.28181
     2016.32740       -37.20575        56.65033
     2016.33076        -5.43188         6.95079
     2016.33361       -13.95953         6.32902
     2016.33590       -13.64365         9.19290
     2016.33852        -3.21709        12.16099
     2016.34091        24.18568       124.22880
     2016.34496        -8.79708         4.97414
     2016.34690       -14.28788         9.28465
     2016.35044        -9.25717         4.97236
     2016.35318       -12.95571         4.69889
     2016.35592       -12.73125         4.70691
     2016.35865       -15.60980         4.67840
     2016.36139        -8.19434         4.67484
     2016.36413        -1.95789         4.63921
     2016.36687        -3.42543         4.66504
     2016.36961         1.45903         4.70780
     2016.37234         0.54148         4.74254
     2016.37508        -2.32506         4.72383
     2016.37782        -5.76761         4.69532
     2016.38056        -4.21415         4.71759
     2016.38329        -7.36069         4.71314
     2016.38603        -5.41124         4.72027
     2016.38877         2.52422         4.77550
     2016.39151        -7.17033         4.74610
     2016.39425        -5.52087         4.72828
     2016.39698         1.83759         4.72739
     2016.39972         1.09704         4.75501
     2016.40246        -5.77250         4.81469
     2016.40520       -12.50105         4.74877
     2016.41067        -6.10113         4.66771
     2016.41341        -4.33168         4.72294
     2016.41615        -7.03122         4.79331
     2016.41889        -6.62077         4.73630
     2016.42134        -2.51504         5.54157
     2016.42436        -8.69785         4.65702
     2016.42590        -8.13728        39.21233
     2016.42984        -7.40994         4.77639
     2016.43258        -3.29449         4.69622
     2016.43523         1.38505         4.84676
     2016.49218       -17.22787         6.85815
     2016.49490        -5.94639         6.43235
     2016.53731        -0.41280         6.92229
     2016.53804       -31.03848        72.69959
     2016.54209        -1.06124         5.04273
     2016.54483        -0.77279         4.88506
     2016.54757        -1.47633         4.71581
     2016.55030        -2.89288         4.86279
     2016.55304        -1.28242         4.77104
     2016.55464        18.88810        40.00958
     2016.55852        -1.78051         4.85567
     2016.56125        -0.19305         4.70601
     2016.56399         0.49940         4.68553
     2016.56673        -7.25114         5.36876
     2016.56947        -4.95168         4.76748
     2016.57221        -0.85223         4.80489
     2016.57494        -4.09277         4.83251
     2016.57637       -25.67610        70.12077
     2016.58042         0.07414         4.69711
     2016.58316        -2.54340         4.95989
     2016.58590        -4.45295         4.70156
     2016.58863        -2.79449         4.84498
     2016.59137        -3.95604         5.02135
     2016.59411         0.60642         4.74877
     2016.59685         1.34788         4.70601
     2016.59958         0.64333         4.72383
     2016.60232        -4.09021         4.80133
     2016.60506        -3.99776         4.76659
     2016.60780        -4.75830         4.85478
     2016.61054         0.97716         4.81825
     2016.61327        -1.80339         4.70691
     2016.61601        -2.79093         4.72739
     2016.61869        -3.26542         4.83518
     2016.62178        -9.43829         5.61283
     2016.62423        -2.05556         4.83785
     2016.62696        -2.56111         4.70512
     2016.62970        -6.06065         4.76659
     2016.63244        -7.66220         4.91268
     2016.63518        -5.23074         4.75055
     2016.64147         2.30041         8.25757
     2016.64339        -8.11237         4.75501
     2016.64613        -7.43292         4.69265
     2016.65160       -12.54000         5.12557
     2016.65434        -5.96855         4.70512
     2016.65708        -6.43709         4.67484
     2016.65930        -0.56515         5.83018
     2016.67898         1.00356         4.78262
     2016.68172        -0.32299         4.68909
     2016.68446         3.44447         5.08103
     2016.68645         7.27561         7.94223
     2016.68988         2.31443         5.46764
     2016.69267         2.06884         4.85210
     2016.69541         1.98429         4.83518
     2016.69815         3.39175         4.76124
     2016.70020        -0.19016         7.12806
     2016.70282        -5.46160        10.41951
     2016.70568         3.38075         8.85083
     2016.70870         2.44394         6.48847
     2016.71184        -3.86697         4.87348
     2016.71731         1.61994         4.66148
     2016.72005         4.03640         4.67127
     2016.72279         1.08385         4.69087
     2016.72553        -7.08869         5.11399
     2016.72792         9.52008         5.93352
     2016.73100        -2.39278         4.65257
     2016.73374         9.02068         4.66326
     2016.73648         7.85613         4.81736
     2016.73921        -2.24341         4.70334
     2016.74195         2.49104         4.62495
     2016.74469         0.03350         4.68820
     2016.74743        -0.67704         4.65880
     2016.75017         1.73941         4.64722
     2016.75290         0.99287         4.91891
     2016.75484         6.74507         9.13589
     2016.75838         4.71978         4.67484
     2016.76021        -2.08091        10.76157
     2016.76294        -3.13446        10.54600
     2016.76562        -4.87295        10.54689
     2016.76933         3.98961         4.67662
     2016.77207         1.67406         5.26365
     2016.77481         2.41852         4.72472
     2016.77669         8.80277        10.43109
     2016.77983        -4.15715         6.98731
     2016.78205         3.02079         8.56044
     2016.78570         0.31339         4.84320
     2016.78758        -2.63635        10.15583
     2016.79123         3.21425         4.65257
     2016.79397         4.15771         4.75412
     2016.79625         3.11859         6.25331
     2016.79863         3.07239         8.61389
     2016.80133         0.52287         8.91675
     2016.80492        -1.65747         4.64010
     2016.80766         3.61699         4.85032
     2016.80960        -5.54281         8.27272
     2016.81314         0.28090         4.72205
     2016.81587        -6.42464         4.73185
     2016.81861        -1.20419         4.67038
     2016.82135         1.21127         4.67395
     2016.82409        -4.30727         4.63742
     2016.82683        -0.28282         4.68553
     2016.82956         4.11264         4.65435
     2016.83230        -0.79891         4.68464
     2016.83504         0.79955         4.67573
     2016.83778         1.46601         4.76302
     2016.84052        -2.34054         4.73452
     2016.84325         0.07892         4.81736
     2016.84599         0.46237         4.70780
     2016.84873         0.98983         4.66771
     2016.85147        -2.54171         4.67840
     2016.85420        -1.19826         4.77728
     2016.85694         0.22720         4.71492
     2016.85894        -9.30466         6.86795
     2016.86242         0.87511         4.71225
     2016.86424         8.95741         9.90552
     2016.86681        -0.87197         9.98035
     2016.87063         1.80548         5.03739
     2016.87263         8.61562         7.57345
     2016.87613         1.50537         4.84498
     2016.87885         4.79385         4.90555
     2016.88158        -2.84370         4.69443
     2016.88432        -2.73824         4.66771
     2016.88706         0.32221         4.69711
     2016.88980         0.88667         4.71403
     2016.89253         3.02113         4.73363
     2016.89527        -2.04142         4.73986
     2016.89801         0.99704         4.65880
     2016.90075        -3.07751         4.65168
     2016.90349        -6.15505         4.79420
     2016.90622         1.49141         4.75590
     2016.90896         4.69686         4.69087
     2016.91119        -0.65820         6.35040
     2016.91444         1.83177         4.65791
     2016.91718        -8.19177         4.83963
     2016.91917        -1.27162         7.50219
     2016.92265         0.32614         4.74610
     2016.92539        -2.81540         4.78886
     2016.93086       -10.83448         4.75501
     2016.93449        -5.13086         7.66787
     2016.93631        -3.37255         4.73541
     2016.93910        -2.70514         4.76392
     2016.94182         0.19633         4.66415
     2016.94455        -7.36121         4.64277
     2016.94729        -6.53475         4.81914
     2016.95003        -4.25030         4.69532
     2016.95277        -5.49084         4.72472
     2016.95540        -2.51929         4.88773
     2017.46550       -14.17126        12.27501
     2017.46748        -3.64911         4.75055
     2017.47011        -8.18055         4.89842
     2017.47381       -12.69799         8.39832
     2017.47570        -7.44074         4.74877
     2017.47843        -5.73128         4.76926
     2017.48117        -0.17083         4.68820
     2017.48391        -6.07737         4.95543
     2017.48665        -5.88792         5.10152
     2017.48939        -0.12746         4.76837
     2017.49212        -5.14100         4.74075
     2017.49486        -6.43155         4.92782
     2017.49760       -11.08009         4.85210
     2017.50034        -5.63264         4.85032
     2017.50308        -3.93418         4.73452
     2017.50581        -3.31372         4.80578
     2017.50855        -6.93327         4.77193
     2017.51129        -8.81081         4.84676
     2017.51403        -3.35136         5.01155
     2017.51676        -9.91190         4.83874
     2017.51950        -5.34144         4.78262
     2017.52224        -2.69299         4.73096
     2017.52498        -2.56153         4.73007
     2017.52772        -9.23908         4.91624
     2017.53045        -6.57162         4.78797
     2017.53319        -7.64016         4.77193
     2017.53593        -3.80971         4.73541
     2017.53867        -2.66625         4.82003
     2017.54141         2.35920         4.78084
     2017.54414        -0.51934         4.72472
     2017.54574         6.93318        47.51444
     2017.54962        -5.27443         4.95722
     2017.55116         8.69814        38.85246
     2017.55509        -0.38952         4.75234
     2017.55783        -6.47106         4.74521
     2017.56057        -5.10560         4.74254
     2017.56331        -9.25415         4.92337
     2017.56605        -3.61969         4.83874
     2017.56821        -4.30571         6.68712
     2017.57152        -0.80878         4.74521
     2017.57426        -3.36532         4.83963
     2017.57700        -5.03787         4.77550
     2017.57974        -6.12841         4.77282
     2017.58173        -1.76727         6.81985
     2017.58521        -6.10350         5.01690
     2017.58795       -17.13404         5.12825
     2017.59069        -9.73059         4.93762
     2017.59342        -8.85713         4.81825
     2017.59616        -2.88468         4.77550
     2017.59890        -8.80922         4.79331
     2017.60164        -7.79676         4.85032
     2017.60438        -7.74231         4.78173
     2017.60711        -9.15485         4.76392
     2017.60985        -4.38640         4.83785
     2017.61156        -2.06299         9.77814
     2017.61888         0.36022         8.20056
     2017.62080         1.40243         6.23460
     2017.62354        -2.18612         6.19095
     2017.62628         1.65734         5.04095
     2017.62902         1.35880         4.93049
     2017.63175        -6.90575         4.82538
     2017.63449        -6.40029         4.94029
     2017.63723        -3.83584         4.91179
     2017.63997        -4.20338         4.95632
     2017.64271         5.55608         4.89664
     2017.64544        -2.11647         4.80311
     2017.64818        -0.20301         4.89041
     2017.65092        -1.61156         4.83963
     2017.65366        -1.46310         4.77371
     2017.65639        -6.00064         4.82003
     2017.65913        -2.24419         4.75323
     2017.66187        -5.08173         4.86814
     2017.66461        -2.55628         4.90110
     2017.66735         1.84018         4.86190
     2017.67008        -0.39736         4.76124
     2017.67282        -0.48591         4.87348
     2017.67556        -6.05445         4.84320
     2017.67830        -0.52000         4.75323
     2017.68104        -1.70554         4.90021
     2017.68377         5.75892         5.07747
     2017.68936        -1.18327         4.98483
     2017.69199         1.78828         4.76035
     2017.69472        -2.67826         4.80400
     2017.69746        -0.93280         4.84765
     2017.70020         1.00565         4.89041
     2017.70294         0.61911         5.04897
     2017.70568        -4.95644         4.89931
     2017.70841        -0.79798         4.81469
     2017.71115        -0.42852         4.89842
     2017.71389         2.59293         4.74788
     2017.71663        -1.47461         4.77550
     2017.71937         1.26685         4.72828
     2017.72210        -4.52270         4.79153
     2017.72484         1.41776         4.81291
     2017.72758        -2.32279         4.79331
     2017.73032         3.87967         4.79242
     2017.73305         0.57813         4.78529
     2017.73567        -6.72730         5.20485
     2017.73858         5.49799         4.97503
     2017.74127         0.61149         4.90911
     2017.74401         1.87895         4.75412
     2017.74674        -2.42359         4.72027
     2017.74948        -3.54914         4.82716
     2017.75222        -1.62368         4.78084
     2017.75496        -3.60823         4.87348
     2017.75770        -1.80377         4.85388
     2017.76043        -0.93431         4.77817
     2017.76317         2.67314         4.90199
     2017.76591        -0.14540         4.79331
     2017.76745        -1.28483        14.35855
     2017.77138        -5.95749         4.89219
     2017.77412        -3.79603         4.71849
     2017.77686        -3.79458         4.74521
     2017.77960         0.17588         4.88150
     2017.78234        -0.47367         4.76302
     2017.78507        -2.65521         4.77995
     2017.78781        -0.47075         4.88684
     2017.79055        -2.46130         4.80489
     2017.79329         5.36116         4.76748
     2017.79603         6.51161         4.88506
     2017.79876         5.56007         4.89575
     2017.80150         3.75453         4.86368
     2017.80424         1.13498         4.87615
     2017.80698         4.64144         4.76837
     2017.80971         5.45789         4.86457
     2017.81245         1.32535         4.99819
     2017.81519         4.07881         4.82003
     2017.81709        -7.14996         7.37570
     2017.82169        -9.35323         9.56079
     2017.82340        -1.67583         4.82271
     2017.82614        -1.24637         4.93584
     2017.82888        -2.78591         4.80133
     2017.83162        -0.81546         4.80311
     2017.83436        -2.53400         4.76035
     2017.83709        -4.04455         4.92782
     2017.83983        -6.81709         4.82360
     2017.84257         0.11437         4.78173
     2017.84531        -3.05418         4.73630
     2017.84804       -10.17572         4.84498
     2017.85077         7.62275         4.86814
     2017.85352         1.09919         4.78351
     2017.85626        -5.92035         4.92069
     2017.85900        -1.59390         4.87972
     2017.86173         1.91056         4.81469
     2017.86449        -2.73600         4.75055
     2017.86721         2.75547         4.72650
     2017.86995        -0.34007         4.80133
     2017.87269         5.81338         4.71581
     2017.87542         2.37784         4.72205
     2017.87816         8.10029         4.76926
     2017.88090         8.80275         4.72472
     2017.88364         6.87421         4.73096
     2017.88598        12.77303         5.68499
     2017.88911         7.57512         4.75144
     2017.89185         2.11857         5.10598
     2017.89459        -0.03897         4.81113
     2017.89733         4.17049         4.77104
     2017.90006         3.23894         4.76570
     2017.90280         0.98140         4.79509
     2017.90554         5.94985         4.74788
     2017.90828         8.53731         4.76837
     2017.91102        -5.28923         4.93940
     2017.91369         1.52828         5.11667
     2017.91649        -0.22432         5.01333
     2017.91923         5.39513         4.71225
     2017.92197         3.03959         4.72650
     2017.92470         3.29305         4.85210
     2017.92744        -0.66950         4.76392
     2017.93018        -1.99204         4.71938
     2017.93292        -3.37959         4.74432
     2017.93566        -9.24413         4.90466
     2017.93839        -3.10867         4.84676
     2017.94113        -1.39322         4.78262
     2017.94387        -1.15476         4.82003
     2017.94661        -2.55531         4.90021
     2017.94935         4.11815         4.77906
     2017.95208         1.64961         5.00710
     2017.95482        -0.41694         4.77995
     2017.95756        -1.16748         4.77995
     2017.96030         6.71998         4.80578
     2017.96303        -0.04457         4.76748
     2017.96577         5.15589         4.80489
     2017.96851         0.06234         4.73897
     2017.97125        -4.51920         4.75946
     2017.97399        -3.34174         4.76570
     2017.97672        -0.06729         4.76124
     2017.97946        -6.10883         4.78351
     2017.98220        -0.82038         4.71849
     2017.98494        -6.23592         4.70958
     2017.98767       -10.82246         5.06500
     2017.99041        -5.18501         4.75679
     2017.99315        -4.32155         4.70067
     2017.99589        -3.37110         4.67127
     2017.99863        -1.36664         4.70334
     2018.00136        -5.59918         4.84141
     2018.00410       -12.06773         4.79242
     2018.00684        -4.80727         6.23193
     2018.00958         1.75418         4.79242
     2018.01232        -7.24236         4.76302
     2018.01779         1.98255         4.71314
     2018.02053         1.96701         4.75234
     2018.02327         1.14246         4.71670
     2018.02600        -3.79308         4.70423
     2018.02874        -2.38662         5.07836
     2018.03148        -7.10617         4.71938
     2018.03422        -4.74971         4.77282
     2018.03679       -15.80710         5.12736
     2018.03969       -14.57380         4.84141
     2018.04243        -4.84234         4.84052
     2018.04517        -8.68089         4.76392
     2018.04791        -1.02443         4.73630
     2018.05065        -4.46998         4.73452
     2018.05338        -2.19452         4.73274
     2018.05612        -1.40006         4.71492
     2018.05886        -3.68861         4.77460
     2018.06160         0.64985         4.74343
     2018.06433        -3.68170         4.88239
     2018.06707         1.89876         4.85121
     2018.06981        -4.04778         4.81558
     2018.07255        -5.38333         4.82271
     2018.07529        -8.40987         4.81558
     2018.07802        -7.77142         4.84943
     2018.08076        -7.86096         4.81914
     2018.08350        -1.38750         4.73096
     2018.08624        -2.56905         5.03828
     2018.08898        -4.74859         4.95989
     2018.09171        -8.88314         4.84230
     2018.09445       -12.83568         4.83874
     2018.09719        -7.08422         4.86368
     2018.09993        -7.61277         4.76392
     2018.10266        -5.54531         4.91802
     2018.10540        -8.05586         4.88952
     2018.10814        -5.02940         4.85656
     2018.11088        -8.16894         4.79331
     2018.11362        -9.30649         4.73630
     2018.11635        -9.83103         4.81469
     2018.11909        -4.04058         4.99641
     2018.12183        -3.08712         4.91535
     2018.12440        -3.80150         5.26721
     2018.12731        -8.05921         4.82805
     2018.13004        -5.17675         4.76213
     2018.13278        -1.73230         5.01957
     2018.13552        -1.66984         4.82983
     2018.13826        -4.00838         4.81558
     2018.14089        -8.28683         4.98127
     2018.14379        -8.08552         4.87526
     2018.14647        -4.21802         5.10598
     2018.14921        -2.37856         4.87437
     2018.15195         1.41890         4.81113
     2018.15468        -2.20265         4.87170
     2018.15742         2.82281         4.76570
     2018.16016         1.42526         4.77906
     2018.16290        -4.39028         4.81736
     2018.16564        -7.88982         4.82360
     2018.16837        -8.75237         4.80222
     2018.17111        -2.73391         4.74966
     2018.17385        -4.61746         4.74165
     2018.17659        -6.05300         4.72739
     2018.17932        -1.76354         4.72472
     2018.18206         0.21291         4.82449
     2018.18480        -1.09063         4.84052
     2018.18754        -6.11217         4.75946
     2018.19028        -7.06072         4.86903
     2018.19301        -1.60926         4.77728
     2018.19523        -6.81233         6.50540
     2018.19867        -5.21151         4.96523
     2018.20123         2.81411         4.83785
     2018.20397         0.70156         4.78173
     2018.20670        -3.12598         4.80756
     2018.20944        -2.28453         4.80311
     2018.21218        -4.00207         4.78708
     2018.21492       -12.60161         4.78886
     2018.21765        -2.48616         4.68464
     2018.22039        -6.68670         4.74165
     2018.22313        -4.36625         4.73986
     2018.22587       -10.63279         4.70958
     2018.22861       -14.83633         4.69622
     2018.23106        -7.25261         5.34827
     2018.23408       -12.74742         4.75946
     2018.23682        -7.37897         4.74610
     2018.23944        -8.32540         5.33045
     2018.24230        -9.21005         4.77995
     2018.24503       -10.56060         4.69443
     2018.24777        -7.96614         4.70334
     2018.25051        -9.91269         4.73452
     2018.25325       -11.88723         4.89664
     2018.25598        -5.64377         4.69354
     2018.25872        -8.19332         4.83429
     2018.26146        -2.55786         4.88863
     2018.26417        -6.54738         4.78262
     2018.27259       -13.48721         5.02046
     2018.27515        -8.07058         4.76481
     2018.27789        -8.17313         4.88239
     2018.28062        -4.11367         4.95009
     2018.28285       -10.55074         6.03774
     2018.29273        -1.90492        16.05372
     2018.29431        -8.81239         4.87170
     2018.29705        -1.92393         4.78351
     2018.29979        -7.15748         4.81558
     2018.30253        -4.24802         4.73363
     2018.30527        -8.58957         4.70958
     2018.30800        -8.09011         4.74521
     2018.31074        -6.25965         4.77460
     2018.31348        -4.40320         4.75679
     2018.31622        -5.96574         4.73363
     2018.31895        -5.26129         4.86636
     2018.32169        -8.56983         4.76570
     2018.32443        -4.43837         4.76926
     2018.32717        -9.85792         4.76124
     2018.32991        -3.89246         4.82538
     2018.33264        -9.63801         4.72561
     2018.33538        -5.95355         4.88506
     2018.33812        -5.03809         4.89219
     2018.34086        -3.30664         4.74877
     2018.34360        -7.22418         4.70156
     2018.34633        -6.02673         4.65880
     2018.34907        -6.99127         4.69354
     2018.35181        -1.89581         4.72917
     2018.35455         3.48164         4.69800
     2018.35728        -7.15590         4.83072
     2018.36002        -4.47945         4.66860
     2018.36276        -2.10499         4.83340
     2018.36550        -6.50153         4.75055
     2018.36824        -1.60408         4.69978
     2018.37097        -3.18662         4.71047
     2018.37371        -6.39417         4.68820
     2018.37525       -10.83960        15.43017
     2018.37919        -4.67825         4.69087
     2018.38193        -2.26980         4.76659
     2018.38466         1.77366         4.72383
     2018.38740         1.00811         4.69800
     2018.39014         2.04657         4.70601
     2018.39288        -3.95497         4.69800
     2018.39561        -2.67552         4.66682
     2018.39835         1.26694         4.69800
     2018.40109         5.84039         4.72294
     2018.40383         0.36985         4.69978
     2018.40657        -2.81569         4.71314
     2018.40930         7.76776         4.77282
     2018.41204        -2.65978         4.72650
     2018.41478        -3.56933         4.68909
     2018.41752        -8.16587         4.65969
     2018.42026        -1.20741         4.92247
     2018.42299        -3.51296         4.65257
     2018.42573        -0.41850         4.95811
     2018.42847        -0.24504         4.70245
     2018.43121        -6.02559         4.69978
     2018.43394        -8.33513         4.71047
     2018.43668        -3.97168         4.78529
     2018.43942        -3.65422         5.13894
     2018.44216        -3.27876         4.70334
     2018.44490        -4.73131         4.72294
     2018.44763        -2.95085         4.70334
     2018.44963        -6.98771         6.80292
     2018.45311        -3.82494         4.68196
     2018.45585        -5.79048         4.67484
     2018.45859        -4.27703         4.94118
     2018.46132        -9.19957         4.75412
     2018.46406        -7.11312         4.68820
     2018.46680        -6.11966         4.76213
     2018.46954        -5.96120         4.71047
     2018.47227        -4.58175         4.78173
     2018.47501         0.79471         4.72205
     2018.47775        -6.44884         4.81380
     2018.48049        -9.43238         4.78262
     2018.48323        -1.30992         4.67306
     2018.48596        -6.37647         4.64989
     2018.48870        -0.56201         4.68285
     2018.49144        -0.66356         4.76926
     2018.49418        -0.87410         4.80756
     2018.49692        -2.87364         4.71670
     2018.49965        -6.19019         4.64366
     2018.50239        -2.96673         4.70601
     2018.50513        -8.09228         4.72828
     2018.50758        -2.88956         5.19862
     2018.51060        -5.49736         4.67751
     2018.51334        -6.86291         4.67662
     2018.51608        -5.11445         4.67395
     2018.51882        -7.89000         4.68553
     2018.52156        -6.60254         4.81024
     2018.52429        -1.92408         4.76392
     2018.52703        -0.96863         4.85745
     2018.52977        -3.67817         4.69889
     2018.53251        -4.23872         4.68909
     2018.53525        -3.15626         4.78886
     2018.53798        -6.04980         4.73719
     2018.54072        -2.75635         4.79955
     2018.54346         0.13211         4.71938
     2018.54620         1.44656         4.67484
     2018.54893        -4.82798         4.68464
     2018.55167        -6.25752         4.71938
     2018.55441        -1.67007         4.69532
     2018.55715        -3.90061         4.68642
     2018.55989        -7.18216         5.01601
     2018.56262        -5.42170         4.84052
     2018.56536        -4.10724         4.78351
     2018.56810         1.59121         4.75323
     2018.57084        -1.65433         4.70423
     2018.57357        -1.78988         4.81291
     2018.57631         1.77658         4.86636
     2018.57865        -1.82559         5.60393
     2018.58179        -0.36151         4.74788
     2018.58453         1.33095         4.81024
     2018.58726        -4.83060         4.81113
     2018.59000        -2.19014         4.68374
     2018.59274         0.31732         4.68464
     2018.59548        -0.79223         4.72828
     2018.59822         3.30523         4.76481
     2018.60095         3.15668         4.73185
     2018.60369        -2.46986         4.89041
     2018.60643        -3.62440         4.71403
     2018.60917         0.73105         4.68285
     2018.61190        -0.30649         4.78708
     2018.61459        -3.37598         5.04006
     2018.61738        -1.84358         4.79153
     2018.62012         1.90888         4.64277
     2018.62286        -5.96667         4.98305
     2018.62559        -3.82321         4.86992
     2018.62833        -5.57076         4.76659
     2018.63107        -5.81230         4.81113
     2018.63381         1.54316         4.84943
     2018.63655         0.73261         4.70691
     2018.63928         4.16407         5.15586
     2018.64202         2.31552         5.08460
     2018.64476         4.09198         4.77906
     2018.64750        -0.81656         4.71849
     2018.65023         3.64089         6.00389
     2018.65297         1.96835         4.84230
     2018.65571         4.88280         5.04808
     2018.65845         3.61526         4.71581
     2018.66119        -3.28028         4.80400
     2018.66392        -1.53583         4.81380
     2018.66666        -2.78837         4.77728
     2018.66940        -8.47591         4.82003
     2018.67214        -2.73246         4.67484
     2018.67488        -4.11400         4.70245
     2018.67744         2.43261         5.37143
     2018.67995        -3.97672         5.71973
     2018.68309        -3.75463         4.84854
     2018.68583        -1.10518         4.77995
     2018.68856         0.53628         4.73986
     2018.69125         3.37579         4.85567
     2018.70032        -5.06065         7.52713
     2018.70225        -5.17044         4.75946
     2018.70499        -5.10399         4.67751
     2018.70773        -6.10253         4.70423
     2018.71047        -0.26407         4.70780
     2018.71321        -3.30262         4.72917
     2018.71594        -3.90316         4.69711
     2018.71868        -8.36071         4.71136
     2018.72142        -0.93925         4.70958
     2018.72416        -6.22679         4.72561
     2018.72689        -0.38734         4.75412
     2018.72963        -4.50888         4.75055
     2018.73237       -10.34443         4.68464
     2018.73511        -5.03697         4.72205
     2018.73785        -4.46751         4.73096
     2018.74058        -2.23806         4.74343
     2018.74332        -4.23660         4.76392
     2018.74606        -2.51715         4.67751
     2018.74874        -4.28364         4.81291
     2018.75156        -8.29126         4.79866
     2018.75427         0.72522         4.80489
     2018.75701        -2.10132         4.82627
     2018.75975         3.82113         4.73185
     2018.76249         0.16959         4.76837
     2018.76522        -0.20195         4.78975
     2018.76796         2.74150         4.82271
     2018.77070        -3.09404         4.73897
     2018.77344         2.79641         4.74075
     2018.77618         7.47987         4.76570
     2018.77891         6.36833         4.76481
     2018.78165        -2.06722         4.85923
     2018.78439         8.39324         4.76035
     2018.78713        -2.26531         4.79777
     2018.78936       -11.05238         6.18828
     2018.79315        -9.42191         6.46710
     2018.79536         9.17404         4.82627
     2018.79808        -9.11548         4.91000
     2018.80082         3.73597         4.91713
     2018.80355         3.18043         4.72383
     2018.80629         2.41289         4.87972
     2018.80903       -11.53566         4.94029
     2018.81177        -2.17020         5.03115
     2018.81451        -4.51975         5.69300
     2018.81724        -1.32329         4.72650
     2018.81958         4.40254         6.00478
     2018.82272         3.00062         4.78351
     2018.82546         2.73508         4.77371
     2018.82820        -4.51347         4.80222
     2018.83093         1.32999         4.71492
     2018.83367         0.72445         4.69265
     2018.83641         6.01290         4.75590
     2018.83915         1.09736         4.78886
     2018.84188         1.50181         4.85656
     2018.84462         4.11527         4.73541
     2018.84736        -1.16027         4.67395
     2018.85010         2.84018         4.71225
     2018.85284        -0.23036         4.76035
     2018.85557        -8.21591         4.85567
     2018.85831        -1.69845         4.76570
     2018.86105        -4.14899         4.79242
     2018.86379         0.80746         4.79064
     2018.86653         0.35292         4.90911
     2018.86926        -6.37563         4.78975
     2018.87200         1.92983         4.77460
     2018.87474         0.84829         4.73096
     2018.87748         0.92674         4.75412
     2018.88021        -0.52980         5.06411
     2018.88295        -2.41235         4.80578
     2018.88569         2.61711         4.83072
     2018.88843         3.71957         4.81380
     2018.89117        -3.41498         4.75857
     2018.89390        -3.41052         4.82716
     2018.89664        -3.86907         4.90911
     2018.89938        -2.24161         4.86012
     2018.90212        -0.88915         4.86814
     2018.90485         5.98930         4.84230
     2018.90759         2.06476         4.85388
     2018.91033         5.96622         4.87348
     2018.91307         5.07467         4.95454
     2018.91581         2.30013         4.82003
     2018.91854         7.19458         4.79777
     2018.92128         2.69904         4.80935
     2018.92402         4.57450         4.87081
     2018.92676         1.13695         4.86279
     2018.92950         8.07041         4.90822
     2018.93218        -2.23208         5.17457
     2018.93509        -8.16579         5.13626
     2018.93771        -5.34122         4.90288
     2018.94045         3.43623         4.91000
     2018.94592         9.16314         4.86279
     2018.94866         8.93260         4.81380
     2018.95140         6.13206         4.81736
     2018.95414         9.87451         4.75144
     2018.95687         5.80997         4.79955
     2018.95961         2.37342         4.79153
     2018.96235         1.88688         4.81647
     2018.96509         4.44534         4.75946
     2018.96783        -5.29221         4.84230
     2018.97056         9.11325         4.79955
     2018.97330         4.36870         4.80756
     2018.97604        -2.98084         4.80667
     2018.97878         3.72662         4.84230
     2018.98151       -15.47793         4.78886
     2018.98425         1.33053         4.88328
     2018.98699        -1.46302         4.90644
     2018.98973        -0.22856         4.87883
     2018.99247         4.76390         4.83696
     2018.99520        -0.18165         4.85121
     2018.99794        -4.82219         4.87170
     2019.00017        -8.36026         6.84301
     2019.00342        -2.50728         4.87526
     2019.00616        -5.20882         4.81113
     2019.00889         0.45263         4.81202
     2019.01163        -4.99491         4.79866
     2019.01437         3.87154         5.01155
     2019.01711         0.13000         4.78975
     2019.01984        -6.00554         4.81914
     2019.02258        -1.79209         4.79242
     2019.02532        -0.28463         4.82003
     2019.02806        -1.95318         4.87170
     2019.03080        -1.89072         4.89575
     2019.03353        -5.34626         4.75590
     2019.03627        -8.40181         4.73363
     2019.03901         0.36765         4.76926
     2019.04175        -3.36490         4.73541
     2019.04449        -2.12744         4.80311
     2019.04722        -3.77598         4.83340
     2019.04996        -4.38353         4.87794
     2019.05270        -4.95607         4.92069
     2019.05544        -6.93162         4.82093
     2019.05817        -8.39116         4.93406
     2019.06091        -2.48870         4.82805
     2019.06365        -0.68225         4.85032
     2019.06639        -2.73079         4.97859
     2019.06913        -2.72334         4.93316
     2019.07186        -6.43888         5.08727
     2019.07460        -7.24842         4.77015
     2019.07734        -1.12597         4.75412
     2019.08008        -3.79251         4.84230
     2019.08282        -3.29606         4.94207
     2019.08555        -3.64360         4.77639
     2019.08829        -7.37414         4.71670
     2019.09103       -10.25569         4.88684
     2019.09377        -3.62723         4.75144
     2019.09650         1.84922         4.71759
     2019.09924        -3.58732         4.77817
     2019.10198        -4.88686         4.75501
     2019.10472        -1.40641         4.74877
     2019.10746        -6.64595         4.77193
     2019.11019        -6.29350         4.76124
     2019.11293        -8.55104         4.81024
     2019.11567         0.84342         4.98750
     2019.11841         8.43787         4.72828
     2019.12115         3.76733         4.86903
     2019.12388         0.81478         4.86992
     2019.12662        -0.72876         4.71581
     2019.12936        -1.90930         4.68909
     2019.13199        -2.00175         4.96612
     2019.13496        -6.57851         4.99463
     2019.13757        -6.29793         4.72294
     2019.14031        -1.49448         4.75412
     2019.14306        -4.94603         4.80400
     2019.14579        -1.46457         4.77460
     2019.14852         3.97889         4.88239
     2019.15126         6.44235         4.80935
     2019.15400        -3.16120         4.76837
     2019.15674        -5.75974         4.78084
     2019.15948        -3.52529         4.77460
     2019.16221        -4.83783         4.86903
     2019.16495        -3.84637         4.76124
     2019.16769        -5.78392         4.73363
     2019.17043       -11.35746         4.73007
     2019.17316        -5.24801         4.70958
     2019.17590        -1.30155         4.73630
     2019.17864        -1.99709         4.73007
     2019.18138        -0.42164         4.72917
     2019.18412       -12.40018         4.73719
     2019.18685        -3.10873         4.74075
     2019.18959        -1.22327         4.77460
     2019.19233        -3.07181         4.73363
     2019.19507        -1.48936         4.76837
     2019.19780        -7.22090         4.84587
     2019.20054        -5.99645         4.91000
     2019.20328        -8.96999         4.77728
     2019.20602       -14.39853         4.93406
     2019.20876        -8.60908         4.75590
     2019.21149        -4.88562         4.75234
     2019.21423        -5.31417         4.77282
     2019.21697       -10.62171         5.02224
     2019.21971        -6.36125         4.97503
     2019.22245        -6.88280         4.73897
     2019.22518        -2.26834         4.73274
     2019.22792        -3.86989         4.74699
     2019.23066       -12.21043         4.76926
     2019.23340        -8.51997         4.72205
     2019.23613        -4.93052         4.70067
     2019.23887        -8.02106         4.72027
     2019.24161        -4.11961         4.96523
     2019.24435        -3.96715         4.83072
     2019.24674        -9.00338         6.20520
     2019.24982        -4.01424         4.70156
     2019.25256        -0.98378         4.84052
     2019.25530        -1.54433         4.75144
     2019.25804         0.02013         4.73452
     2019.26078        -5.15241         4.78262
     2019.26351        -6.82696         4.85388
     2019.26625       -10.33350         4.82538
     2019.26899        -7.68905         4.81736
     2019.27173         1.47541         4.95454
     2019.27446        -4.63913         4.78084
     2019.27720        -0.48368         4.87615
     2019.27994        -0.07922         4.73096
     2019.28268        -5.68677         4.72383
     2019.28542         2.23669         4.70691
     2019.28815         4.28115         4.76302
     2019.29089         0.14160         4.79777
     2019.29363         4.55806         5.25741
     2019.29637        -5.70149         4.96345
     2019.29911        -1.15903         4.73808
     2019.30184         3.63743         4.74877
     2019.30458        -0.64112         4.79509
     2019.30732        -0.35566         4.72027
     2019.31006         1.85779         4.88417
     2019.31279        -1.10775         4.83696
     2019.31553         0.63271         4.74788
     2019.31827        -0.61484         4.72739
     2019.32101        -1.48838         4.74877
     2019.32375        -9.82493         4.75234
     2019.32648        -5.03047         4.73808
     2019.32922        -5.10401         4.71849
     2019.33196        -3.79056         4.90644
     2019.33470        -5.42210         4.86101
     2019.33744        -4.78765         4.73897
     2019.34017        -9.26819         4.73986
     2019.34291        -4.96473         4.73452
     2019.34565        -4.65228         4.77906
     2019.34839        -8.75782         4.80489
     2019.35112        -4.37837         4.72116
     2019.35386        -8.65291         6.62387
     2019.35660        -5.27945         4.72917
     2019.35934        -5.91400         4.73007
     2019.36159        -7.78909         5.73487
     2019.36481        -3.98409         4.75590
     2019.36750       -10.33958         4.78173
     2019.37048        -4.77735         5.07836
     2019.37303        -3.92272         4.76481
     2019.37571        -4.80721         4.93406
     2019.38124        -8.49135         4.76392
     2019.38398        -5.36789         4.73719
     2019.38672        -7.36644         4.69265
     2019.38945        -7.74598         5.10776
     2019.39219        -8.26352         4.71314
     2019.39487        -3.71202         4.78084
     2019.40041       -10.04516         4.76302
     2019.40314       -11.34770         5.95578
     2019.40588        -2.31924         4.87704
     2019.40862        -5.31179         4.75323
     2019.41136        -6.28033         4.82894
     2019.41404        -0.39182         4.86992
     2019.41957        -1.40996         4.74165
     2019.42231        -5.19951         4.73541
     2019.42505        -2.67405         4.74254
     2019.42778        -6.85160         4.85745
     2019.43052         2.49886         4.77550
     2019.43320         0.53237         5.61818
     2019.43874        -3.74277         4.80311
     2019.44147        -5.25732         4.87704
     2019.44421        -5.12186         4.83785
     2019.44695        -8.21740         4.81825
     2019.44969        -4.87195         4.81202
     2019.45237        -4.64344         4.95989
     2019.45790        -8.87158         4.84498
     2019.46064        -2.52112         4.86012
     2019.46338        -6.70767         4.94118
     2019.46611        -0.57021         4.94474
     2019.46885        -5.15476         4.93406
     2019.47153         0.25375         4.93316
     2019.47707        -0.25339         4.75323
     2019.47980        -4.91493         4.79687
     2019.48254        -8.76148         5.71705
     2019.48528        -5.51702         5.70369
     2019.48802        -5.38456         4.89842
     2019.49070        -6.69906         4.80400
     2019.49623        -3.87820         4.77906
     2019.49897        -2.82174         6.21946
     2019.50171        -6.54428         5.69300
     2019.50444        -4.48883         4.73719
     2019.50718        -4.21437         4.84498
     2019.50986        -4.38586         4.89664
     2019.51277        -5.36057         4.98305
     2019.51540        -0.93800         5.18526
     2019.51813        -2.39455         4.75412
     2019.52087        -6.17509         4.77906
     2019.52361       -10.82964         5.59234
     2019.52635        -6.87318         7.91195
     2019.52903        -2.41867         5.06589
     2019.53456        -5.61381         4.82271
     2019.53643        -0.47655         7.60641
     2019.54009        -4.32295         8.24421
     2019.54277         3.98556         4.89308
     2019.54551         3.15401         4.98127
     2019.54738         4.03127         7.67678
     2019.55373         3.80138         4.87259
     2019.55646        -3.37616         4.98661
     2019.55920        -7.63471         4.98928
     2019.56194         0.37875         4.79064
     2019.56468        -6.07880         4.91446
     2019.56741        -6.80234         4.75590
     2019.57027         2.66101         5.29482
     2019.57289        -4.25343         4.84498
     2019.57563        -2.47097         6.62031
     2019.57808        -4.16225         7.31512
     2019.58121         1.98984         4.95098
     2019.58384        -0.57060         5.24227
     2019.58652        -1.00109         4.84587
     2019.59206         0.30376         5.00354
     2019.59479         4.35222         5.09974
     2019.59753         5.62468         4.92604
     2019.60027         1.42213         4.92515
     2019.60301        -1.11141         5.02848
     2019.60616         0.47866         6.40919
     2019.60860         0.61339         5.06411
     2019.61122        -2.11504         4.70245
     2019.61396         0.08541         4.76213
     2019.61670         2.90787         5.32511
     2019.61943         1.65233         4.86457
     2019.62217         2.66878         5.35094
     2019.62485         3.47929         4.83251
     2019.63039         2.55415         4.76659
     2019.63312         1.69861         4.76302
     2019.63586        -6.80494         5.77763
     2019.63860        -0.30448         4.78797
     2019.64134         2.95797         4.82360
     2019.64402        -5.51952         4.84320
     2019.64955         0.34134         4.82716
     2019.65219         4.10789         5.32422
     2019.65525         0.82505         5.24138
     2019.65776        -3.08129         5.38479
     2019.66050         3.06217         5.20218
     2019.66318        -4.12533         4.83607
     2019.66872        -0.67047         6.54103
     2019.67145        -5.97301         4.78797
     2019.67419        -8.19655         4.79777
     2019.67693        -6.96910         4.80400
     2019.67967       -13.50464         5.26454
     2019.68235        -8.15713         4.95454
     2019.68788        -4.48727         5.15408
     2019.69062        -2.91982         4.74165
     2019.69336        -3.27036         4.68464
     2019.69609        -1.60891         4.88239
     2019.69883        -5.83945         4.71849
     2019.70151        -3.19594         4.85656
     2019.70705        -2.37508         4.73719
     2019.70978         0.90037         4.72027
     2019.71252        -7.31717         4.75679
     2019.71526        -2.70471         4.97592
     2019.71800         2.45374         5.09172
     2019.72068         0.68425         5.21020
     2019.72621        -1.87489         4.95900
     2019.72895         2.37657         5.04184
     2019.73169         6.92002         4.77104
     2019.73442         0.82948         4.76124
     2019.73716         3.87693         4.69622
     2019.73984         5.55944         5.00443
     2019.74538        -1.32170         4.67751
     2019.74811         1.33676         4.84587
     2019.75085         2.94921         4.85567
     2019.75240        -0.37723        13.18895
     2019.82203         1.84207         4.71759
     2019.82477        -0.02147         4.73897
     2019.82751        -2.73402         4.76926
     2019.83025        -0.05056         4.91713
     2019.83299         0.40789         4.84409
     2019.83572        -3.00465         4.80489
     2019.83858         0.63970         5.02046
     2019.84120         3.27026         4.75857
     2019.84394         0.40172         4.92604
     2019.84668        -0.01783         4.74343
     2019.84941         6.81563         4.77906
     2019.85215         3.12609         4.86725
     2019.85483         1.81760         4.96880
     2019.86036         0.04646         4.81469
     2019.86310        -0.73709         4.73630
     2019.86584         6.30637         4.82003
     2019.86858         8.65782         4.80756
     2019.87132         8.26828         4.95722
     2019.87400         7.28179         4.94207
     2019.87953         9.67965         4.74521
     2019.88227         7.95610         4.71403
     2019.88501         7.83256         4.75323
     2019.88774         6.15902         4.99997
     2019.89048         4.90447         4.83518
     2019.89316         6.85598         4.88061
     2019.89869         4.80284         4.77104
     2019.90143         7.99630         4.81024
     2019.90417         0.08475         4.77015
     2019.90691         6.42421         4.70245
     2019.90965         3.50166         4.76570
     2019.91233         4.24917         4.84409
     2019.91786        13.91203         5.26097
     2019.92060         9.64249         5.00621
     2019.92334         7.29094         4.74254
     2019.92607         5.62540         4.83607
     2019.92881         0.47086         4.74432
     2019.93149         4.23336         4.82003
     2019.93702         4.75222         4.75768
     2019.93976         6.31768         4.72561
     2019.94250         1.47814         4.73630
     2019.94524        -0.85241         4.74877
     2019.94798         1.46205         4.77906
     2019.95066         3.17756         5.03471
     2019.95619         6.31842         4.77728
     2019.95893         4.08387         4.82449
     2019.96167         1.45133         4.83161
     2019.96440         1.80278         5.20842
     2019.96714        -0.19976         4.86012
     2019.96982        -2.64725         4.86636
     2019.97535         0.20961         4.84676
     2019.97809         1.00306         4.74254
     2019.98083        -4.82848         4.75946
     2019.98357         0.47798         4.96969
     2019.98631         1.38143         4.78262
     2019.98904         0.14989         5.70369
     2019.99190        -2.60876         4.92247
     2019.99452         5.87280         5.00443
     2019.99726         8.02826         4.76748
     2020.00000        11.38671         4.79420
     2020.00273         5.53617         4.75768
     2020.00547         7.70662         4.84498
     2020.00815        -1.77387         5.21020
     2020.01368        -3.55401         4.86814
     2020.01642         2.37045         4.91980
     2020.01916         0.76590         4.74966
     2020.02190         0.07036         4.85210
     2020.02464         0.55382         5.05253
     2020.02732         1.43733         4.84409
     2020.03285       -12.22182         4.67127
     2020.03559        -1.43136         4.59734
     2020.03833         1.72210         4.63831
     2020.04088        -0.57728         5.47209
     2020.04494       -12.05205        11.31474
     2020.04648         1.26552         4.78173
     2020.04939        -4.01719         4.84943
     2020.05201        -0.90362         4.65791
     2020.05475        -4.28617         4.67127
     2020.05749        -5.23371         4.65613
     2020.06023        -1.63026         4.67929
     2020.06297         3.80420         4.64722
     2020.06565        -0.01929         4.81736
     2020.07118         3.74157         4.69800
     2020.07392         0.07802         4.69800
     2020.07666        -2.85852         5.54246
     2020.07939         9.55894         4.71849
     2020.08213        -2.16861         4.74966
     2020.08481        -0.16310         4.74788
     2020.09034        -1.78424         4.70245
     2020.09308        -2.66978         4.70334
     2020.09582        -5.25133         4.69978
     2020.09856         1.39413         4.67395
     2020.10112        -7.39725         5.01957
     2020.10462        -4.15051         6.36822
     2020.10951        -3.93905         4.68374
     2020.11225         7.25341         4.83607
     2020.11498         5.12587         4.70780
     2020.11772         4.33832         4.83785
     2020.12046        -5.25922         4.82449
     2020.12314         0.49929         4.78262
     2020.12867        -2.81785         4.66771
     2020.13141        -1.74540         4.66058
     2020.13415        -2.35794         4.69622
     2020.13689        -1.60849         4.75412
     2020.13963        -6.05803         4.80578
     2020.14231         1.22148         4.82627
     2020.14516        12.10283        21.69060
     2020.14784         2.38834         4.69087
     2020.15058        -5.20821         4.72472
     2020.15331        -4.97675         4.74788
     2020.15605        -3.04029         4.74966
     2020.15879        -0.53784         4.67484
     2020.16147         1.15867         4.74075
     2020.16700         6.69653         4.74343
     2020.16974         2.94799         4.67573
     2020.17248         1.12844         4.67127
     2020.17522         2.86790         4.66771
     2020.17796        -1.43665         4.66860
     2020.18904        -6.31294         4.96612
     2020.19164        -3.46737         4.77015
     2020.19438        -3.75291         4.74254
     2020.19712        -6.17245         6.45284
     2020.19986        -8.57300         4.72650
     2020.20271        -5.48465         4.92960
     2020.20533        -7.53509         4.74966
     2020.20807        -8.07763         4.85299
     2020.21081        -6.70217         4.77015
     2020.21355        -6.30072         5.24049
     2020.21629        -1.20226         4.99374
     2020.21897        -4.22775         4.89308
     2020.22450        -2.59689         4.77371
     2020.22724        -3.04044         4.77550
     2020.22997        -3.40898         4.79331
     2020.23271        -1.10853         4.96701
     2020.23545         3.55893         4.81914
     2020.23813        -1.83756         4.85567
     2020.24366         2.03330         4.76302
     2020.24640         2.39375         4.87170
     2020.24914        -8.26379         4.77906
     2020.25188        -4.80633         4.83607
     2020.25447        -4.00575         4.90733
     2020.25742        -1.67549         5.16655
     2020.26244        -1.75915         5.52732
     2020.26559        -6.41007         8.18898
     2020.26838        -4.12866         4.84052
     2020.27104        -8.02614         4.94029
     2020.27378        -3.45869         4.76837
     2020.27646        -4.93818         4.84498
     2020.28199        -1.49532         4.84765
     2020.28473       -11.56386         4.78886
     2020.28747        -6.92941         4.83518
     2020.29021        -2.55795         4.74699
     2020.29295        -4.64449         4.76213
     2020.29563        -2.20498         4.87348
     2020.30116         1.50287         4.77906
     2020.30390        -0.97767         4.79687
     2020.30663        -2.78921         4.81558
     2020.30937        -5.93176         4.80935
     2020.31211        -8.32430         4.84854
     2020.31479        -6.77579         4.86636
     2020.32032        -4.16393         4.70334
     2020.32306        -5.01748         4.94920
     2020.32580        -4.49202         4.70067
     2020.32854        -6.29956         4.68820
     2020.33128        -9.13311         4.68464
     2020.33396        -8.25560         4.79509
     2020.33949         3.85026         4.71581
     2020.34223       -12.50728         4.80222
     2020.34496        -9.41383         4.68731
     2020.34770       -10.77137         4.66058
     2020.35044        -6.85192         4.89308
     2020.35312        -7.85941         4.90110
     2020.35865        -8.74355         4.70780
     2020.36139        -8.94309         4.71225
     2020.36413       -11.07564         4.72294
     2020.36687       -10.30518         4.77817
     2020.36961        -7.31872         4.96612
     2020.37229        -9.26222         4.80935
     2020.37514       -11.04287         4.82003
     2020.37782        -9.36036         4.69443
     2020.38056       -11.87490         4.76748
     2020.38329        -7.35444         4.72383
     2020.38603       -11.90499         4.70780
     2020.38877        -6.86053         4.80133
     2020.39111        -9.82571         5.46407
     2020.39538       -12.27468        13.41610
     2020.39698        -2.80616         4.70245
     2020.39972        -7.15971         4.66504
     2020.40246        -5.14625         4.70156
     2020.40520        -1.37780         4.82449
     2020.40794       -14.14734         4.72205
     2020.41067        -7.74588         4.67216
     2020.41347        -5.77548         5.03739
     2020.41615        -6.97397         4.68196
     2020.41889        -3.27552         4.76124
     2020.42162        -5.81306         4.67929
     2020.42436        -1.90460         4.85299
     2020.42710        -3.64315         4.83607
     2020.42978        -7.55464         4.85388
     2020.43269        -8.15534         5.03026
     2020.43531        -7.76678         4.74521
     2020.43805        -6.47032         4.76926
     2020.44079        -6.18587         4.75768
     2020.44353       -10.39641         4.78351
     2020.44626       -10.88296         4.73452
     2020.44895        -8.25645         4.81914
     2020.45448        -7.62059         4.68553
     2020.45722        -4.76113         4.71849
     2020.45995        -2.28968         4.73986
     2020.46213       -11.02669         5.94420
     2020.46560        -5.26492         5.15052
     2020.46811        -1.56925         4.87081
     2020.47364        -8.11640         4.78529
     2020.47638        -4.50294         4.77906
     2020.47912        -8.95548         4.77371
     2020.48186        -6.56903         5.31264
     2020.48459        -9.48657         4.84765
     2020.48728        -5.02506         4.99107
     2020.49307        -5.91644         5.57186
     2020.49516        -4.26139         5.76516
