# ================= DQRFIT RESULTS ================
# INPUT FILE: series/ANTE.rad
# OUTPUT: LDETRENDED
# FILTER FUNCTION: f(t)
# f(t)=+line(t)+annual(t)
# line(t)=+P 1+P 2*t
# annual(t)=+P 3*sin(2*pi*t+P 4)
# heav(t)=(t<0?0:1)
# TOTAL OBSERVATIONS MTOT=  769
# INITIAL TIME INTERVAL= 2018.5434 - 2004.1807 = 14.3627
# TOTAL OBSERVATIONS AFTER PREFILTER M=  767
# TIME-SPAN= 2018.5434 - 2004.1807 = 14.3627
# OBSERVATIONS: USED M=   767 REJECTED MTOT-M=     2 %USED=   99.7399
# N=  4 PARAMETERS
# MAXSIG= 175.00000
# MAXRES=  19.96724
# SCALE FACTOR FOR LENGTHS: SCL=  10.00000
# SCALE FACTOR FOR SIGMAS: SCLSIG=   1.00000
# CHI^2=    778.951 DOF=   763 CHI^2/DOF=   1.02091
# RMS=      5.846 SDEV=      5.850 MEAN=    0.01339
#  P #       PARAMETER +-    SIGMA %error PARAMETER NAME
# P 1 =     -1280.22815 +-   93.653   7.32 YZERO                              
# P 2 =         0.63637 +-    0.047   7.32 SLOPE                              
# P 3 =         1.90780 +-    0.344  18.02 ANNUAL AMPLITUDE                   
# P 4 =         2.69744 +-    0.240   8.90 ANNUAL PHASE                       
#       T            LDETRENDED       SIG_OBS
     2004.18070         4.05074         5.90780
     2004.18344        -4.60501         6.07452
     2004.18618        -1.49375         6.08462
     2004.18892        14.05551         6.13514
     2004.19165         6.16477         5.97449
     2004.19439        13.09603         5.91588
     2004.19713         4.06128         5.95630
     2004.19987        -0.67846         5.97954
     2004.20261         7.95080         5.96135
     2004.30938         6.84185         5.94822
     2004.31212         0.81911         5.86031
     2004.31486         2.94337         5.84314
     2004.31760         0.94862         5.91487
     2004.32033         8.76388         5.84920
     2004.32307         9.24814         6.01288
     2004.32581         5.84240         5.88254
     2004.32855         1.31065         5.91184
     2004.33128        -1.65709         5.86031
     2004.33402         5.68017         5.87648
     2004.33676         2.98143         6.05431
     2004.33950        11.43868         6.14929
     2004.34224        11.22094         6.17151
     2004.34497         5.36720         6.00682
     2004.34771         9.73146         6.01894
     2004.35045         7.38272         5.97449
     2004.35319         5.33497         6.18768
     2004.35593        15.16723         6.06037
     2004.35866        12.42549         6.04623
     2004.36140         8.95275         6.00177
     2004.36414         6.20500         5.98156
     2004.36688         4.00426         6.12908
     2004.36961        15.63052         5.99469
     2004.37235         5.17478         6.02299
     2004.37509         5.52704         6.01389
     2004.37783        -1.32571         5.83202
     2004.38057         1.66455         6.03915
     2004.38330         5.96881         6.09776
     2004.38604         6.51307         6.06946
     2004.38878         4.68532         5.87648
     2004.39152        14.49158         5.95529
     2004.39426        12.29484         5.82192
     2004.39699        10.00210         6.06946
     2004.57222         4.55759         5.80474
     2004.57495         1.18985         5.80171
     2004.57769         2.90111         5.83202
     2004.58043         6.66636         5.79059
     2004.58317         2.72262         5.85728
     2004.58590         1.92388         5.80373
     2004.58864         3.89314         5.89770
     2004.59138         7.03040         5.87345
     2004.59412         0.42065         5.90073
     2004.59686         2.32791         5.92498
     2004.59959         5.22617         5.84111
     2004.60233         3.25643         5.75826
     2004.60507         4.78568         5.78958
     2004.60781         3.21694         5.80878
     2004.61055         2.78120         5.81788
     2004.61328         0.19746         5.83707
     2004.61602         3.82371         5.90780
     2004.61876         0.70197         5.83505
     2004.62150         8.16223         5.94620
     2004.62423         3.17849         5.92599
     2004.62697        -1.61625         5.87547
     2004.62971         5.92300         5.80474
     2004.63245         5.24126         5.92498
     2004.63519        15.97152         5.96640
     2004.63792         8.11178         5.91184
     2004.64066         5.17903         5.85021
     2004.64340         9.41829         5.82394
     2004.64614         1.75555         5.90477
     2004.64888        -1.78019         5.89669
     2004.65161         5.88307         5.93811
     2004.65435         7.94132         5.77746
     2004.65709         3.60758         5.92599
     2004.65983         0.14684         5.91083
     2004.66256         0.31110         5.98459
     2004.66530         1.10735         5.88961
     2004.66804         1.18161         5.92599
     2004.67078         3.13587         5.97954
     2004.67352         9.96713         5.83404
     2004.67625         7.56638         5.94013
     2004.67899         1.98864         5.86435
     2004.68173         4.33690         5.81383
     2004.86243        -7.19709         5.74917
     2004.86517        -8.47683         5.72997
     2004.86790       -11.45157         5.69461
     2004.87064        -6.95532         5.70572
     2004.87338        -0.41206         5.67541
     2004.87612        -0.27880         5.70168
     2004.87885        -2.89154         5.75523
     2004.88159        -3.98229         5.86738
     2004.88433         1.00297         6.09877
     2004.88707         8.82723         5.82293
     2004.88981         4.19849         5.78958
     2004.89254         4.35974         5.84010
     2004.89528        10.33200         5.85930
     2004.89802        13.84726         5.93912
     2004.90076        15.91552         6.04117
     2004.90350        -1.93022         5.73300
     2004.90623       -13.48097         5.73199
     2004.90897         7.44629         5.74108
     2004.91171        12.80455         5.62489
     2004.91445         9.63881         5.55618
     2005.11704        -5.51312         5.71380
     2005.11978         0.53414         5.69966
     2005.12252         0.19840         5.68248
     2005.12526        -1.17835         5.71279
     2005.12799        -6.80009         5.75523
     2005.13073        -4.54883         5.83808
     2005.13347        -5.02357         5.73300
     2005.13621        -6.25532         5.92397
     2005.13895        -4.36506         5.71178
     2005.14168        -8.87480         5.69966
     2005.14442       -14.64154         5.73401
     2005.14990        -5.17003         5.77342
     2005.15264        -4.71577         5.76129
     2005.15537        -2.36351         5.80272
     2005.15811        -2.26425         5.93104
     2005.16085        -0.06000         5.86334
     2005.16359         0.49526         5.85324
     2005.16632        -4.93348         5.88254
     2005.16906        -0.18422         5.90881
     2005.17180        -3.18696         5.85627
     2005.17454        -4.14571         5.89366
     2005.17728        -2.55445         5.93811
     2005.18001        -6.27519         5.87648
     2005.18275        -8.32093         5.84314
     2005.18549        -6.38968         5.89871
     2005.18823        -4.18342         5.89163
     2005.19097        -4.03416         5.84516
     2005.19370        -3.36490         5.85728
     2005.19644        -6.96965         5.96539
     2005.19918        -0.82839         5.82697
     2005.20192         1.21187         6.15131
     2005.20465         3.65513         6.02905
     2005.20739        -0.12561         5.92700
     2005.21013         1.73264         6.10382
     2005.21287        -1.48810         5.90174
     2005.21561         5.27916         5.90578
     2005.21834        -1.26658         5.80979
     2005.22108        -0.37833         5.87446
     2005.22382       -10.60207         5.80777
     2005.22656        -5.84481         5.85930
     2005.22930         1.58145         5.88759
     2005.23203        -2.18029         5.84617
     2005.23477        -0.16004         5.90275
     2005.23751        14.47022         5.90275
     2005.24025         6.30248         6.03006
     2005.24298        -5.97726         5.88759
     2005.24572         0.61899         6.03208
     2005.24846         1.66425         5.81484
     2005.25120         3.02051         5.83808
     2005.25394         8.42077         6.13615
     2005.25941         9.13428         5.98156
     2005.26215         0.88354         5.98156
     2005.53868         6.25757         5.87446
     2005.54141         3.60782         5.83000
     2005.54415         4.72508         5.84920
     2005.54689         3.82834         5.82394
     2005.54963         1.32360         5.95731
     2005.55237         1.85986         5.94620
     2005.55510        10.76011         5.99267
     2005.55784        10.00637         5.95125
     2005.56058         2.79063         6.01389
     2005.56332        -6.59611         5.99975
     2005.56606        -0.27786         6.08967
     2005.56879         1.89740         6.13716
     2005.57153         4.89566         6.19475
     2005.57427         0.77792         6.11796
     2005.57701         0.13618         6.16141
     2005.57974         1.82643         6.18667
     2005.58248         6.75469         6.10988
     2005.58522         1.23495         6.00682
     2005.58796         8.87921         5.82091
     2005.59070         5.87646         5.88052
     2005.59343         2.01872         5.87446
     2005.59617         8.25298         5.85627
     2005.59891         4.93724         5.94316
     2005.60165         6.59349         5.94418
     2005.60439         5.99875         5.89467
     2005.60700         5.44209         6.29579
     2005.91650         4.52813         5.87446
     2005.91924         1.34639         5.94013
     2005.92198         8.41665         5.75624
     2005.92471        -2.60809         5.79767
     2005.92745        -6.03384         5.77948
     2005.93019         2.16542         5.84111
     2005.93293         3.25068         5.77140
     2005.93567         2.56994         5.78857
     2005.93840         1.49819         5.82697
     2005.94114         1.06145         5.81889
     2005.94388         6.40871         5.82091
     2005.94662         3.81397         5.76736
     2005.94935         2.54223         5.76432
     2005.95209        -2.54052         5.87446
     2005.95483        -2.31026         5.93508
     2005.95757         2.37700         5.84516
     2005.96031         7.22226         5.77039
     2005.96304        -9.03449         5.73401
     2005.96578        -2.99123         5.85425
     2005.96852        -3.44897         6.04218
     2005.97126        -1.51871         5.97550
     2005.97400         0.40354         5.96034
     2005.97673        -2.36420         5.97348
     2005.97947        -1.14194         5.83909
     2005.98221        -0.93968         5.83808
     2005.98495         3.91558         5.92094
     2005.98768        -2.74917         5.90679
     2005.99042        -1.77791         5.83505
     2005.99316         0.97435         5.88860
     2005.99590        -2.68239         5.89062
     2005.99864         1.99086         5.93104
     2006.00411        -2.37462         5.88254
     2006.00685       -12.59536         5.88153
     2006.00959       -10.80110         5.90275
     2006.01233        -6.46185         5.88355
     2006.01506       -11.08659         5.98560
     2006.01780         7.65867         5.93003
     2006.02054        -1.09507         6.01793
     2006.02328        -5.73782         6.05229
     2006.02601        -7.34356         6.09472
     2006.02875        -1.60330         5.94418
     2006.03149        -1.00604         6.03915
     2006.03423        -0.10179         5.93811
     2006.03697         6.47947         5.91790
     2006.03970         0.77673         5.91184
     2006.04244        -0.71901         5.86637
     2006.04518         2.27425         6.03814
     2006.04792        -2.26150         5.95327
     2006.05065       -10.39024         5.93710
     2006.05339        -8.53898         5.90780
     2006.05613        -1.48072         5.68551
     2006.05887        -1.80147         5.69764
     2006.06161        -3.48221         5.72997
     2006.06434         0.92705         5.88860
     2006.06708        -1.93169         5.59458
     2006.06982        -4.99743         5.64308
     2006.07256       -10.77018         5.66126
     2006.07530        -4.53592         5.66935
     2006.07803       -13.46966         5.65015
     2006.08077        -3.51540         5.68955
     2006.08351        -4.20815         5.70370
     2006.08625        -2.77389         5.71077
     2006.08898        -1.23663         5.72189
     2006.09172        -2.58037         5.69663
     2006.09446        -1.81812         5.85728
     2006.09720        -4.18786         5.74614
     2006.09994        -6.44860         5.70370
     2006.10267        -7.65534         5.70673
     2006.10541        -8.91108         5.69056
     2006.10815        -4.88983         5.80373
     2006.11089        -5.59557         6.01894
     2006.11363        -9.51331         5.78958
     2006.11636        -6.92305         5.77241
     2006.11910        -6.40180         5.74311
     2006.12184        -0.40954         5.77746
     2006.12458        -1.47128         5.80171
     2006.12731        -8.90802         5.70471
     2006.13005        -1.09376         5.75523
     2006.13279        -2.13351         5.71886
     2006.13553         3.89975         5.70875
     2006.13827         5.28101         5.72795
     2006.30528        -4.86927         5.79868
     2006.30801       -15.46101         5.85324
     2006.31075        -9.55576         5.86536
     2006.31349        -4.82650         5.95024
     2006.31623        -4.11824         5.80676
     2006.32170        -2.44272         5.89871
     2006.32444        -7.60047         5.84920
     2006.32718       -11.17021         5.94418
     2006.32992        -3.82195         5.74412
     2006.33265        -6.62469         5.78150
     2006.33539        -3.34944         5.77342
     2006.33813        -5.94018         5.81181
     2006.34087        -4.34092         5.82091
     2006.34361        -3.64766         5.77241
     2006.34634        -3.12440         5.74816
     2006.34908        -5.14615         6.00177
     2006.35182        -4.58389         5.91689
     2006.35456        -9.01163         5.81686
     2006.35729        -9.98937         5.85728
     2006.36003       -11.93212         5.83000
     2006.36277        -8.12086         5.78453
     2006.36551        -9.53860         5.78857
     2006.36825       -11.72434         5.77544
     2006.37098        -9.07709         6.01894
     2006.37372        -3.32583         5.99065
     2006.37646        -7.88757         5.85526
     2006.37920        -5.10631         5.95428
     2006.38193        -1.32005         5.94923
     2006.38467        -5.06080         5.95226
     2006.38741        -5.88754         6.13110
     2006.39015        -9.52328         5.90275
     2006.39289        -0.31302         5.91790
     2006.39562        -3.40877         6.10382
     2006.39836        -0.95451         6.11796
     2006.40110        -2.86425         5.92599
     2006.40384        -2.03699         5.94316
     2006.40658        -2.96773         5.91487
     2006.40931        -9.77748         5.93710
     2006.41205        -7.61822         5.92195
     2006.41479        -4.01296         5.91993
     2006.41726       -14.07053         6.68278
     2006.94867         2.91329         5.95529
     2006.95141         7.47855         6.03107
     2006.95415         3.85781         6.13918
     2006.95688        12.21807         5.98358
     2006.95962        10.17432         5.94822
     2006.96236        11.13858         5.96842
     2006.96510         8.64384         6.05532
     2006.96784         8.87310         6.03006
     2006.97057         3.98936         5.96944
     2006.97331       -17.29639         6.88284
     2006.97605         3.36287         6.00682
     2006.97879         1.69413         5.98358
     2006.98152         2.34539         6.01187
     2006.98426         3.57064         6.14423
     2006.98700         1.15890         6.23719
     2006.98974         0.95616         6.13312
     2006.99248        -0.59558         6.19779
     2006.99521         1.19068         6.14929
     2006.99795         7.36693         6.18667
     2007.00343         6.39345         6.19071
     2007.00616         7.86771         6.06239
     2007.00890         5.24296         6.09675
     2007.01164         2.57622         6.06239
     2007.01438         2.42348         5.93306
     2007.01712        -5.82826         5.97752
     2007.01985        -1.90001         5.92599
     2007.02259        -1.60375         5.93811
     2007.02533         3.60951         5.94620
     2007.02807         1.29877         6.01187
     2007.03081         4.39703         5.79565
     2007.03354        -2.24472         5.73603
     2007.03628        -1.83946         5.77645
     2007.03902        -1.92020         5.79868
     2007.04176        -2.24194         5.82293
     2007.04449        -1.54169         5.73502
     2007.04723        -5.67943         5.86435
     2007.04997        -1.31917         6.01389
     2007.05271         1.73509         6.06542
     2007.05545         3.28935         5.72896
     2007.05818        -0.29740         5.77443
     2007.06092         0.32486         5.81889
     2007.06366        -0.36588         5.70168
     2007.06640        -0.83762         5.77544
     2007.06914         0.75563         5.68450
     2007.07187         6.24289         5.66126
     2007.07461         5.58015         5.65217
     2007.07735         1.26541         5.67743
     2007.08009         4.30066         5.67642
     2007.08282         3.76592         5.67743
     2007.08556         6.27618         5.82596
     2007.08830         3.60944         5.82899
     2007.09104         4.95070         5.76028
     2007.09378         3.37395         5.72088
     2007.09651        -2.06279         5.65621
     2007.66051       -12.79470         6.25336
     2007.66325        -2.84844         6.19071
     2007.66599       -12.04018         6.22406
     2007.66872       -10.16593         6.18061
     2007.67146        -5.74167         6.03309
     2007.67420        -3.42141         6.13716
     2007.67694         4.25185         6.19981
     2007.67968        -5.31989         6.15232
     2007.68241        -1.31864         6.08462
     2007.68515        -0.22138         6.17455
     2007.68789         0.40688         6.13918
     2007.69063        -0.27486         6.14120
     2007.69337        -1.72161         6.11089
     2007.69610        -4.65035         6.19273
     2007.69884        -5.12909         6.15535
     2007.70158        -1.09683         6.17050
     2009.48392        -3.93706         5.81080
     2009.48666        -6.33980         5.83707
     2009.48940        -4.22254         5.86637
     2009.49213         1.06372         5.85930
     2009.49487        -3.99702         5.85021
     2009.49761        -3.80777         5.83909
     2009.50035         2.40949         5.90477
     2009.50308         3.62975         5.84819
     2009.50582        -3.55299         5.82596
     2009.50856        -5.31774         5.77443
     2009.51130        -1.36448         5.70875
     2009.51404         1.76478         5.69764
     2009.51677         2.29504         5.77847
     2009.51951         2.09830         5.74917
     2009.52225        -3.59345         5.75826
     2009.52499         0.21381         5.77140
     2009.52773         5.47307         5.91993
     2009.53046        -2.20067         5.84516
     2009.53320        -6.29242         5.72694
     2009.53594        -2.39516         5.73603
     2009.53868        -5.11790         5.76432
     2009.54141        -1.97964         5.72795
     2009.54415         1.75461         5.76331
     2009.54689        -5.32513         5.82697
     2009.54963        -2.34987         5.79262
     2009.55237        -2.14861         5.83303
     2009.55510         5.51265         5.76432
     2009.55784         3.28990         5.80676
     2009.56058        -2.39784         6.00682
     2009.56332        -2.64758         6.03208
     2009.56606        -6.79632         6.12504
     2009.56879         0.71893         5.88355
     2009.57153        -3.01481         5.78958
     2009.57427         5.88645         5.92094
     2009.57701        -1.06029         5.98257
     2009.57974         0.63697         5.85930
     2009.58248         1.03022         5.91285
     2009.58522         0.61948         5.83101
     2009.58796        -1.70826         5.81383
     2009.59070        -4.36300         5.84718
     2009.59321        -5.79260         6.45342
     2010.32444        -3.96093         5.85122
     2010.32718        -0.13768         5.74412
     2010.32992        -5.18842         5.78857
     2010.33265        -3.98616         5.75220
     2010.33539         0.14110         5.85021
     2010.33813         0.41935         5.79666
     2010.34087        -3.07739         5.74311
     2010.34361        -1.22613         5.68349
     2010.34634        -4.65187         5.85324
     2010.34908        -2.90562         5.68652
     2010.35182        -4.54936         5.69663
     2010.35456        -3.15410         5.73300
     2010.35729        -7.24684         5.74917
     2010.36003        -3.07958         5.81484
     2010.36277        -1.05233         5.68753
     2010.36551        -6.42307         5.85526
     2010.36825       -12.52081         5.88254
     2010.37098        -3.22955         5.68349
     2010.37372        -0.32130         5.79160
     2010.37646        -8.86504         5.68046
     2010.37920        -4.18678         5.97954
     2010.38193         3.86948         6.03410
     2010.38467        -1.75426         5.87749
     2010.38741        13.71299         5.77342
     2010.39015         1.58125         5.77443
     2010.39289         0.51351         5.79767
     2010.39562        -5.05423         5.82293
     2010.39836        -6.80098         5.77039
     2011.40042        -0.99265         5.71279
     2011.40315       -10.26539         5.73906
     2011.40589        -8.38413         5.64611
     2011.40863        -4.06788         5.60771
     2011.41137        -5.41462         5.71077
     2011.41410        -7.49736         5.68551
     2011.41684       -11.85610         5.68248
     2011.41958        -5.93385         5.62388
     2011.42232       -13.84559         5.64106
     2011.42506        -3.96333         5.71684
     2011.42779        -5.87607         5.70673
     2011.43053       -11.45581         5.67238
     2011.43327       -14.27956         5.67945
     2011.43601       -12.77230         5.64813
     2011.43875       -16.93304         5.64106
     2011.44148        -9.25478         5.74412
     2011.44422       -11.34253         5.81181
     2011.44696       -14.88527         5.86031
     2011.44970        -8.40201         5.72795
     2011.45243       -16.02875         5.77544
     2011.45517        -7.08850         5.75523
     2011.45791       -10.50424         5.64409
     2011.46065       -14.18798         5.72088
     2011.46339       -19.11272         5.79868
     2011.46612       -12.54946         5.72391
     2011.46886        -8.34321         5.72189
     2011.47160       -10.18795         5.67844
     2011.47434        -3.03769         5.86031
     2011.47708       -10.99743         5.87850
     2011.47981        -5.64218         5.72189
     2011.48255        -5.60392         5.72391
     2011.48529       -14.31466         5.69562
     2011.48803        -5.98240         5.66834
     2011.49076        -9.01414         5.80272
     2011.49350       -11.17689         5.74007
     2011.49624       -10.13463         5.72492
     2011.49898        -5.58337         5.71886
     2011.50172        -6.82011         5.74614
     2011.50445        -7.44986         5.79059
     2011.50719       -14.89260         5.80878
     2011.50993       -11.61534         5.77948
     2011.51267        -5.85008         5.87850
     2011.51541        -9.42583         5.88052
     2011.51814        -1.41057         5.77443
     2011.52088        -5.49231         5.72189
     2011.52362        -3.16605         5.77241
     2011.52636        -9.22479         5.66733
     2011.52881        -4.82836         6.38976
     2012.83505        -0.20060         5.78453
     2012.83779         2.62265         5.80171
     2012.84052        -0.19809         5.77948
     2012.84326         2.72517         5.80070
     2012.84600         4.02843         5.69360
     2012.84874         2.08369         5.74108
     2012.85148         4.03394         5.80272
     2012.85421         8.24520         5.78958
     2012.85695         3.38846         5.77443
     2012.85969         6.53772         5.72896
     2012.86243         1.81497         5.79767
     2012.86517         5.97723         5.78857
     2012.86790         6.22349         5.87547
     2012.87064         4.59175         5.73502
     2012.87338        -0.24900         5.73502
     2012.87612         3.89426         5.68551
     2012.87885         6.07152         5.77342
     2012.88159         7.82678         5.66025
     2012.88433         7.25404         5.69764
     2012.88707        -1.90971         5.82697
     2012.88981        17.82755         5.86637
     2012.89254         4.26281         5.80171
     2012.89528         1.41207         5.70976
     2012.89802        -0.77768         5.75220
     2012.90076         5.87358         5.76736
     2012.90350         6.91684         5.72492
     2012.90623         6.74410         5.67238
     2012.90897         7.44236         5.72997
     2012.91171         1.93561         5.64611
     2012.91445         5.29287         5.67137
     2012.91718         7.14613         5.68147
     2012.91992        18.51839         5.75826
     2012.92266         6.22764         5.64813
     2012.92540         2.93390         5.58649
     2012.92814         0.53116         5.64611
     2012.93087        -2.01558         5.71987
     2012.93361        -0.21933         5.75624
     2012.93635         2.35293         5.62489
     2012.93909         5.79419         5.64611
     2012.94183         7.07345         5.58144
     2012.94456        10.78671         5.59155
     2012.94730         9.95096         5.76129
     2012.95004        -4.66878         5.63297
     2012.95551        15.08674         5.58548
     2012.96373        12.47751         6.35440
     2012.96647        12.91877         5.60670
     2012.96920         5.77803         5.70168
     2012.97194        11.75728         5.66328
     2012.97468         5.48254         5.64409
     2012.97742        10.29780         6.75249
     2012.98289         7.89631         5.62489
     2013.02396        -1.93682         6.01187
     2013.02670        10.64944         6.70501
     2013.02944        13.59070         6.04724
     2013.03217         5.48795         5.63802
     2013.03491         0.97421         5.67238
     2013.03765         0.53547         5.62186
     2013.04039         0.06673         5.65318
     2013.04313        -1.33402         5.75119
     2013.04586        -0.48076         5.74917
     2013.04860         1.74150         5.69764
     2013.05134         0.51776         5.62792
     2013.05408         2.56701         5.67036
     2013.05682         5.08927         5.64409
     2013.05955         2.69053         5.62691
     2013.06229         1.53179         5.74108
     2013.06503         2.02405         5.70168
     2013.06777         0.59930         5.59559
     2013.07050         2.20356         5.74311
     2013.07324         4.41682         5.64409
     2014.71595        -6.47555         5.89871
     2014.71869        -0.63329         5.89972
     2014.72143        -5.01203         5.85728
     2014.72417         2.57823         5.82394
     2014.72690        -2.30652         5.83202
     2014.72964         0.81874         5.77140
     2014.73238        -1.65400         5.85930
     2014.73512        -3.17474         5.80777
     2014.73786        -5.33149         5.83404
     2014.74059        -7.01823         5.87648
     2014.74333        -2.73197         5.79059
     2014.74607         4.66329         5.79969
     2014.74881         3.35454         5.83505
     2014.75154         0.30980         5.93407
     2014.75428         2.85006         5.78251
     2014.75702        -6.21868         5.83202
     2014.75976         0.97058         5.76533
     2014.76250        -2.55517         5.75119
     2014.76523        -4.33391         5.77847
     2014.76797        -3.48865         5.79969
     2014.77071        -5.26039         5.77443
     2014.77345        -1.84314         5.74311
     2014.77619        -3.75488         5.79666
     2014.77892        -0.36762         5.87951
     2014.78166        -1.76836         5.81990
     2014.78440         0.67989         5.79363
     2014.78714         5.38515         5.83707
     2014.78987        -2.66659         5.85223
     2014.79261        -0.04233         5.76634
     2014.79535         0.96193         5.73300
     2014.79809        -1.49182         5.98762
     2014.80083        -6.56356         5.83404
     2014.80356         5.25670         5.96944
     2014.80630         0.96996         5.87951
     2014.80904        -2.57679         5.75018
     2014.81178         2.27147         5.73199
     2014.81452         4.68073         5.83404
     2014.81725         8.74999         5.76837
     2014.81999         3.61525         5.82596
     2014.82273         7.63750         5.89264
     2014.82547         0.43476         5.73805
     2014.82820        -3.85398         5.80878
     2014.83094         0.96828         5.83505
     2014.83368         1.00453         5.82697
     2014.83642        -0.06021         5.77544
     2014.83916         1.34305         5.75826
     2014.84189        -2.33669         5.79767
     2014.84463        -3.48444         5.84516
     2014.84737         1.23982         5.84920
     2014.85011         3.75608         5.92094
     2014.85285         3.70534         5.80979
     2014.85558         3.31560         5.86435
     2014.85832         4.27985         5.86637
     2014.86106         2.24611         5.87345
     2014.86380         1.20637         5.86840
     2014.86653         3.84563         5.83707
     2014.86927        -0.53912         5.80676
     2014.87201        -1.46486         5.90780
     2014.87475        -4.39760         5.95024
     2014.87749        -1.45834         5.88254
     2014.88022         0.77692         5.91386
     2014.88296         3.79117         5.90174
     2014.88570        -3.90057         6.07856
     2014.88844         6.55269         6.29680
     2014.89118         3.84695         6.30590
     2014.89391        -1.40680         6.14828
     2014.89665         6.92046         6.03006
     2014.89939         0.88972         6.08361
     2014.90213        -8.36502         6.13413
     2014.90486        -8.60277         5.90073
     2014.90760         1.47449         5.87749
     2014.91034         6.17475         5.98762
     2014.91308         7.60601         5.87244
     2014.91582         0.94127         5.84516
     2014.91855         4.53852         6.01490
     2014.92129        -2.41222         5.92902
     2014.92403        -0.88996         5.94418
     2014.92677         2.62930         5.88860
     2014.92951        -3.12845         5.83505
     2014.93224        -2.80819         5.87143
     2014.93498        -1.24693         5.86738
     2014.93772        -2.84667         5.83606
     2014.94046        -3.63741         5.82697
     2014.94319         5.46784         6.01894
     2014.94593         0.90610         5.83404
     2014.95415         5.00087         5.97752
     2014.95962         8.61439         5.71178
     2014.96236         0.33065         5.77746
     2014.96510         5.57890         5.83909
     2014.96784       -11.87684         5.71684
     2014.97879        -3.97981         5.78554
     2014.98152        20.98045         5.87749
     2014.98426         3.89171         5.73098
     2014.98700        -0.75903         5.74007
     2014.98974         1.13322         5.71886
     2014.99248        -7.60452         5.74412
     2014.99521        -3.53826         5.73502
     2014.99795         6.28500         5.71886
     2015.00069         0.64125         5.73805
     2015.00343        -3.24549         5.71077
     2015.00616        -9.72123         5.78352
     2015.00890        -3.31997         5.84920
     2015.01164        -0.77271         5.80474
     2015.01438        -4.82146         5.77342
     2015.01712        -2.31120         5.79969
     2015.01985         1.44206         5.78049
     2015.02259         4.46132         5.89366
     2015.02533         3.33357         5.85324
     2015.02807        -0.13017         5.81080
     2015.03081         3.11109         5.87345
     2015.03354        -2.76365         5.81889
     2015.03628         2.23561         5.83303
     2015.03902         3.73086         5.83000
     2015.04176         8.61812         5.84718
     2015.04449        -1.86562         5.86334
     2015.04723         2.09664         5.75725
     2015.04997        -5.72311         5.76837
     2015.05271         0.58215         5.72189
     2015.05545         1.06141         5.76837
     2015.05818         5.91867         5.77241
     2015.06092        -4.24708         5.79059
     2015.06366         6.17618         5.84920
     2015.06640        -0.80256         5.71077
     2015.06914         3.26170         5.79868
     2015.07187        -8.48204         5.75523
     2015.07461        -6.13679         5.69461
     2015.07735        -9.88453         5.72593
     2015.08009        -7.98527         5.69461
     2015.08282        -3.64101         5.76634
     2015.08556        -2.50176         5.76533
     2015.08830        -6.42050         5.81080
     2015.09104        -4.41424         5.75523
     2015.09378        -8.44698         5.74108
     2015.09651        -2.51272         5.72492
     2015.09925         4.55353         5.84920
     2015.10199         5.14179         5.94822
     2015.10473         3.62505         5.78352
     2015.10713        -3.55248         6.56557
     2018.35735        12.50319         5.71279
     2018.36003         4.35648         5.48141
     2018.36277         3.94974         5.58548
     2018.36551         1.43000         5.49051
     2018.36825         1.02125         5.59761
     2018.37098         3.29351         5.59862
     2018.37372         1.23377         5.57134
     2018.37646        -1.30697         5.75927
     2018.37920         0.24828         5.57033
     2018.38193        -5.35346         5.55921
     2018.38467         2.79780         5.63600
     2018.38741        -1.79094         5.57841
     2018.39015         7.82932         5.63903
     2018.39289         1.67157         5.58144
     2018.39562         0.11983         5.56629
     2018.39836         5.34009         5.55719
     2018.40110         1.64635         5.54810
     2018.40384         3.59960         5.55315
     2018.40658         4.83086         5.54810
     2018.40931         3.44112         5.76230
     2018.41205         8.20238         5.55012
     2018.41479        -1.29837         5.51476
     2018.41753        -0.27011         5.53799
     2018.42026        -3.03985         5.56224
     2018.42300         1.24141         5.56325
     2018.42574         4.95867         5.57841
     2018.42848         0.62292         5.53496
     2018.43122         1.80818         5.58144
     2018.43395        -3.47156         5.50869
     2018.43669         3.16970         5.61580
     2018.43943         3.82495         5.60872
     2018.44217         0.50821         5.57235
     2018.44491        -0.05653         5.56629
     2018.44764         2.00673         5.54406
     2018.45038         7.15198         5.61883
     2018.45312        10.26824         5.61479
     2018.45586         5.03450         5.60569
     2018.45859         9.88976         5.64106
     2018.46133        -2.22798         5.56427
     2018.46407         0.44727         5.63297
     2018.46681         5.65953         5.58953
     2018.46955        -0.00621         5.64207
     2018.47228         3.42305         5.67541
     2018.47502         2.43230         5.57740
     2018.47776         2.51356         5.61175
     2018.48050         3.13282         5.61580
     2018.48324         2.02608         5.63600
     2018.48597         1.88134         5.56932
     2018.48871         2.49759         5.58851
     2018.49145         3.70185         5.51981
     2018.49419         4.30811         5.71684
     2018.49692         4.25437         5.72896
     2018.49966         6.84162         5.69259
     2018.50240         1.25588         5.73300
     2018.50514        -1.68286         5.58346
     2018.50788         1.84440         5.58750
     2018.51061        -1.45935         5.61681
     2018.51335        -3.58309         5.64207
     2018.51609         1.40617         5.61377
     2018.51883         2.17843         5.60165
     2018.52157        -2.98131         5.60367
     2018.52430         3.39994         5.61984
     2018.52704        -0.27680         5.66025
     2018.52978        -1.74654         5.82596
     2018.53252         3.05172         5.62994
     2018.53525         3.80697         5.62186
     2018.53799        -2.26577         5.72492
     2018.54073         3.09649         5.65924
     2018.54340         4.03479         5.83505
