# ================= DQRFIT RESULTS ================
# INPUT FILE: series/BATT.rad
# OUTPUT: LDETRENDED
# FILTER FUNCTION: f(t)
# f(t)=+line(t)+annual(t)
# line(t)=+P 1+P 2*t
# annual(t)=+P 3*sin(2*pi*t+P 4)
# heav(t)=(t<0?0:1)
# TOTAL OBSERVATIONS MTOT=  736
# INITIAL TIME INTERVAL= 2018.6939 - 2004.6927 = 14.0012
# TOTAL OBSERVATIONS AFTER PREFILTER M=  719
# TIME-SPAN= 2018.6939 - 2004.6927 = 14.0012
# OBSERVATIONS: USED M=   719 REJECTED MTOT-M=    17 %USED=   97.6902
# N=  4 PARAMETERS
# MAXSIG= 175.00000
# MAXRES=  19.75196
# SCALE FACTOR FOR LENGTHS: SCL=  10.00000
# SCALE FACTOR FOR SIGMAS: SCLSIG=   1.00000
# CHI^2=    958.156 DOF=   715 CHI^2/DOF=   1.34008
# RMS=      6.882 SDEV=      6.887 MEAN=   -0.03121
#  P #       PARAMETER +-    SIGMA %error PARAMETER NAME
# P 1 =     -1197.28751 +-  110.746   9.25 YZERO                              
# P 2 =         0.59534 +-    0.055   9.25 SLOPE                              
# P 3 =         3.20462 +-    0.394  12.29 ANNUAL AMPLITUDE                   
# P 4 =         1.93898 +-    0.054   2.77 ANNUAL PHASE                       
#       T            LDETRENDED       SIG_OBS
     2004.69268        -3.00502         6.77785
     2004.69542         4.11235         6.77553
     2004.69816        10.84272         6.83689
     2004.70089         8.65209         7.31383
     2004.70363        10.29146         7.33698
     2004.70637         9.08883         6.67714
     2004.70911         2.76520         6.62967
     2004.71185         4.16057         7.01053
     2004.71458        12.10694         7.01979
     2004.71732        10.70131         6.73733
     2004.72004         4.26070         7.01748
     2004.72280        -3.87195         6.72344
     2004.72554        -0.43458         7.88106
     2004.72828         1.49079         7.02905
     2004.73101         6.12916         6.57874
     2004.73375         5.74953         6.71881
     2004.73649         5.80890         6.97928
     2004.73922         2.99427         7.11703
     2004.74193         4.94866         7.53725
     2004.74470         6.09301         6.68871
     2004.74744         8.85438         7.27678
     2004.75018        -0.54625         8.02576
     2004.75291         2.79412         6.85194
     2004.75565         2.99349         6.67945
     2004.75839         5.33386         7.06378
     2004.76113         1.02723         7.48863
     2004.76387         6.83660         6.77669
     2004.76660         2.71697         6.61810
     2004.76934         4.72334         7.23164
     2004.77208         3.27971         7.65417
     2004.77482        11.53908         6.87740
     2004.77755         8.26445         7.22469
     2004.78029        -0.26418         7.39254
     2004.78303         1.79919         6.65862
     2004.78577         3.02456         6.96075
     2004.78851         6.86893         7.85675
     2004.79124         8.91430         6.68871
     2004.79398        15.02967         6.57179
     2004.79672        21.72204         7.19228
     2004.79946        10.44241         6.62389
     2004.80220        14.92878         7.06262
     2004.80493        12.84815         6.61231
     2004.80767         6.25352         7.91579
     2004.81041         8.45089         6.49076
     2004.81315         4.42526         6.97696
     2004.81588         9.92163         6.57874
     2004.81862        10.49000         6.87740
     2004.82136         9.46137         7.09504
     2004.82684         6.53211         8.33832
     2004.82957        14.41948         9.24936
     2004.83231         7.53885         7.31614
     2004.83505         2.53622         7.79655
     2004.83779         6.25659         7.80697
     2004.84052         5.70496         7.30804
     2004.84600         7.85570         8.00261
     2004.84874         7.66607         7.01285
     2004.85148         5.33344         7.17260
     2004.85421         0.17281         9.37323
     2004.85969        -1.29045         8.05817
     2004.86243         1.28092         9.00395
     2004.87064       -10.23997         8.11142
     2004.87612        -9.09323         9.63485
     2004.87885        -1.68386         7.78729
     2004.88159        -6.44249         9.13939
     2004.88433         2.01688         8.86156
     2004.88707         7.19525         8.60225
     2004.88981         7.76962         8.71454
     2004.89254         3.98299         8.97732
     2004.90346         0.57049         8.89860
     2004.92814         8.01681         7.60902
     2005.09515        -1.59362         7.58934
     2005.09788        -0.00725         7.57776
     2005.10062        -2.14988         7.20270
     2005.10336       -15.36451         8.09985
     2005.10883         1.59023         8.28275
     2005.11157        -2.07640         7.02095
     2005.11431        -1.43103         6.43056
     2005.11979         6.68371         6.78827
     2005.12252        -2.16392         6.86120
     2005.12526        -4.10055         6.88204
     2005.12800        -6.67218         6.75817
     2005.13074        -7.01781         6.56948
     2005.13347        -3.68244         6.50697
     2005.13621         8.15393         6.65398
     2005.13895         0.22630         8.29317
     2005.14169        -8.42733         6.44214
     2005.14443        -4.53496         8.26076
     2005.14716         2.14441         7.39602
     2005.14990        -3.02122         6.60652
     2005.15264        -3.37785         6.61000
     2005.15538        -1.77048         6.57064
     2005.15812        -1.67711         6.64704
     2005.16085        -2.26674         6.60421
     2005.16359        -0.50237         6.62967
     2005.16633         6.69800         6.66672
     2005.16907         1.07437         6.58105
     2005.17180        -0.77226         6.62967
     2005.17454        -1.78289         6.62736
     2005.17728        -4.72252         6.62852
     2005.18002         0.53185         6.64241
     2005.18276        -6.06178         6.61463
     2005.18549        -6.30141         6.74891
     2005.19097        -4.37767         6.58916
     2005.19371        -0.71730         6.65862
     2005.19645        -6.37393         6.58105
     2005.19918         2.22344         6.61000
     2005.20192         1.24781         6.76280
     2005.20466         3.34718         6.77669
     2005.20740        -2.66745         6.69913
     2005.21013        -3.46408         6.66440
     2005.21287         2.22129         6.59610
     2005.21561         3.55966         6.70839
     2005.21835         0.81903         6.68987
     2005.22109         3.75440         6.63199
     2005.22382       -18.04523         6.71071
     2005.22656        -6.87886         6.63894
     2005.22930         2.86151         6.63199
     2005.23204         1.75188         6.62389
     2005.23478        10.32325         6.65514
     2005.23751         8.60262         6.74428
     2005.24025        13.14099         6.83573
     2005.24299        10.36736         6.67019
     2005.24573         4.85373         6.76164
     2005.24846         2.82710         6.64009
     2005.25120         0.53147         6.66209
     2005.25394        16.10684         6.96654
     2005.25668         9.95321         7.03484
     2005.25942         3.63758         6.74312
     2005.26215         4.61395         6.78132
     2005.26489        10.49432         6.81721
     2005.26763        13.80469         6.82415
     2005.27037         9.14006         6.80563
     2005.27311         8.53243         6.76280
     2005.27584         5.92880         6.73849
     2005.27858         4.20417         6.78943
     2005.28132         3.45554         6.83689
     2005.28406         1.00291         6.87509
     2005.28679         4.07328         6.82415
     2005.28953         5.99765         6.58569
     2005.29227         7.40302         6.70723
     2005.29501         7.88739         6.68987
     2005.29775         8.40376         6.66093
     2005.30048         6.73613         6.67482
     2005.30322         2.67950         6.65051
     2005.30596         3.83787         6.61231
     2005.30870        11.64524         6.66903
     2005.31144         6.88961         6.68640
     2005.31417         3.53598         6.63083
     2005.31691         2.80335         6.66440
     2005.31965         0.48472         6.64820
     2005.32239         4.81709         6.81721
     2005.32512         4.34346         6.67366
     2005.32786        -3.54917         6.70260
     2005.33060         5.72020         6.63546
     2005.33334         3.64657         6.72228
     2005.33608         5.59494         6.79637
     2005.33881         3.06931         6.66556
     2005.34155         5.85168         6.66325
     2005.34429         6.00805         6.62157
     2005.34703         1.82642         6.62852
     2005.34977         2.39979         6.67251
     2005.35250         2.36916         6.76280
     2005.35524         6.87053         6.82415
     2005.62903         4.07454         6.72923
     2005.63176        -5.89709         6.70260
     2005.63450        -0.79372         6.64472
     2005.63724        -6.04435         6.75470
     2005.63998         0.34702         6.71765
     2005.64272         0.80839         6.65283
     2005.64545        -1.84024         6.67019
     2005.64819        -1.33087         6.68987
     2005.65093        -1.90450         6.68408
     2005.65367        -2.81013         6.75238
     2005.65640        -1.34276         6.70376
     2005.65914         1.88761         6.70029
     2005.66188        -2.85002         6.74891
     2005.66462         0.00235         6.65977
     2005.66736        -0.94028         6.62041
     2005.67009         1.67509         6.66325
     2005.67283         3.22446         6.64820
     2005.67557         1.09383         6.61115
     2005.67831        -4.65480         6.61347
     2005.68105        -5.13643         6.59726
     2005.68378        -2.09606         6.66903
     2005.68652         0.36831         6.65746
     2005.68926         3.34768         6.67251
     2005.69200        -7.06995         6.81605
     2005.69473        -3.86558         6.73154
     2005.69747        -1.52321         6.75238
     2005.70021         3.99016         6.86930
     2005.70295         0.71953         6.83573
     2005.70569        -6.13410         6.86004
     2005.70842        -4.74673         6.92950
     2005.71116         4.43664         6.81952
     2005.71390        -0.26499         6.65051
     2005.71664        -4.97162         6.76512
     2005.71938        -1.51925         6.67366
     2005.72211         1.90112         6.87740
     2005.72485        -5.40151         6.63199
     2005.72759        -0.95714         6.69682
     2005.73033        -6.56777         6.84268
     2005.73306        -0.87640         6.73733
     2005.73580        -0.06803         6.74891
     2005.73854         5.08334         6.96886
     2005.74128         3.12771         6.83805
     2005.74402         0.80708         6.76975
     2005.74675         2.61945         6.59726
     2005.74949        -0.72618         6.63315
     2005.75223         4.00019         6.87740
     2005.75497         0.00056         6.78480
     2005.75770        -1.13407         6.68987
     2005.76044        -0.27170         6.59610
     2005.76318         2.26467         6.54748
     2005.76592         4.66704         6.59495
     2005.76866         5.11541         6.69682
     2005.77139         8.05478         6.63083
     2005.77413         3.90815         6.59958
     2005.77687         3.17052         6.73386
     2005.77961         1.86889         6.81026
     2005.78235         0.69826         6.75585
     2005.78508         0.42163         6.61810
     2005.78782         2.90500         6.62967
     2005.79056         2.98837         6.57295
     2005.79330         5.53474         6.62389
     2005.79603         4.36511         6.77438
     2005.79877         7.14048         6.83342
     2005.80151         4.82585         6.87162
     2005.80425         2.53722         6.65051
     2005.80699         3.21859         6.59495
     2005.80972         4.60396         6.61231
     2005.81246         2.32233         6.63778
     2005.81520         0.69970         6.67714
     2005.81757         3.48829         7.96325
     2006.13005        -7.71874         6.51507
     2006.13279       -11.59337         6.47687
     2006.13552        -4.83400         6.50697
     2006.13826         0.45837         6.54285
     2006.14100        -3.38626         6.54285
     2006.14374        -2.43089         6.54864
     2006.14648        -3.21052         6.51623
     2006.14921        -7.15815         6.49655
     2006.15156       -10.38155         8.19940
     2006.20180        -1.69146        10.32132
     2006.20397       -10.77475         6.81489
     2006.20671        -6.88038         6.76627
     2006.20945        -7.71701         6.73733
     2006.21167       -15.39234        11.51019
     2006.30527         4.73894         9.23547
     2006.30801        -3.90669         6.94570
     2006.31075       -12.85432        14.40539
     2006.36550       -44.07392        29.09208
     2006.36824       -13.06355         8.60225
     2006.37098       -13.95618         6.97464
     2006.37372        -7.12781         6.93413
     2006.37645        -2.14744         6.78595
     2006.37919       -15.55007         7.17607
     2006.38193        -1.40570         6.95728
     2006.38467        -3.60133         6.90519
     2006.38741        -2.83996         7.34161
     2006.39014         5.36941        18.23479
     2006.85558        -5.43268         7.23742
     2006.85832        -1.53031         6.82647
     2006.86106        -4.27594         7.05684
     2006.86380        -7.11557         7.04526
     2006.86653         5.91380         7.15176
     2006.86927        -0.85483         6.83457
     2006.87201        -3.52246         6.63662
     2006.87475        -0.32509         6.70029
     2006.87749         0.40228         6.71187
     2006.88022        -3.01335         6.70376
     2006.88296        -7.84798         6.65514
     2006.88570        -5.36061         6.69450
     2006.88844         1.88576         6.60421
     2006.89118        -4.47187         6.67714
     2006.89665        -9.34213         6.83342
     2006.89939        -3.05976         6.62967
     2006.90213        -3.21139         6.60189
     2006.91308        -3.86291         6.62620
     2006.91582       -11.26854         6.69334
     2006.91855       -11.95717         6.65862
     2006.92129       -11.67780         6.68177
     2006.92403       -11.38843         6.72576
     2006.92677        -9.38806         6.68408
     2006.92951        -7.07069         6.85657
     2006.93224        -8.82232         6.70029
     2006.93498        -7.40495         6.83110
     2006.93772        -0.88358         6.74196
     2006.94046         0.77379         7.25016
     2006.96236        -5.05025         7.18070
     2006.96510        -6.99588         7.13671
     2006.96784        -5.73251         7.20154
     2006.97048       -11.81609         7.32193
     2007.85764        -6.66824         6.55096
     2007.86037        -7.34087         6.59032
     2007.86311        -2.81650         6.55674
     2007.86585        -4.76513         6.63199
     2007.86859       -10.54176         6.53591
     2007.87133        -6.00039         6.51507
     2007.87406        -5.14402         6.60652
     2007.87680        -1.08965         6.69103
     2007.87954       -11.80528         6.62389
     2007.88228        -1.58991         6.60884
     2007.88502        -0.98754         6.61347
     2007.88775       -11.95617         6.62389
     2007.89049        -9.58280         6.65977
     2007.89323        -9.88243         6.76975
     2007.89597        -6.07606         6.74891
     2007.89870        -9.59969         6.66325
     2007.90144        -7.66432         6.55674
     2007.90418        -2.83695         6.68177
     2007.90692       -10.30158         6.70723
     2007.90966       -14.88521         6.68177
     2007.91239        -5.27984         6.63778
     2007.91513        -7.07747         6.65977
     2007.91787         3.21290         6.69566
     2007.92061       -14.04073         6.82300
     2007.92334       -10.47336         6.88782
     2007.94799       -13.83503         6.79753
     2007.95072        -8.64366         6.82647
     2007.95346        -8.24029         6.78480
     2007.95620        -6.25292         6.73039
     2007.95894        -2.82155         6.80911
     2007.96148        -4.50507         7.34855
     2009.59891         4.41411         6.56369
     2009.60165        -1.42452         6.47687
     2009.60439       -11.29515         6.53128
     2009.60712       -11.07478         6.52317
     2009.60986        -9.63541         6.51391
     2009.61260        -8.36604         6.52665
     2009.61534        -6.81467         6.52780
     2009.61807        -4.15030         6.57179
     2009.62081        -1.80693         6.55096
     2009.62355        -7.54956         6.51276
     2009.62629        -7.54319         6.51854
     2009.62903        -5.53282         6.54748
     2009.63176        -8.51245         6.49076
     2009.63450        -6.97708         6.48613
     2009.63724        -8.68471         6.56948
     2009.63998        -8.13634         6.61810
     2009.64272        -7.57497         6.68177
     2011.39768        -4.72377         6.60189
     2011.40042         2.86760         6.63083
     2011.40315        -4.88003         6.46877
     2011.40589         0.13734         6.51276
     2011.40863        -0.99629         6.47224
     2011.41137        -1.56892         6.44446
     2011.41410        -0.89955         6.49771
     2011.41684         3.10182         6.48960
     2011.41958        -1.97681         6.40510
     2011.42232        -8.75344         6.41899
     2011.42506        -2.68407         6.46066
     2011.42779         1.91430         6.46182
     2011.43053        -7.13733         6.46992
     2011.43327        -9.33796         6.54054
     2011.43601       -12.82259         6.43983
     2011.43875        -4.40122         6.51276
     2011.44148        -0.10785         6.53359
     2011.44422        -5.13548         6.42478
     2011.44696        -6.09111         6.46182
     2011.44970        -1.40974         6.45256
     2011.45243        -9.86037         6.47340
     2011.45517        -5.59500         6.55790
     2011.45791        -4.25063         6.43751
     2011.46065        -7.98026         6.49655
     2011.46339         1.26211         6.58684
     2011.46612        -5.77552         6.43983
     2011.46886         0.41985         6.43288
     2011.47160       -11.37878         6.56253
     2011.47434        -5.65241         6.53128
     2011.47708        -7.22004         6.48497
     2011.47981        -1.94067         6.47455
     2011.48255        -1.74930         6.48150
     2011.48501        -9.64177         7.28489
     2012.87064         1.47031         6.44446
     2012.87338        -1.91432         6.55211
     2012.87612        -0.16695         6.44098
     2012.87885         0.25842         6.45950
     2012.88159         5.86279         6.41552
     2012.88433         1.23316         6.44330
     2012.88707         0.17653         6.63662
     2012.88981        14.72790         6.64009
     2012.89254        -2.15873         6.48613
     2012.89528        -0.88936         6.43635
     2012.89802        -0.62199         6.43983
     2012.90076         6.14338         6.47108
     2012.90350         1.99275         6.43288
     2012.90623         0.50312         6.33564
     2012.90897         6.51649         6.48266
     2012.91171         2.80186         6.45719
     2012.91445         5.33423         6.44561
     2012.91718         5.42160         6.42709
     2012.91992        15.32197         6.43751
     2012.92266         2.19334         6.42709
     2012.92540         5.67471         6.38426
     2012.92814         1.96908         6.36574
     2012.93087        -4.89555         6.51044
     2012.93361         0.87182         6.47108
     2012.93635        -1.59481         6.34374
     2012.93909         1.41956         6.37963
     2012.94183        -2.47007         6.33101
     2012.94456         7.42030         6.33448
     2012.94730        11.37667         6.51160
     2012.95004        -6.98396         6.42941
     2012.95278         4.17141         6.33217
     2012.95551        13.11278         6.32406
     2012.95825         9.66915         6.38773
     2012.96099         8.89052         6.50465
     2012.96373         9.38389         6.48729
     2012.96647         8.40626         6.32985
     2012.96920         5.84963         6.44330
     2012.97194         3.86300         6.43867
     2012.97468         2.37837         6.35185
     2012.97742         2.19174         6.30786
     2012.98016        -2.51989         6.35416
     2012.98289         3.33248         6.35185
     2012.98563         5.98585         6.33564
     2012.98837         0.64522         6.31017
     2013.00206         3.00807         6.37268
     2013.00753        -0.95519         6.38194
     2013.01027         0.48918         6.36805
     2013.01301         0.61255         6.35879
     2013.01575         2.11292         6.37963
     2013.01849         3.94729         6.41667
     2013.02122        -1.28934         6.35995
     2013.02396        -3.39597         6.38079
     2013.02670        12.11540         6.54864
     2013.02944         2.31777         6.41204
     2013.03217         3.39214         6.40394
     2013.03491        -0.82049         6.45256
     2013.03765        -0.74112         6.42709
     2013.04039        -1.40975         6.39005
     2013.04313        -4.42238         6.46992
     2013.04586        -1.22001         6.48034
     2013.04860        -4.60564         6.49308
     2013.05134        -2.38527         6.39468
     2013.05408        -3.68890         6.42709
     2013.05682         0.09547         6.36342
     2013.05955        -2.42416         6.39931
     2013.06229        -1.52679         6.51623
     2013.06503        -3.20942         6.51160
     2013.06777         1.92795         6.40857
     2013.07050         1.66432         6.39584
     2013.07324         2.92069         6.35069
     2013.07598        -0.43994         6.39699
     2013.07872        -6.59757         6.33680
     2013.08146         5.85880         6.36342
     2013.08419        -3.16182         6.37153
     2013.08693        -6.58745         6.33448
     2013.08967        -7.75008         6.36226
     2013.09241        -2.41371         6.36111
     2013.09515        -1.45634         6.38657
     2013.09788         0.32503         6.60421
     2013.10062        -3.01960         6.82763
     2013.10336        -3.27723         6.43172
     2013.10610         3.03314         6.37153
     2013.10883         7.82351         6.35763
     2013.11157        -0.92212         6.51854
     2013.11431        -0.84375         6.38310
     2013.11705        -3.89538         6.42941
     2013.11979        -1.84201         6.57295
     2013.12252        -7.44564         6.38889
     2013.12526        -9.54727         6.39815
     2013.12800        -5.53390         6.38426
     2013.13074        -3.05453         6.39005
     2013.13347        -0.68116         6.33101
     2013.13621         4.00921         6.40162
     2013.13895         5.40858         6.39121
     2013.14169        -2.16005         6.44561
     2013.14443         3.40532         6.57295
     2013.14716         3.28569         6.59958
     2013.14990        -4.58594         6.36574
     2013.15264        -1.11357         6.42362
     2013.15538        -5.41920         6.37500
     2013.15812        -5.66483         6.41436
     2013.16085        -8.14946         6.40278
     2013.16359        -9.25109         6.38194
     2013.16633        -7.46672         6.41320
     2013.16907        -3.68835         6.43056
     2013.17180         0.79102         6.41320
     2013.17454        -1.69661         6.36574
     2013.17728         2.87676         6.61694
     2013.18002        -4.12387         6.60884
     2013.18276        -3.94050         6.37616
     2013.18549        -0.14713         6.39815
     2013.18823        -6.78076         6.40741
     2013.19097        -0.27039         6.41552
     2013.19371        -2.12202         6.42130
     2013.19645        -4.80165         6.41783
     2013.19918        -1.79128         6.34374
     2013.20192        -2.42591         6.38542
     2013.20466         0.22446         6.40741
     2013.20740        13.53283         6.50002
     2013.21013         6.77220         6.42246
     2013.21287        -2.87543         6.32291
     2013.21561        -7.57206         6.48729
     2013.21835        13.40231         6.54517
     2013.22109        -0.74232         6.35995
     2013.22382         0.56905         6.40278
     2013.22656        -3.59758         6.41320
     2013.22930        -4.62021         6.36458
     2013.23204        -2.20884         6.37037
     2013.23478        -0.34947         6.36226
     2013.23751        -0.92110         6.49655
     2013.24025        -2.24273         6.53591
     2013.24299        -3.64236         6.49076
     2013.24573         3.88701         6.52549
     2013.24846        -1.27162         6.44909
     2013.25120         4.31075         6.50581
     2013.25394        -0.85488         6.48034
     2013.25668        -0.04451         6.69103
     2013.25942        -6.95914         6.61347
     2013.26215        -1.62377         6.52780
     2013.26489         1.93460         6.63778
     2013.26763         7.08797         6.62736
     2013.27037         4.83634         6.56601
     2013.27311         0.68571         6.67714
     2013.27584         4.85908         6.69566
     2013.27858         4.08245         6.67135
     2013.28132        11.47382         6.67945
     2013.28406         7.74319         6.50349
     2013.28679         6.09756         6.48034
     2013.28953         4.85293         6.54980
     2013.29227        -0.92670         6.49539
     2013.29501        -0.63733         6.43519
     2013.29775        -2.69496         6.44446
     2013.30048        -0.11359         6.50465
     2013.30322        -5.16722         6.45256
     2013.30569         1.76431         7.41107
     2014.71595         7.96672         6.60189
     2014.71869        11.84909         6.52780
     2014.72143        11.13646         6.58800
     2014.72417        20.22883         6.66672
     2014.72690        16.18620         6.54748
     2014.72964         7.17457         6.54980
     2014.73238        12.78894         6.56485
     2014.73512         8.31831         6.55327
     2014.73786        10.49668         6.63894
     2014.74059        10.99805         6.60768
     2014.74333        12.91942         6.52433
     2014.74607        12.76179         6.60421
     2014.74881        10.33016         6.64704
     2014.75154        11.14953         6.64704
     2014.75428        11.11690         6.49539
     2014.75702         6.94027         6.54285
     2014.75976         7.15464         6.52086
     2014.76250         5.89401         6.55211
     2014.76523         5.30738         6.50118
     2014.76797        10.15875         6.50928
     2014.77071         7.31512         6.50928
     2014.77345         4.46649         6.50812
     2014.77619         4.79186         6.53822
     2014.77892        13.60023         6.66788
     2014.78166         8.66160         6.53475
     2014.78440        10.80997         6.48960
     2014.78714        19.56434         6.68756
     2014.78987         9.70671         6.55096
     2014.79261         6.75608         6.53707
     2014.79535        13.89045         6.55674
     2014.79809        11.31182         6.65862
     2014.80083         4.27419         6.54170
     2014.80356        14.30956         6.79290
     2014.80630         9.97993         6.63894
     2014.80904         8.63430         6.50002
     2014.81178        13.84467         6.51854
     2014.81452         9.15604         6.46992
     2014.81725         5.31641         6.55906
     2014.81999        15.63578         6.56716
     2014.82273        11.48715         6.70723
     2014.82547        11.41952         6.51160
     2014.82820         7.15189         6.49886
     2014.83094         2.87526         6.57874
     2014.83368        11.55263         6.58916
     2014.83642         9.41000         6.56138
     2014.83916        12.62638         6.58800
     2014.84189        12.17175         6.59726
     2014.84463         4.99512         6.58800
     2014.84737         6.64949         6.54864
     2014.85011         8.92386         6.59726
     2014.85285        10.70223         6.59610
     2014.85558        10.82960         6.64820
     2014.85832        14.87897         6.71534
     2014.86106         9.10934         6.56369
     2014.86380         8.29271         6.56485
     2014.86653        10.58508         6.68987
     2014.86927         5.21645         6.65514
     2014.87201         8.71682         6.72460
     2014.87475         6.51519         6.55674
     2014.87749         5.83056         6.58569
     2014.88022         7.81593         6.57295
     2014.88296        10.90030         6.69334
     2014.88570         8.88867         6.91561
     2014.88844        13.52804         6.98622
     2014.89118        12.45541         7.18649
     2014.89391         8.72278         6.91792
     2014.89665        14.09015         6.90403
     2014.89939         9.15152         6.88667
     2014.90213         3.33589         6.94223
     2014.90486         2.00826         6.65398
     2014.90760        14.48563         6.65862
     2014.91308        16.25737         6.74196
     2014.91582         5.22774         6.65630
     2014.91855        12.44411         6.63546
     2014.92129         6.43548         6.63315
     2014.92403        12.37785         6.65977
     2014.92677         9.02822         6.63431
     2014.92951         6.39559         6.58337
     2014.93224         5.17196         6.57411
     2014.93498         8.02533         6.67135
     2014.93772         6.19770         6.58569
     2014.94046         6.73607         6.61231
     2014.94319        13.94644         6.81258
     2014.94593        11.43981         6.61347
     2014.94867         4.23318         6.50465
     2014.95141         6.61255         6.49192
     2014.95415        11.00792         6.46645
     2014.95688        13.79329         6.50928
     2014.95962        14.23366         6.57758
     2014.96236         9.35903         6.46298
     2014.96510        11.01840         6.57874
     2014.97879        11.63925         6.50349
     2014.98974        10.32973         6.49308
     2014.99248         8.75910         6.48960
     2014.99521         9.14647         6.88782
     2014.99795         9.44484         6.47687
     2015.00069         6.75021         6.48845
     2015.00343         3.55758         6.56832
     2015.00616        -1.22105         6.51391
     2015.00890         1.34532         6.56022
     2015.01164         4.46669         6.59610
     2015.01438         2.57706         6.62273
     2015.01712         0.62443         6.49423
     2015.01985         5.09380         6.56948
     2015.02259         5.46917         6.67366
     2015.02533         5.28454         6.58569
     2015.02807         6.24491         6.59495
     2015.03081         5.68928         6.47918
     2015.03354         3.80165         6.56138
     2015.03628         6.04702         6.47687
     2015.03902         6.51139         6.51623
     2015.04176        12.78576         6.62504
     2015.04449         2.50813         6.46761
     2015.04723         0.46350         6.53475
     2015.04997         3.19887         6.69913
     2015.05271         5.43024         6.49771
     2015.05545         5.82361         6.53243
     2015.05818         9.33498         6.43288
     2015.06092         4.36035         6.40394
     2015.06366         9.42072         6.55096
     2015.06640         6.84209         6.50118
     2015.06914         3.73646         6.48613
     2015.07187        -1.40617         6.47571
     2015.07461         0.73620         6.41088
     2015.07735        -2.33143         6.40625
     2015.08009        -2.72706         6.52665
     2015.08282         4.04431         6.51276
     2015.08556         5.61268         6.55559
     2015.08830         2.27905         6.52433
     2015.09104         7.03642         6.51970
     2015.09378         3.64279         6.60536
     2015.09651         3.99316         6.53591
     2015.09925        11.61153         6.68871
     2015.10199        12.60890         6.69103
     2015.10473        18.05227         6.58453
     2015.10747         9.89464         6.59610
     2015.11002         1.59712         7.14713
     2018.54894        -9.92621         6.41783
     2018.55168        -8.27184         6.37616
     2018.55442       -10.75147         6.50812
     2018.55716        -6.42210         6.33332
     2018.55990       -10.63073         6.49076
     2018.56263        -5.01536         6.46645
     2018.56537        -7.62399         6.32406
     2018.56811       -13.68862         6.37268
     2018.57085        -6.62725         6.34722
     2018.57358        -9.09288         6.47224
     2018.57632        -9.99351         6.60768
     2018.57906        -6.29914         6.66440
     2018.58180        -2.86777         6.53359
     2018.58454         0.76660         6.73154
     2018.58727        -0.92403         6.33911
     2018.59001        -1.91066         6.39699
     2018.59275        -6.49229         6.36574
     2018.59549        -5.10092         6.29628
     2018.59823        -6.86255         6.34027
     2018.60096        -8.77818         6.26618
     2018.60370        -5.99281         6.30670
     2018.60644        -8.84044         6.32522
     2018.60918        -8.03807         6.34374
     2018.61191        -5.30170         6.32522
     2018.61465        -7.77633         6.30554
     2018.61739        -7.83796         6.31480
     2018.62013        -3.14759         6.32522
     2018.62287        -6.85422         6.62504
     2018.62560        -6.53685         6.48613
     2018.62834       -13.40848         6.34722
     2018.63108        -9.73611         6.30438
     2018.63382       -12.92674         6.47224
     2018.63656        -8.64837         6.34490
     2018.63929       -10.97700         6.64009
     2018.64203        -7.00163         6.61578
     2018.64477        -7.15026         6.32175
     2018.64751        -7.58489         6.31480
     2018.65024        -1.96652         6.33911
     2018.65298       -11.28415         6.39121
     2018.65572        -8.78478         6.35300
     2018.65846        -8.18741         6.29744
     2018.66120         0.01296         6.29975
     2018.66393        -9.99867         6.32869
     2018.66667        -7.58830         6.33911
     2018.66941        -9.20493         6.32406
     2018.67215       -11.38056         6.31828
     2018.67488        -6.48119         6.31365
     2018.67762        -5.55182         6.31365
     2018.68036        -9.04645         6.43288
     2018.68310       -12.90108         6.49076
     2018.68584       -13.84971         6.43404
     2018.68857        -7.04034         6.36690
     2018.69131        -5.27797         6.36574
     2018.69387       -10.41349         6.79637
