# ================= DQRFIT RESULTS ================
# INPUT FILE: series/BCIN.rad
# OUTPUT: LDETRENDED
# FILTER FUNCTION: f(t)
# f(t)=+line(t)+annual(t)+jumps(t)
# line(t)=+P 1+P 2*t
# annual(t)=+P 3*sin(2*pi*t+P 4)
# jumps(t)=+P 5*heav(t-2019.2196  )
# heav(t)=(t<0?0:1)
# TOTAL OBSERVATIONS MTOT= 4275
# INITIAL TIME INTERVAL= 2022.7488 - 2009.9411 = 12.8077
# TOTAL OBSERVATIONS AFTER PREFILTER M= 4107
# TIME-SPAN= 2022.7488 - 2009.9439 = 12.8049
# OBSERVATIONS: USED M=  4107 REJECTED MTOT-M=   168 %USED=   96.0702
# N=  5 PARAMETERS
# MAXSIG= 175.00000
# MAXRES= 141.53750
# SCALE FACTOR FOR LENGTHS: SCL=  10.00000
# SCALE FACTOR FOR SIGMAS: SCLSIG=   1.00000
# CHI^2=   3124.441 DOF=  4102 CHI^2/DOF=   0.76169
# RMS=     10.625 SDEV=     10.626 MEAN=   -0.13496
#  P #       PARAMETER +-    SIGMA %error PARAMETER NAME
# P 1 =     -3656.05409 +-   96.223   2.63 YZERO                              
# P 2 =         1.79352 +-    0.048   2.66 SLOPE                              
# P 3 =         6.08630 +-    0.166   2.73 ANNUAL AMPLITUDE                   
# P 4 =        -2.88138 +-    0.037   1.30 ANNUAL PHASE                       
# P 5 =         0.16405 +-    0.618 376.68 OFFSET 2019.2196                   
#       T            LDETRENDED       SIG_OBS
     2009.94387        -5.67150         6.01061
     2009.94661        -4.97041         5.98006
     2009.94935        -7.20933         5.69031
     2009.95208       -16.12224         5.69118
     2009.95482       -11.34315         5.69467
     2009.95739       -13.68075         6.20087
     2009.96117       -11.73953        12.45235
     2009.96303       -17.16188         5.79068
     2009.96577       -10.06979         5.86835
     2009.96851        -9.38670         5.84566
     2009.97125        -7.89661         5.95824
     2009.97399        -7.77352         5.97221
     2009.97672       -11.75743         5.71300
     2009.97946       -15.39134         5.63969
     2009.98220       -12.35025         5.62922
     2009.98494        -8.99616         5.68420
     2009.98767        -9.63307         5.75315
     2009.99041       -10.25898         5.73744
     2009.99315        -6.86489         5.68420
     2009.99589        -4.67280         5.62398
     2009.99863       -13.49671         5.67024
     2010.00136       -18.34862         5.71998
     2010.00410       -10.70053         5.78282
     2010.00684       -12.23144         5.70340
     2010.00952       -13.40425         5.87010
     2010.01232       -18.02726         5.65278
     2010.01505       -26.75117         5.70253
     2010.01779       -16.23408         5.75053
     2010.02053       -12.71000         5.77584
     2010.02327       -12.21791         5.76362
     2010.02600        -8.00382         5.74442
     2010.02874        -3.53973         5.75926
     2010.03148         4.35736         5.74442
     2010.03422        -7.35855         6.07606
     2010.03696       -11.23946         6.03504
     2010.03969         2.40863         5.73395
     2010.04243         0.24572         5.72609
     2010.04517         3.79981         5.80028
     2010.04791         3.58290         5.83606
     2010.05065         1.88699         5.89802
     2010.05338         2.14608         6.06559
     2010.05612         3.76817         5.78020
     2010.05886         3.81526         5.71387
     2010.06160        -5.00465         5.73569
     2010.06433        -7.91056         5.69816
     2010.06707        -8.92047         5.67896
     2010.06981        -8.90138         5.87097
     2010.07255        -6.74229         5.86137
     2010.07529        -7.74720         5.79417
     2010.07802       -10.40011         5.68507
     2010.08076        -9.63402         5.70951
     2010.08350       -23.42493         5.67285
     2010.08624        -6.99984         5.63009
     2010.08898         5.87525         5.70427
     2010.09171         2.33133         5.81599
     2010.09445         0.91442         5.83082
     2010.09993        -4.49340         5.72347
     2010.10266        -3.16431         5.75664
     2010.10540        -5.53722         5.88755
     2010.10814         0.13787         5.83693
     2010.11086        -5.18700         6.23665
     2010.11362        -1.35395         5.80726
     2010.11630        -0.99076         5.88668
     2010.11915        -1.66087         5.91810
     2010.12183        -4.03968         5.75315
     2010.12457        -3.28359         5.69816
     2010.12731        -4.75250         5.86050
     2010.13004        -5.49441         5.85613
     2010.13272        -6.85922         6.15985
     2010.13552        -8.83523         6.06995
     2010.13826        -5.67814         5.75053
     2010.14099       -13.57005         5.69904
     2010.14373        -5.26096         5.93817
     2010.14647        -6.15587         5.98966
     2010.14921        -2.14978         5.85002
     2010.15195        -7.10869         5.76798
     2010.15468        -3.25060         5.78282
     2010.15742        -3.23351         5.80551
     2010.16016        -1.11142         5.74529
     2010.16290        -5.36033         6.26632
     2010.16564        -3.32525         6.05599
     2010.16822        -5.01787         6.19039
     2010.17198        -3.88463         8.33037
     2010.17334        -0.96906         8.03974
     2010.18480        -3.72362         5.71911
     2010.18754        -2.11753         5.71824
     2010.19028        -0.41344         5.72173
     2010.19301         0.53165         5.77758
     2010.19575        -2.75526         5.76013
     2010.19849        -7.57417         6.03504
     2010.20123       -14.36408         7.73777
     2010.20379       -10.94668         9.11671
     2010.20944       -10.49981         6.76728
     2010.21218       -13.75172         5.93642
     2010.21492        -3.04763         5.79940
     2010.21765        -4.05154         5.83169
     2010.22039        -1.91745         5.93206
     2010.22313        -6.52136         5.80028
     2010.22587        -2.64527         7.31187
     2010.22861        -5.71418         5.91810
     2010.23134         0.20491         6.02719
     2010.23359       -13.65612         8.64107
     2010.23956         8.34717         6.06559
     2010.24215        -2.23347         6.68611
     2010.24589         3.65782         8.67598
     2010.24777        -1.93456         6.11708
     2010.25051         7.60453         6.33440
     2010.25325        11.71362         6.01061
     2010.25598         3.12671         6.00712
     2010.25872         4.34280         5.96173
     2010.26146         1.97389         6.11010
     2010.26420         2.11898         5.91286
     2010.26694        10.19007         5.90326
     2010.26967         3.10016         6.17818
     2010.27241        -2.95075         6.15985
     2010.27515        -2.46966         5.90675
     2010.27789        -0.81457         6.14239
     2010.28062         2.82952         5.87184
     2010.28336        -3.09239         6.10836
     2010.28610        -8.87130         6.25236
     2010.28884         2.19079         6.15897
     2010.29158         0.42388         6.06210
     2010.29431        -2.88803         6.15636
     2010.29705        -0.26594         6.00101
     2010.29979        -3.09885         6.19214
     2010.30253         3.99524         6.19650
     2010.30527        10.73433         6.33963
     2010.30800         4.44241         6.07519
     2010.31074         9.46850         5.89890
     2010.31348         3.94959         5.85439
     2010.31622         4.58768         6.04028
     2010.31895        11.61177         6.19825
     2010.32169         9.79186         6.42429
     2010.32443         2.98495         6.18254
     2010.32717        10.51204         5.88319
     2010.32991         7.04013         5.81860
     2010.33264         9.40422         5.84479
     2010.33538         8.03231         6.13628
     2010.33812        -2.65160         5.79068
     2010.34086        -7.47751         5.74355
     2010.34360        -5.27542         5.77409
     2010.34633        -6.55333         5.96610
     2010.34907        -8.82624         6.19301
     2010.35181        -3.09515         5.81249
     2010.35455         1.54094         5.79766
     2010.35728        -2.05797         5.90413
     2010.35997        -2.17278         6.00537
     2010.36276        -2.14179         5.77148
     2010.36550        -6.65870         6.15025
     2010.36824        -5.49561         6.02894
     2010.37097        -3.97252         5.72435
     2010.37371        -1.55743         5.76711
     2010.37645        -3.42434         5.86399
     2010.37919        -4.58226         6.01148
     2010.38193        -2.49317         5.98704
     2010.38466        -1.03108         6.00886
     2010.38740         1.06401         5.84304
     2010.39014        -0.36690         5.89715
     2010.39288       -11.75781         5.93555
     2010.39561        -9.19072         5.97657
     2010.39835        -7.40963         5.66413
     2010.40109        -7.33354         5.66936
     2010.40383        -3.94745         5.68158
     2010.40657        -2.55536         5.75140
     2010.40930        -4.27227         5.72173
     2010.41204        -7.59418         5.69206
     2010.41477        -0.18008         5.62311
     2010.41752        -4.07900         5.67547
     2010.42026         8.31209         5.97657
     2010.42299         3.66818         5.66936
     2010.42573        -5.26073         5.63533
     2010.42847        -4.85464         5.62311
     2010.43121        -3.80255         5.65365
     2010.43394        -1.41846         5.75402
     2010.43668        -4.65637         5.72958
     2010.43942        -3.31128         5.68682
     2010.44216       -10.49319         5.64318
     2010.44490       -12.90910         5.61874
     2010.44763        -0.64701         5.61089
     2010.45037         3.54707         5.89191
     2010.45311         4.09216         5.74006
     2010.45585        -0.69975         5.59256
     2010.45859        -2.15066         5.67722
     2010.46132         1.60243         5.70253
     2010.46406        -4.28448         5.62573
     2010.46680        -4.51239         5.60565
     2010.46954        -4.33030         5.61002
     2010.47227        -4.84321         5.56813
     2010.47501        -7.42012         5.71824
     2010.47775         3.94697         5.90151
     2010.48049         7.14206         5.95824
     2010.48323         3.20615         5.56376
     2010.48596         5.28424         5.58558
     2010.48870         7.50833         5.69991
     2010.49144        -2.46958         5.68158
     2010.49418         3.24351         5.69904
     2010.49692         4.88760         5.57773
     2010.49965         4.96569         5.72347
     2010.50239         6.38778         5.56987
     2010.50513         5.76787         5.61525
     2010.50787         5.08496         5.66762
     2010.51060        -0.67595         5.59431
     2010.51334        -3.01486         5.61002
     2010.51608       -10.80177         5.58558
     2010.51882         1.80232         5.59082
     2010.52156         8.50740         5.73569
     2010.52429         4.48849         5.66151
     2010.52703        12.86258         6.00886
     2010.52977        13.48067         5.63271
     2010.53251        -1.77524         5.58034
     2010.53525         4.11685         5.72260
     2010.53798         3.79794         5.69904
     2010.54072         0.85003         5.65365
     2010.54346         1.02312         5.68420
     2010.54620         3.31821         5.71038
     2010.54893        -5.46370         5.69991
     2010.55167         0.31539         5.99926
     2010.55441         6.33948         5.63969
     2010.55715         5.46357         5.61613
     2010.55989        11.17566         5.59431
     2010.56262         3.37175         5.66587
     2010.56536         2.69484         5.67722
     2010.56810         3.58593         5.67896
     2010.57084         6.69902         5.64580
     2010.57357        -0.53389         6.08654
     2010.57631        -2.83280         5.98704
     2010.57905         7.42629         5.60565
     2010.58179         4.65738         5.62049
     2010.58453        10.06247         5.60129
     2010.58726        -1.34944         5.88581
     2010.59000        -2.22635         5.90064
     2010.59242         8.29231         6.44960
     2010.59641        27.86715        10.69726
     2010.59822        -1.02009         5.65016
     2010.60095         8.96500         5.67635
     2010.60369        11.28109         5.67635
     2010.60643         3.79818         5.66762
     2010.60917        -3.34173         5.63882
     2010.61190         3.37536         5.76973
     2010.61464         5.58345         5.61874
     2010.61738         4.37754         5.59082
     2010.62012         7.67563         5.60129
     2010.62286         1.48572         5.61525
     2010.62559         6.68181         5.62747
     2010.62833         0.22790         5.79766
     2010.63107        22.75799         5.94253
     2010.63381        10.53308         5.57773
     2010.63655         9.33017         5.59867
     2010.63928        10.53326         5.65278
     2010.64202         0.07335         5.69816
     2010.64476        -1.04656         5.79417
     2010.64750         6.92553         7.54752
     2010.65023        19.40062        12.18878
     2010.65297        -1.41429         6.31258
     2010.65571         7.54880         5.63620
     2010.65845         4.91789         5.67896
     2010.66119         4.35798         5.74093
     2010.66392        10.94107         5.62922
     2010.66666         8.43315         5.66151
     2010.66940         4.23324         5.69118
     2010.67214         1.10733         5.63533
     2010.67488        13.47242         5.74617
     2010.67761        10.49851         5.63271
     2010.68035         7.71960         5.60914
     2010.68309         5.30669         5.65104
     2010.68583         6.94778         5.61264
     2010.68856         6.77887         5.74442
     2010.69130         7.39696         5.64929
     2010.69404         6.30805         5.86748
     2010.69678         3.38014         5.63533
     2010.69952         1.70123         5.56551
     2010.70225         2.27432         5.93119
     2010.70499         0.40641         5.73744
     2010.70773         3.55150         5.81249
     2010.71047         1.54759         5.68246
     2010.71321         0.73268         5.63794
     2010.71595         6.89376         5.62660
     2010.71868         9.53486         5.90937
     2010.72142         8.82895         5.89453
     2010.72416         1.10704         5.91548
     2010.72689         3.70413         5.80377
     2010.72963         3.55122         5.60391
     2010.73237        -2.14269         5.63533
     2010.73511        20.40039         6.52466
     2010.73785         3.64848         5.77322
     2010.74058         9.24357         5.99664
     2010.74332        -1.49534         5.63096
     2010.74606         5.00575         5.78980
     2010.74880         0.02884         6.51942
     2010.75154         1.93893         5.67024
     2010.75428         7.88501         5.89802
     2010.75701         0.75611         5.83693
     2010.75975         7.21720         5.73831
     2010.76249         0.30529         5.64842
     2010.76478         4.82117         6.45309
     2010.76877        -0.08298        10.32460
     2010.77070         2.75556         5.73046
     2010.77977        -6.71971        10.65275
     2010.78165        -1.03508         5.89453
     2010.78448         4.93384         5.87446
     2010.78713         7.60710         5.97919
     2010.78987         7.79519         5.59605
     2010.79633         7.57859        15.58639
     2010.79808         5.84946         5.68420
     2010.80082        -1.10545         5.54456
     2010.80355         8.26064         5.61002
     2010.80629         9.95873         5.68595
     2010.80903         5.42281         5.67460
     2010.81724        11.29908         5.73831
     2010.81998         8.90617         5.90675
     2010.82272        10.80826         8.61314
     2010.82546         2.10235         5.60914
     2010.82820         6.28444         5.67024
     2010.83367         7.56362         6.29338
     2010.83641         4.06871         5.77497
     2010.83915         0.49580         5.69118
     2010.84188        -2.32311         5.76449
     2010.84462        11.38298         5.71387
     2010.84736         3.34907         5.56289
     2010.85284         8.51625         5.80289
     2010.86929         0.80374         5.80726
     2010.87200        -0.02112         5.63358
     2010.87474         0.94997         5.77758
     2010.87748        -2.33994         5.62573
     2010.88021         4.19214         5.59169
     2010.88295         0.13523         5.60914
     2010.88569         1.10632         5.61264
     2010.89201        -3.06401        14.48934
     2010.89390         4.59159         5.50267
     2010.89664         1.18068         5.50703
     2010.89938         6.43277         7.43929
     2010.90212         0.50386         5.56202
     2010.90485         0.06995         5.65453
     2010.90759         0.31904         5.50092
     2010.91033         3.07313         5.56987
     2010.91307        -6.50978         5.52449
     2010.91581        -2.58769         5.53060
     2010.91854        -0.04860         5.55242
     2010.92128        -4.16751         5.50092
     2010.92402        -6.84942         5.46776
     2010.92676        -3.75833         5.49569
     2010.92950        -7.29024         5.48958
     2010.93223        -7.43215         5.58296
     2010.93497        -1.81406         5.62398
     2010.93771        -1.09897         5.80464
     2010.94045         0.29012         5.77584
     2010.94318        -0.49679         5.60391
     2010.94592        -5.05470         5.56114
     2010.94866         1.56639         5.56376
     2010.95140         4.68647         5.85351
     2010.95414         2.27856         5.59169
     2010.95687        -0.05835         5.52187
     2010.95961        -8.22326         5.82384
     2010.96235        -6.30717         5.62398
     2010.96509         1.01692         5.57511
     2010.96783         1.02801         5.58471
     2010.97056        -4.40090         5.60042
     2010.97604        -2.82872         5.52274
     2010.97878        -2.47163         5.67198
     2010.98151        -3.75254         5.59082
     2010.98425         2.38455         5.58034
     2010.98699         6.53964         5.57249
     2010.98973         5.66873         5.65802
     2010.99247        10.58482         5.78806
     2010.99520         6.07591         5.68071
     2010.99794        -6.34200         5.62485
     2011.00068        -0.10891         5.61613
     2011.00342         2.02918         5.70602
     2011.00616         2.62827         5.51925
     2011.00889         1.68136         5.74966
     2011.01163        -6.00455         5.47736
     2011.01437        -0.13146         5.66936
     2011.01711        -1.51737         5.75664
     2011.01984         2.33372         5.53147
     2011.02258        -5.60219         5.44507
     2011.02532        -7.01811         5.48434
     2011.02806        -4.81002         5.61787
     2011.03080        -4.07193         8.16193
     2011.03353       -13.60184         5.58907
     2011.03627       -17.46475         5.58383
     2011.03901       -17.28566         5.48609
     2011.04175        -0.39557         5.46514
     2011.04449        -1.08748         5.81424
     2011.04722        -5.26239         5.68507
     2011.04995        -8.80827         5.68158
     2011.05270        -7.33221         5.53758
     2011.05544        -4.86512         5.53234
     2011.05817         0.50697         5.44681
     2011.06091        -1.80794         5.44507
     2011.06365        -4.39885         5.45380
     2011.06639        -3.65276         5.48958
     2011.06913        -8.21067         5.66762
     2011.07186        -3.59858         5.63794
     2011.07460        -6.23149         5.58296
     2011.07734        -5.11740         5.72435
     2011.08008        -3.58331         5.41714
     2011.08282       -14.71522         5.49481
     2011.08829        -5.23104         5.60478
     2011.09103        -8.46995         5.86922
     2011.09342        -3.42925         6.97848
     2011.10015        -5.99431         8.91249
     2011.10201       -12.47665         5.62922
     2011.10472       -13.85651         5.49220
     2011.10746        -8.67942         5.69380
     2011.11019        -6.77333         5.51751
     2011.11293        -1.48224         5.46252
     2011.11567         0.75485         5.50878
     2011.11841         5.09094         5.54107
     2011.12115        -1.14497         5.49918
     2011.12388       -10.37588         5.78195
     2011.12662        -1.39679         5.98879
     2011.12936         3.14230         5.69380
     2011.13210        -0.53561         5.55242
     2011.13483        -8.91252         5.43023
     2011.13757        -4.35743         5.45554
     2011.14031        -5.90334         5.47998
     2011.14305        -4.09525         5.65802
     2011.14579        -7.59916         5.69467
     2011.14852        -8.48907         5.41016
     2011.15400         0.57011         5.41452
     2011.15674         1.00020         5.40841
     2011.15948         5.40929         5.52274
     2011.16221        -4.57162         5.62311
     2011.16381       -11.05649        11.78296
     2011.16872       -16.21930        10.24954
     2011.17043       -10.96436         5.54020
     2011.17316       -16.75427         5.46427
     2011.17590       -15.22718         5.45641
     2011.17864        -2.77509         5.55940
     2011.18138        -5.25300         5.57947
     2011.18412        -6.90891         5.45554
     2011.18685        -7.87682         5.65540
     2011.18959        -4.35373         5.64493
     2011.19233        -5.67964         5.50791
     2011.19507         1.57845         5.55067
     2011.19780         6.71154         5.65715
     2011.20054        -1.89337         5.58907
     2011.20328        -0.29928         5.54107
     2011.20642        -1.14791         7.42184
     2011.20876        -4.63410         5.67809
     2011.21149        -6.18801         5.55154
     2011.21423        -8.12592         5.48260
     2011.21697         2.42417         5.49132
     2011.21971        -2.86674         5.60478
     2011.22245        -6.57865         6.43214
     2011.22518         3.04444         5.81511
     2011.22745        -2.48162         7.59639
     2011.23694        -1.02665         7.75348
     2011.23887        -5.67912         5.53409
     2011.24161         4.96797         5.54020
     2011.24435         1.84106         5.57773
     2011.24709        -1.12685         5.85613
     2011.24982        -5.99976         5.55503
     2011.25256         0.58833         5.45903
     2011.25530        -0.74658         5.54631
     2011.25804         2.05151         5.80551
     2011.26078         0.76560         5.78718
     2011.26337        -3.66204         5.84828
     2011.26702       -10.59959         7.49428
     2011.26899         2.71387         5.50965
     2011.27173         1.64096         5.69467
     2011.27446         6.10505         5.96872
     2011.27720        -2.23286         5.95650
     2011.27994        -6.06177         5.48783
     2011.28268        -2.57368         5.51838
     2011.28542       -12.70459         5.45030
     2011.28815        -2.21350         5.47561
     2011.29089         0.00859         6.43127
     2011.29363        -5.83632         5.49220
     2011.29637        -4.76723         5.45990
     2011.29911        -1.54014         5.49394
     2011.30184         4.70695         5.43285
     2011.30458        -4.36396         5.50267
     2011.30732        -1.84787         5.45292
     2011.31006         3.26821         5.66151
     2011.31279        -4.17970         5.48609
     2011.31553        -1.01661         5.68333
     2011.31827        -3.04852         5.47125
     2011.32101        -1.61143         5.53060
     2011.32375        -3.58634         5.53496
     2011.32648        -7.02025         5.49831
     2011.32922       -14.59716         5.47212
     2011.33196        -6.83407         5.50529
     2011.33470       -10.11798         5.62660
     2011.33744        -6.96389         5.66413
     2011.34017        -7.08980         5.76100
     2011.34291        -6.44971         5.87097
     2011.34565        -3.97162         5.60129
     2011.34839        -7.19753         6.18341
     2011.35112       -13.33544         5.63794
     2011.35386        -9.63635         5.59256
     2011.35660       -11.29126         5.51838
     2011.35934       -12.94017         5.61787
     2011.36090       -25.74097        16.32211
     2011.36481       -17.56399         5.66325
     2011.36755       -11.50290         5.63882
     2011.37029        -5.95281         5.70427
     2011.37303        -5.34072         6.32654
     2011.37577        -4.76463         5.64842
     2011.37850       -11.38154         5.68769
     2011.38124        -8.89545         5.57423
     2011.38398       -12.65937         5.61438
     2011.38672        -7.23128         5.75489
     2011.38945        -5.52819         5.65453
     2011.39219        -8.84710         5.65889
     2011.39493        -5.26601         5.54456
     2011.39767        -3.45692         5.57598
     2011.40041        -5.79983         5.64231
     2011.40314        -7.62774         5.66849
     2011.40588        -3.09665         5.75140
     2011.40862       -11.14956         5.58820
     2011.41136       -10.13647         5.61874
     2011.41410       -10.95338         5.66762
     2011.41683        -7.16429         5.77148
     2011.41957        -0.36420         5.65540
     2011.42231       -15.96411         5.60827
     2011.42505         2.43798         5.79242
     2011.42778        -3.85993         6.16858
     2011.43052        -5.27784         5.90937
     2011.43326        -9.51675         5.70515
     2011.43600       -10.83866         5.64231
     2011.43874        -9.90057         5.68682
     2011.44147       -11.68348         5.61874
     2011.44421        -3.93539         5.75315
     2011.44695        -2.72730         5.71300
     2011.44969        -9.56821         5.70427
     2011.45243        -6.40112         5.65104
     2011.45516        -8.84104         5.59431
     2011.45790        -5.50195         5.69555
     2011.46064        -5.75586         5.62311
     2011.46338        -7.44577         5.64929
     2011.46611        -6.40868         5.68333
     2011.46880        -4.70948         5.92246
     2011.47159        -4.36850         5.75489
     2011.47433         0.77559         6.12930
     2011.47707        -2.47232         5.70078
     2011.47980         0.02977         5.60565
     2011.48254        -7.74014         6.15985
     2011.48528        -8.90105         5.66762
     2011.48802         5.87004         5.79678
     2011.49076        -6.93387         5.82471
     2011.49349        -0.21078         5.83257
     2011.49623         6.07931         5.82122
     2011.49897        -4.14960         5.69555
     2011.50171         1.96649         5.89715
     2011.50444         0.86758         5.78457
     2011.50718        -7.96833         5.71649
     2011.50992        -1.07024         5.70253
     2011.51266         0.21885         5.70776
     2011.51540         2.69894         7.18183
     2011.51813         2.52703         5.61438
     2011.52087         3.35012         5.67984
     2011.52361         1.38121         7.91931
     2011.52635         7.95529         5.90064
     2011.52908         0.50038         6.33440
     2011.53182         7.32148         5.75053
     2011.53547         4.24894        12.58850
     2011.53730         2.10065         5.67111
     2011.54004        -7.11026         5.75489
     2011.54277         2.83683         5.73831
     2011.54551         6.44392         5.68333
     2011.54825        -6.02299         5.75315
     2011.55099         2.15710         5.66675
     2011.55373         9.19919         5.68420
     2011.55528        34.79639        29.78598
     2011.56279        -1.01306         9.34101
     2011.56470         8.95351         6.21745
     2011.56741         6.23064         5.75140
     2011.57013        -0.92723         5.86748
     2011.57289        10.01882         5.77933
     2011.57563         5.01591         5.59605
     2011.57837        15.11200         5.72697
     2011.58110        -1.23491         6.13279
     2011.58384         4.56018         5.69555
     2011.58658         1.49327         7.36424
     2011.58932         2.93536         5.58907
     2011.59206         8.08345         5.95650
     2011.59479         4.57354         5.78108
     2011.59645        26.66256        20.12467
     2011.60102        -6.56762         8.40281
     2011.60301         8.60280         5.72435
     2011.60574         8.54289         5.85962
     2011.60848        11.19398         6.06210
     2011.61122         2.97907         6.00013
     2011.61396         5.82616         5.84042
     2011.61670        10.78925         5.96610
     2011.61943         4.96334         5.94690
     2011.62217        -5.68257         5.96697
     2011.62491         2.27352         7.43493
     2011.62767         6.52058         6.07170
     2011.62919         2.66385        28.37387
     2011.63312         6.17179         5.79068
     2011.63502        10.64138         8.84704
     2011.64134         8.87306         6.21832
     2011.64407         4.39515         5.96261
     2011.64681        22.21624         5.97657
     2011.64955         8.11233         6.04290
     2011.65229         2.25242         5.70253
     2011.65503         5.79151         5.82471
     2011.65764        10.46182         6.35360
     2011.68315        -4.42693         9.36283
     2011.68512         4.84353         5.88231
     2011.68788        10.57158         6.07345
     2011.69062         9.24467         5.91722
     2011.69336         5.42376         5.83955
     2011.69609         9.59885         5.79504
     2011.69883         9.25294         5.82122
     2011.70157         3.26103         5.92508
     2011.70333        18.93087        10.76271
     2011.70790        14.31668        10.72606
     2011.70978         8.84130         5.80726
     2011.71252         9.37039         5.72522
     2011.71527         6.37546         6.00275
     2011.71878         7.56316        10.12997
     2011.72073        10.99766         5.83693
     2011.72347        21.76975         5.83955
     2011.72621         7.15084         5.83344
     2011.72895        11.75393         5.82122
     2011.73169        17.93902         5.81249
     2011.73442        20.16111         6.03592
     2011.73716        12.20220         5.83868
     2011.73990         7.75128         6.10486
     2011.74236         8.95788         5.92159
     2011.74630         5.38581        14.24672
     2011.74764        26.28740         6.84146
     2011.75181         8.07092        14.99292
     2011.75359         2.99373         6.01584
     2011.75633         5.97382         5.97221
     2011.75906         9.97091         5.97133
     2011.76180        11.02600         5.87620
     2011.76454        17.86309         5.99315
     2011.76728         1.94518         5.77758
     2011.77002        -5.12973         5.85002
     2011.77215        14.98243         6.94794
     2011.77640        17.73381        14.37327
     2011.77823        16.08454         5.87359
     2011.78097         7.04163         5.82995
     2011.78342         3.88123         6.25323
     2011.79267         7.15764        11.82747
     2011.79466         0.06808         5.84479
     2011.79739        -0.34683         5.92071
     2011.80013         8.80526         6.51506
     2011.80287        -1.48565         6.04377
     2011.80561         8.48044         5.76100
     2011.80835        11.64253         5.77758
     2011.81108         5.98062         5.79678
     2011.81382         1.28570         6.96714
     2011.81652         0.16987         6.02719
     2011.82010         1.58645        11.94092
     2011.82206         5.79693         7.03085
     2011.82477         8.72906         5.83606
     2011.82751         3.56815         5.71824
     2011.83025         7.97524         6.16596
     2011.83299        -0.14567         5.87708
     2011.83571        -0.85855         6.16421
     2011.83846         5.81151         5.82995
     2011.84120         7.88160         5.94079
     2011.84394        10.33069         5.78980
     2011.84668         8.38678         5.80813
     2011.84941         3.82787         6.22530
     2011.85215        -4.68304         7.13209
     2011.85489        -4.34195         6.22269
     2011.85763         0.69014         6.32480
     2011.86036         8.80423         5.80377
     2011.86310         9.94532         5.75751
     2011.86584        15.67541         5.74966
     2011.86858        12.39050         5.85700
     2011.87110         4.52497         6.36843
     2011.87405         2.34868         5.88930
     2011.87679         4.98277         5.75402
     2011.87953         4.89686         5.88406
     2011.88227         3.75495         5.76275
     2011.88501         1.91203         5.75838
     2011.88774         5.23812         5.77758
     2011.89048         7.29821         5.83780
     2011.89322        -7.87870         5.75227
     2011.89596         3.44239         5.78457
     2011.89869         7.37148         5.77322
     2011.90143        -4.20843         5.75926
     2011.90417        -1.21434         5.85526
     2011.90691        -3.15825         5.82122
     2011.90965         1.20784         5.80900
     2011.91238         0.98993         5.97832
     2011.91512        -2.32198         5.79417
     2011.91786         1.43211         5.82384
     2011.92060        -7.22880         5.83431
     2011.92334       -11.89371         5.92944
     2011.92607        -9.82462         6.01235
     2011.92881        -3.88553         5.95999
     2011.93155         0.62856         5.88493
     2011.93429        -3.08335         5.87708
     2011.93702        -2.33126         5.87446
     2011.93976         0.07783         5.98530
     2011.94250         4.21492         5.93293
     2011.94524         0.13701         5.94428
     2011.94798         9.10310         5.88231
     2011.95071         8.83619         5.75053
     2011.95345         0.63328         5.78457
     2011.95619        -4.11164         5.95301
     2011.95893         1.79645         5.78282
     2011.96167         1.94154         5.74704
     2011.96440         3.73063         5.76013
     2011.96714         4.97772         5.68420
     2011.96988         1.93981         5.80464
     2011.97262        -6.64810         5.63096
     2011.97535        -4.63801         5.62660
     2011.97809        -5.04092         5.60391
     2011.98083         5.23017         5.54543
     2011.98357         4.33126         5.60391
     2011.98631         4.21835         5.61176
     2011.98904        10.40444         5.62660
     2011.99178         7.20353         5.59954
     2011.99452        10.76862         5.71038
     2011.99726         2.25471         5.61700
     2012.00000       -10.92220         5.62485
     2012.00273        -3.72611         5.60304
     2012.00539         4.35913         5.89890
     2012.00825         5.53899         5.75751
     2012.01095         8.70916         5.74355
     2012.01368         3.88025         5.68769
     2012.01642         1.74434         5.58122
     2012.01916         5.88043         5.54282
     2012.02190         7.06052         5.81075
     2012.02464         2.91661         5.56813
     2012.02737        -6.02831         5.67547
     2012.03011        -2.99222         5.56725
     2012.03285        -1.12813         5.54369
     2012.03559         2.85696         5.69555
     2012.03833        -5.08595         5.61438
     2012.04106        -1.22686         5.59605
     2012.04380        -3.66577         5.81511
     2012.04654         2.29432         5.56725
     2012.04928         6.36141         5.76362
     2012.05201        -2.37150         5.66936
     2012.05475         4.03859         5.59867
     2012.05706        -5.89054         7.22809
     2012.06108        15.58424        10.01913
     2012.06297         1.06586         5.64405
     2012.06570         2.96795         5.63445
     2012.06844         6.99904         5.62660
     2012.07118        -1.06587         5.63009
     2012.07392        -0.67278         5.61613
     2012.07666         6.90831         5.66238
     2012.07939         8.10840         5.50354
     2012.08213         7.92149         5.56202
     2012.08487         3.35358         5.53496
     2012.08761        -3.03333         5.63620
     2012.09034        -0.69324         5.61351
     2012.09308        -0.40515         5.59082
     2012.09582        -1.30906         5.83780
     2012.09947        -9.96061         9.12893
     2012.10130        -7.05489         8.21080
     2012.10432        -3.21431         7.34766
     2012.10763         0.50176         9.25461
     2012.10951        -2.30862         5.81599
     2012.11253        -8.62104         6.95492
     2012.11498        -0.76644         5.82384
     2012.11772         6.14165         5.80726
     2012.12046         7.40074         5.75926
     2012.12320         0.11783         5.88144
     2012.12594        -0.28208         5.88406
     2012.12867       -12.21399         5.92508
     2012.13141        -5.76990         5.77497
     2012.13415         1.78519         5.79504
     2012.13689         0.04228         6.00188
     2012.13963         6.38237         6.09876
     2012.14236         0.72546         6.15461
     2012.14510        -0.97945         5.83955
     2012.14784        -2.10636         5.72522
     2012.15058        -2.67727         5.67635
     2012.15331        -6.86318         5.68158
     2012.15605        -8.10409         5.63969
     2012.15879        -2.70400         5.75227
     2012.16153         5.34409         5.72435
     2012.16427        -1.88282         5.85875
     2012.16700         0.66027         5.78020
     2012.16974         0.62935         5.66151
     2012.17248        -1.22556         5.64667
     2012.17522         0.84853         5.64144
     2012.17796         1.30862         5.68507
     2012.18069        -4.59929         5.96872
     2012.18343        -9.93320         5.74180
     2012.18617        -2.60611         5.91984
     2012.18891         7.85798         5.71562
     2012.19164         3.84807         5.72260
     2012.19438         5.86016         5.84479
     2012.19712         0.50125         5.78893
     2012.19986        -0.92966         5.71649
     2012.20260         7.49643         5.89628
     2012.20533         1.13852         5.87882
     2012.20807         2.43061         5.64493
     2012.21081         3.99370         5.72173
     2012.21355         0.10079         5.76100
     2012.21629         1.87088         5.71475
     2012.21902        -0.22703         5.82646
     2012.22176        -4.01194         5.72347
     2012.22450        -4.09685         5.77148
     2012.22724       -11.22976         5.71998
     2012.22997        -3.61167         5.67285
     2012.23271         1.09042         5.73569
     2012.23545        -1.41349         5.87184
     2012.23819         3.76160         5.65715
     2012.24093        -2.24031         5.72522
     2012.24366         2.97577         5.85526
     2012.24640         1.15086         5.75053
     2012.24914         4.54895         5.62136
     2012.25188        -3.89096         5.70689
     2012.25462        -7.57887         5.60914
     2012.25735        -2.57478         5.88144
     2012.26009        -6.49469         5.68682
     2012.26283        -6.48660         5.51401
     2012.26557       -12.77551         5.72784
     2012.26830       -11.02542         5.61874
     2012.27104        -8.45033         5.92246
     2012.27378       -12.20324         5.65802
     2012.27652        -3.65215         5.59693
     2012.27926        -4.72006         5.57860
     2012.28199        -3.73597         5.61264
     2012.28473        -3.79288         5.60914
     2012.28747        -7.47379         5.60653
     2012.29021        -5.56170         5.71998
     2012.29295        -8.28361         5.64842
     2012.29568       -11.81552         5.61787
     2012.29842       -10.50843         5.61962
     2012.30116        -4.48334         5.90675
     2012.30390        -9.00425         5.58122
     2012.30663       -11.90516         5.59780
     2012.30937        -8.34507         5.79678
     2012.31211         1.53902         6.27418
     2012.31485        -2.35190         6.04901
     2012.31759        -6.28081         5.61264
     2012.32032        -7.90572         5.70602
     2012.32306       -10.95163         5.55154
     2012.32580        -8.90454         5.65191
     2012.32854        -8.07445         5.74442
     2012.33128        -1.17636         5.80726
     2012.33401        -4.89427         5.78020
     2012.33675        -1.15418         5.81599
     2012.33949       -12.45909         5.60478
     2012.34223       -17.02700         5.61962
     2012.34496       -18.76891         5.63271
     2012.34770       -14.37282         5.77671
     2012.35044       -12.70473         5.65453
     2012.35318       -12.11064         5.67896
     2012.35592       -11.94155         5.61613
     2012.35865        -8.04346         5.76013
     2012.36139       -10.83637         5.60827
     2012.36413       -11.74528         5.56900
     2012.36687        -3.19019         5.57511
     2012.36961       -12.83210         5.61264
     2012.37234        -9.36001         5.85526
     2012.37508        -3.03392         5.60827
     2012.37782       -11.80583         5.83082
     2012.38056        -5.08774         5.76362
     2012.38329        -3.88165         5.67722
     2012.38603        -5.09357         5.69729
     2012.38877        -1.46948         5.78020
     2012.39151        -4.77739         5.75053
     2012.39425        -5.26730         5.74966
     2012.39698        -1.33521         5.73133
     2012.39972        -5.79712         5.59343
     2012.40246        -1.21903         5.99839
     2012.40520        -7.04694         5.60042
     2012.40794        -9.69985         5.63009
     2012.41067        -1.10176         5.57598
     2012.41341        -2.67767         5.54980
     2012.41615        -5.74958         5.56551
     2012.41889        -5.45549         5.60827
     2012.42162        -4.81840         5.63707
     2012.42436        -6.37231         5.62573
     2012.42710         4.23878         5.77148
     2012.42984         2.48987         5.73482
     2012.43258        -2.57404         5.61176
     2012.43531        -4.10195         5.65453
     2012.43805        -4.72186         5.60216
     2012.44079        -9.61477         5.60042
     2012.44353       -12.19268         5.59256
     2012.44626        -7.04059         5.66849
     2012.44900        -4.10750         5.63794
     2012.45174        -8.32441         5.71126
     2012.45448        -2.92132         5.63358
     2012.45722        -6.81224         5.58471
     2012.45995        -0.31815         5.81162
     2012.46269        -2.91106         5.70340
     2012.46543        -6.46697         5.77235
     2012.46817        -2.80888         5.57947
     2012.47091       -14.50979         5.63445
     2012.47364        -7.44470         5.59169
     2012.47638        -5.91061         5.66936
     2012.47912        -6.92752         5.78195
     2012.48186        -6.44443         5.70776
     2012.48459        -3.36934         5.52711
     2012.48733        -3.82425         5.54631
     2012.49007        -5.04816         5.56813
     2012.49281        -3.59207         5.59431
     2012.49555        -4.25098         5.69380
     2012.51274         1.13718         7.93676
     2012.51471        -5.48035         5.58994
     2012.51745         0.86974         5.61700
     2012.52019        -5.84117         5.72697
     2012.52292        -0.90708         5.73657
     2012.52566        -2.92899         5.82297
     2012.52840         2.70709         5.60653
     2012.53114        -4.13782         5.65889
     2012.53388         4.02127         5.77060
     2012.53661         5.93036         6.12756
     2012.53935        -3.77055         5.75315
     2012.54209         6.04954         5.62398
     2012.54483         3.55763         5.58907
     2012.54757         5.63472         5.58296
     2012.55030        10.82481         5.80202
     2012.55304         2.36190         5.74267
     2012.55578        -3.08001         5.62398
     2012.55852        17.35208         6.03679
     2012.56125         2.89917         5.56463
     2012.56399         3.54226         5.54805
     2012.56673        -1.85865         5.60391
     2012.56947        -3.51956         5.85177
     2012.57221         9.44753         5.67547
     2012.57494         1.55862         5.59518
     2012.57768         4.14271         5.83344
     2012.58042        12.89180         5.85962
     2012.58316        -9.42311         5.71649
     2012.58590         4.95698         5.73133
     2012.58863         3.02307         5.68595
     2012.59137         5.44416         5.63882
     2012.59411         5.05825         5.56638
     2012.59685         3.13134         5.65365
     2012.59958         8.10742         5.98792
     2012.60232         2.27451         5.72173
     2012.60506        10.07060         5.77671
     2012.60780        10.42669         5.93817
     2012.61054        13.08378         5.53234
     2012.61327         3.98787         5.70515
     2012.61601        10.26596         5.62049
     2012.61875        15.82205         5.65104
     2012.62149        -1.93086         5.72260
     2012.62423         8.89423         5.57860
     2012.62696         6.49032         5.61176
     2012.62970         6.79541         5.61438
     2012.63244         4.85850         5.58296
     2012.63518         8.17759         5.77846
     2012.63791         9.74968         5.61176
     2012.64065        16.17077         5.62224
     2012.64339        13.40386         5.63184
     2012.64613        16.59595         5.66675
     2012.64887         6.79004         5.59082
     2012.65160         7.87913         5.60391
     2012.65434        12.89222         5.68158
     2012.65708         5.25031         5.90326
     2012.65982        19.13740         5.94341
     2012.66256         8.29749         5.65976
     2012.66529         9.85258         5.61438
     2012.66803        21.14367         5.74791
     2012.67077        17.75876         5.64056
     2012.67351         5.82584         5.65889
     2012.67624        13.96893         5.66413
     2012.67898         9.64502         5.71126
     2012.68172         9.96011         5.69729
     2012.68446         6.59720         5.77148
     2012.68720         5.38129         5.62834
     2012.68993         9.11638         5.72435
     2012.69267        15.44847         6.09003
     2012.69541         7.61656         5.84217
     2012.69815         7.33165         5.83344
     2012.70089         0.77574         5.82820
     2012.70362        -0.32217         5.87184
     2012.70636         5.75492         5.59605
     2012.70910         4.83501         5.64405
     2012.71184        10.59310         5.74704
     2012.71457        11.98619         5.60478
     2012.71731         9.01128         5.68769
     2012.72005         8.99537         5.71649
     2012.72279         5.04546         5.61874
     2012.72553         7.52055         5.64755
     2012.72826         3.81364         5.64580
     2012.73100         5.71573         5.98704
     2012.73374        12.48182         5.94341
     2012.73648         8.51091         5.63271
     2012.73921         4.45300         5.69293
     2012.74195         6.07609         5.79940
     2012.74469        10.84417         5.76013
     2012.74743        11.87626         5.62398
     2012.75017         5.48535         6.16770
     2012.75290        14.05044         5.80377
     2012.75564         6.36353         5.61962
     2012.75838         2.32062         5.65976
     2012.76112         8.29371         5.58907
     2012.76386         6.35480         5.65976
     2012.76659         9.35289         5.69991
     2012.76933         9.47498         5.98617
     2012.77207        11.34507         5.82820
     2012.77481         4.36216         5.82297
     2012.77754         8.22825         5.70864
     2012.78028        13.06734         5.80464
     2012.78302        13.78743         5.89453
     2012.78576         6.84052         5.68682
     2012.78850        14.40461         5.76537
     2012.79199        45.65534        11.40244
     2012.79397        15.00179         5.98704
     2012.79671         6.12688         5.71911
     2012.79945        11.64997         5.72260
     2012.80219        17.10106         5.90588
     2012.80492        10.16815         6.28029
     2012.80766         9.25924         5.73918
     2012.81040         5.93033         5.78718
     2012.81314         0.87242         5.73831
     2012.81587         2.49350         5.71300
     2012.81861        -4.41441         5.78893
     2012.82135        -1.80332         5.75926
     2012.82409         4.00477         5.86922
     2012.82683        -4.54414         5.75227
     2012.82956         6.32695         5.71038
     2012.83230         1.83104         5.73744
     2012.83504         4.41813         5.86050
     2012.83778         5.63622         5.76537
     2012.84052        10.26231         5.75577
     2012.84325         6.51340         5.72871
     2012.84599         4.70749         5.87533
     2012.84873         0.84558         5.80639
     2012.85147        16.65967         5.85090
     2012.85420        -0.72424         5.79940
     2012.85694         3.92785         5.82209
     2012.85968         2.78294         5.72260
     2012.86242        -0.72397         5.76100
     2012.86516         7.62612         5.78195
     2012.86789         1.59321         6.18603
     2012.87063        -8.69470         5.95301
     2012.87337        -4.40661         5.92159
     2012.87611         1.77448         5.81249
     2012.87885         5.92757         5.75140
     2012.88158        15.81166         5.71998
     2012.88432         4.32775         5.75577
     2012.88706         2.90883         5.95824
     2012.88980        10.23592         6.01672
     2012.89253         5.24901         5.71562
     2012.89527        -3.56590         5.89279
     2012.89801         1.86519         5.75227
     2012.90075         6.26328         5.94428
     2012.90349        -4.20963         5.72871
     2012.90622        -0.42854         5.76275
     2012.90896         8.10455         6.01497
     2012.91170         5.15064         5.77060
     2012.91444         6.39673         5.84042
     2012.91718        10.39182         5.76188
     2012.91991         6.89591         5.79766
     2012.92265         7.19700         5.69206
     2012.92539         2.25309         5.73220
     2012.92813        -2.66082         5.76798
     2012.93086         9.33427         5.92508
     2012.93360         0.01036         5.88668
     2012.93634        -0.25855         5.72086
     2012.93908        -3.38546         5.79417
     2012.94182         4.99863         5.66413
     2012.94455         8.77572         5.65104
     2012.94729         1.80281         5.90937
     2012.95003         1.59390         5.87970
     2012.95277         8.94699         5.70515
     2012.95551         8.82708         5.68246
     2012.95824        15.19816         5.66238
     2012.96098         7.87925         5.97308
     2012.96372         5.15634         6.00886
     2012.96646         2.35543         5.73918
     2012.96919         7.19452         5.83169
     2012.97193         1.94661         5.88930
     2012.97467        -0.57730         5.68333
     2012.97741        -2.34021         5.65802
     2012.98015        -5.86512         5.73046
     2012.98288        -3.62303         5.71998
     2012.98562        -5.46694         5.66587
     2012.98836        -1.63885         5.65104
     2012.99110        -2.95276         5.64580
     2012.99384        -2.29467         5.68071
     2012.99657        -2.13258         5.73395
     2012.99931        -0.83949         5.73744
     2013.00205        -2.05540         5.71736
     2013.00479        -0.72231         5.73831
     2013.00752        -6.18822         5.69555
     2013.01026        -0.93813         5.70689
     2013.01300        -1.49204         5.74442
     2013.01574         1.40705         5.71387
     2013.01848         5.19014         5.77497
     2013.02121         0.96923         5.71998
     2013.02395        -4.00668         5.87446
     2013.02669         1.86541         5.82646
     2013.02943         0.47350         5.68507
     2013.03216        -3.66842         5.71998
     2013.03490        -9.76633         5.72958
     2013.03764        -8.60524         5.70864
     2013.04038       -12.85115         5.86224
     2013.04313        -9.15708         5.85002
     2013.04585        -5.47597         5.84566
     2013.04859        -2.78188         5.91111
     2013.05133        -7.54679         5.70776
     2013.05407        -8.15070         5.75489
     2013.05681        -2.85561         5.70951
     2013.05954        -5.01552         5.82820
     2013.06228        -5.56543         5.88231
     2013.06502        -2.42534         5.73482
     2013.06776         0.35075         5.78020
     2013.07049        -2.54416         5.80988
     2013.07323        -1.29507         5.69816
     2013.07597         0.18402         5.78195
     2013.07871         3.23311         5.76275
     2013.08145        -2.10880         5.70166
     2013.08418        -2.67271         5.80115
     2013.08692        -4.21961         5.87010
     2013.08967        -8.47355         5.72347
     2013.09240        -4.04744         5.68944
     2013.09512        -0.73032         6.80393
     2013.09787         4.19074         6.02981
     2013.10061         3.84283         6.26196
     2013.10335         1.75891         6.08566
     2013.10609        -1.20900         5.67984
     2013.10882         0.76609         5.67635
     2013.11156        -7.46582         5.95388
     2013.11430        -5.71373         5.78806
     2013.11702        -2.13660         6.10923
     2013.11978        -0.38855         6.39374
     2013.12251        -3.35946         5.76100
     2013.12525       -10.33637         5.92682
     2013.12799        -6.13828         5.77235
     2013.13073        -3.56619         5.79591
     2013.13347        -4.38810         5.91286
     2013.13620         2.23899         6.48625
     2013.13894         8.67208         7.89661
     2013.14168         5.76617         7.93327
     2013.14442        13.75126         7.20627
     2013.14715        -0.82365         7.53966
     2013.14907        11.86191        12.34064
     2013.15351         0.80896         8.66463
     2013.15537        -6.55638         5.67722
     2013.15811        -6.12929         5.69380
     2013.16084        -3.57020         5.89279
     2013.16358        -4.84811         6.09963
     2013.16632        -1.21702         5.85264
     2013.16906         6.39607         5.87446
     2013.17180        -2.62184         5.92857
     2013.17453        -8.30276         5.79853
     2013.17727         1.54133         6.13017
     2013.18001        -5.80958         6.13017
     2013.18275        -2.13249         5.85439
     2013.18548        -4.65340         5.84130
     2013.18822        -1.88831         5.81511
     2013.19096        -5.25422         5.85439
     2013.19370        -2.69313         5.90326
     2013.19644         1.29996         5.88842
     2013.19917        -4.59795         5.90326
     2013.20191        -0.51486         5.93642
     2013.20465         0.34123         5.89191
     2013.20739         0.89032         6.12581
     2013.21013        -1.48459         5.82209
     2013.21286        -2.74050         5.79853
     2013.21560         0.77359         5.80202
     2013.21834         2.28468         6.86503
     2013.22108        -7.47423         5.80028
     2013.22381        -5.53914         5.80551
     2013.22655       -10.69405         5.80377
     2013.22929        -7.90696         5.82209
     2013.23203        -7.56587         5.74180
     2013.23477        -7.84478         5.81075
     2013.23750        -7.69969         6.01672
     2013.24024        -8.92860         5.98879
     2013.24298       -10.23851         6.03155
     2013.24572        -2.26843         5.98879
     2013.24846        -6.05334         6.02370
     2013.25119        -5.72325         6.00363
     2013.25393        -3.73816         6.02981
     2013.25667        -6.89307         6.30298
     2013.25941         3.43902         6.05599
     2013.26214        -0.87089         5.98006
     2013.26488        -2.63180         6.03679
     2013.26762        -8.08371         6.02370
     2013.27036       -11.72362         5.99228
     2013.27310        -2.80753         6.10574
     2013.27583        -7.54944         6.22530
     2013.27857        -6.07035         6.23141
     2013.28131        -3.00326         6.18079
     2013.28405        -1.35017         6.01061
     2013.28679        -8.11308         6.00886
     2013.28952       -10.32499         5.93904
     2013.29226       -13.21690         5.96959
     2013.29500       -10.03181         5.99839
     2013.29774        -7.58672         6.03330
     2013.30047        -8.10263         6.02370
     2013.30321       -15.24754         6.12145
     2013.30595       -17.23145         5.95562
     2013.30869       -17.12736         5.97221
     2013.31143       -11.87727         6.03155
     2013.31416         1.09382         6.06734
     2013.31690        -4.97910         6.18254
     2013.31964        -4.70401         6.18341
     2013.32238        -2.20092         5.95126
     2013.32512         1.29017         6.00799
     2013.32785        -3.11574         6.14414
     2013.33059       -15.28065         6.16508
     2013.33333       -13.54956         6.11010
     2013.33607       -13.46547         5.94428
     2013.33880        -9.36138         5.95213
     2013.34154       -13.02829         6.67564
     2013.34428        -4.80820         6.15897
     2013.34702        -6.53611         6.15374
     2013.34976       -11.45302         6.08741
     2013.35249        -8.78093         5.91635
     2013.35523       -10.20384         6.15199
     2013.35797        -3.77875         6.11534
     2013.36071         1.40234         6.26370
     2013.36344         6.23043         6.19912
     2013.36618        -1.06848         6.03592
     2013.36892         2.94861         6.04639
     2013.37166        -5.29330         6.08043
     2013.37440        -7.18121         6.15287
     2013.37713        -5.51212         6.10923
     2013.37987        -9.32703         5.99664
     2013.38261       -15.43094         6.01846
     2013.38535         0.35115         6.04639
     2013.38809       -10.87077         6.15723
     2013.39082        -1.07668         6.13367
     2013.39356        -6.28759         6.12145
     2013.39630        -3.99750         6.30036
     2013.39904        -7.28441         6.09701
     2013.40177        -6.31632         6.15810
     2013.40451         0.37177         6.12145
     2013.40725        -1.72714         6.19127
     2013.40999         5.99995         6.06908
     2013.41273        -2.94796         6.10923
     2013.41546       -15.00887         6.56917
     2013.41820        -8.03178         6.13279
     2013.42094         2.54731         6.13017
     2013.42368       -12.51460         6.07955
     2013.42642        -1.00951         6.17381
     2013.42915        -1.90742         6.11621
     2013.43189         1.50967         6.18516
     2013.43463        -7.77124         6.04901
     2013.43737        -8.91315         6.11621
     2013.44010         2.91094         6.11359
     2013.44284        -1.17997         6.19301
     2013.44558        -0.78588         6.34487
     2013.44832       -11.54179         6.24887
     2013.45106         1.12930         6.09963
     2013.45379        -0.94761         6.08217
     2013.45653        -6.51752         6.17643
     2013.45927         1.99057         6.11796
     2013.46201        -4.39235         6.06821
     2013.46475         6.49874         6.18952
     2013.46748         1.23083         6.08043
     2013.47022        -5.79408         6.06995
     2013.47296        -7.14099         6.05861
     2013.47570        -3.70390         6.09265
     2013.47843         1.27319         6.14414
     2013.48117         5.30628         6.10836
     2013.48391        -0.04663         6.19563
     2013.48665        -1.29054         6.05686
     2013.48939        -2.00245         6.10923
     2013.49212        -8.08036         6.42080
     2013.49486         1.02673         6.13454
     2013.49760        -2.37718         6.15548
     2013.50034        -1.49909         6.15199
     2013.50308        -2.60200         6.28989
     2013.50581         2.61809         6.10137
     2013.50855         6.88818         6.10399
     2013.51129         3.77427         6.14937
     2013.51403        -2.04364         6.10225
     2013.51676         2.04745         6.28378
     2013.51950         4.34154         6.06995
     2013.52224         9.11663         6.13017
     2013.52498        21.26972         7.00816
     2013.52772         6.27081         6.10399
     2013.53045        -2.60210         6.08566
     2013.53319         2.10998         6.00275
     2013.53593         2.25207         6.27069
     2013.53867        -1.71784         6.09090
     2013.54141         5.25525         6.14152
     2013.54414       -11.75066         6.15287
     2013.54688         0.90643         6.10574
     2013.54962        -3.64948         6.05861
     2013.55236         3.26861         6.02283
     2013.55509        19.55770         6.39113
     2013.55783         2.87179         6.09788
     2013.56057         2.52388         6.08217
     2013.56331         1.76397         6.06472
     2013.56605         2.49606         6.00624
     2013.56878         6.47515         6.02370
     2013.57152         7.85024         6.01410
     2013.57424        13.45436         6.10399
     2013.57700         3.56842         5.90501
     2013.57974        -1.28749         5.98792
     2013.58247         5.35860         6.01235
     2013.58521         4.41169         5.96348
     2013.58795         2.75078         5.98792
     2013.59069        -1.07013         6.06035
     2013.59342        -1.52004         5.93817
     2013.59616         3.35205         6.03766
     2013.59890         6.67714         6.10836
     2013.60164         3.52023         5.94341
     2013.60438         6.40531         6.17294
     2013.60711         2.03540         6.01061
     2013.60985         1.81749         5.99664
     2013.61259         5.44258         6.20785
     2013.61533         8.28167         6.49498
     2013.61807         5.62976         6.59448
     2013.62080         7.13785         5.97133
     2013.62354         8.88394         5.95213
     2013.62628        10.11903         6.16945
     2013.62902         5.79712         6.28116
     2013.63175         8.98121         5.93817
     2013.63449         6.16730         5.97308
     2013.63723        15.56339         5.88493
     2013.63997         8.97248         5.98006
     2013.64271        17.04657         6.08566
     2013.64544        12.32666         5.97657
     2013.64818         8.91975         6.00974
     2013.65092        15.97184         6.08741
     2013.65366        17.23893         5.96784
     2013.65639         0.56202         6.00712
     2013.65913        16.23911         6.72277
     2013.66187         5.67220         6.33614
     2013.66461         8.74229         5.94690
     2013.66735         4.52838         5.98443
     2013.67008        12.59147         5.99577
     2013.67282        14.50256         6.35011
     2013.67556        14.49664         6.31432
     2013.67830        13.87573         6.08130
     2013.68104        11.92882         6.09614
     2013.68377         5.80691         6.01410
     2013.68651         6.31400         5.88057
     2013.68925        10.45709         5.95213
     2013.69199         3.43618         5.98792
     2013.69472         6.61527         5.92770
     2013.69746         3.82236         6.06646
     2013.70020        10.10045         6.02719
     2013.70294        11.38654         6.05337
     2013.70568         0.11163         6.01759
     2013.70841        18.76572         6.31869
     2013.71115         8.09081         6.26894
     2013.71389         5.84490         5.94428
     2013.71663         6.81199         6.00450
     2013.71937         3.11608         5.98530
     2013.72210        11.79117         6.02021
     2013.72484        14.51226         5.95999
     2013.72758        11.04335         6.01235
     2013.73032        10.48444         5.92246
     2013.73305        12.03953         5.94079
     2013.73579         6.14662         6.01323
     2013.73853         8.64971         5.91810
     2013.74127        13.07480         5.92246
     2013.74401        23.54689         6.21047
     2013.74674        18.90497         6.06908
     2013.74948         9.72906         5.94952
     2013.75222         1.36415         6.01759
     2013.75496        -0.17876         5.87097
     2013.75770        -0.70067         5.89628
     2013.76043         3.85242         5.92508
     2013.76317         2.33851         5.96173
     2013.76591        10.13760         5.94864
     2013.76865         8.57569         5.95562
     2013.77138         3.66178         5.95999
     2013.77412         9.27887         5.96784
     2013.77686         6.84996         6.02894
     2013.77960         0.66205         5.96784
     2013.78234        -3.68286         6.03330
     2013.78507        -2.45677         5.97832
     2013.78781        -3.04468         6.05512
     2013.79055         0.17241         5.98704
     2013.79329        -5.35450         5.93468
     2013.79603         3.63659         5.91984
     2013.79876        -0.41832         5.90850
     2013.80150        -0.37423         6.21134
     2013.80410        -2.22689         6.70270
     2013.80782        13.15244        32.23840
     2013.80971        10.92204        17.50381
     2013.81245         3.98413        14.30519
     2013.81519        -4.37978         8.45517
     2013.81793        -3.19070         5.94952
     2013.82067        -4.28161         5.91111
     2013.82340        -5.47952         6.05861
     2013.82614         3.67657         6.11970
     2013.82888         6.80866         6.02806
     2013.83162         2.65475         6.08130
     2013.83436         1.00984         6.13628
     2013.83709         4.24593         6.28290
     2013.83983         9.43402         6.16334
     2013.84257         2.61211         6.19476
     2013.84531        -0.22280         6.31258
     2013.84804        -2.80271         5.99228
     2013.85078        -5.22262         6.10923
     2013.85352         3.93447         5.86137
     2013.85626        -1.53744         6.25498
     2013.85900        -5.39735         5.90151
     2013.86173        -3.95226         6.00712
     2013.86447        -5.91017         6.02544
     2013.86721        -4.60608         6.01846
     2013.86995        -2.00299         5.86224
     2013.87269         9.13410         5.92333
     2013.87542        10.86519         5.93642
     2013.87816         7.12328         6.06297
     2013.88090         5.69037         5.94079
     2013.88364         9.51846         5.90937
     2013.88637         0.27255         5.83344
     2013.88911        -5.33836         5.89628
     2013.89185       -11.57728         5.96697
     2013.89459       -15.48619         5.90850
     2013.89733        -5.49910         5.98443
     2013.90006        -9.45401         5.89802
     2013.90280       -10.72892         5.89104
     2013.90554        -2.91083         5.89279
     2013.90828        -3.66074         5.96610
     2013.91102        -2.83565         5.91111
     2013.91375        -3.79756         5.92857
     2013.91649         3.36453         5.91111
     2013.91923         5.10062         5.90588
     2013.92197        -0.70529         5.95475
     2013.92470        -4.32820         5.90501
     2013.92744        -6.63911         5.90413
     2013.93018        -5.98402         5.93206
     2013.93292        -4.05593         5.91461
     2013.93566        -4.62684         5.91810
     2013.93839        -5.05775         5.87010
     2013.94113       -10.14266         5.88493
     2013.94387        -8.21057         5.93817
     2013.94661       -13.19048         5.92159
     2013.94935        -9.09139         5.90850
     2013.95208        -5.25530         5.89279
     2013.95482         4.40079         5.87970
     2013.95756         1.86588         5.95737
     2013.96030        -4.85703         5.98966
     2013.96303         5.02005         5.90326
     2013.96577        -6.07386         5.94515
     2013.96851         7.70023         5.90762
     2013.97125         9.29232         5.89977
     2013.97399         5.43541         5.94253
     2013.97672         4.27350         5.88755
     2013.97946         9.57859         5.91722
     2013.98220         1.11868         5.98093
     2013.98494         9.85877         5.90064
     2013.98767         7.60286         5.88406
     2013.99041        -4.55905         5.98530
     2013.99315       -11.63196         5.92857
     2013.99589        -3.56587         5.84653
     2013.99863        -3.38678         5.98879
     2014.00136       -14.40069         5.95737
     2014.00410        -0.07660         5.94079
     2014.00684        -0.50151         6.02195
     2014.00958        -3.84242         5.88231
     2014.01232        -9.17233         5.91461
     2014.01505        -7.09724         5.94341
     2014.01779        -4.45015         5.87708
     2014.02053        -3.74906         5.90762
     2014.02327        -2.74897         6.26196
     2014.02600        10.20412         6.33963
     2014.02874         7.80621         5.99577
     2014.03148        13.45030         5.97657
     2014.03422         3.86538         5.85700
     2014.03696         1.12347         5.94602
     2014.03969        -0.66544         5.96173
     2014.04243        -3.53935         6.26196
     2014.04517         1.22974         6.44349
     2014.04791        -3.55117         5.84042
     2014.05065        -4.18708         5.86573
     2014.05338        -7.76499         5.94515
     2014.05612        -7.91290         5.93904
     2014.05886       -12.54081         5.95562
     2014.06160        -5.61072         5.98530
     2014.06433        -1.99863         6.22705
     2014.06707        -0.55254         6.24363
     2014.06981         3.90755         6.05686
     2014.07255        -2.68036         6.01672
     2014.07529        -3.03827         6.02719
     2014.07802         0.02782         6.03504
     2014.08076        -5.35509         5.96261
     2014.08350        -0.33600         6.03854
     2014.08624         0.41509         6.01323
     2014.08898        -2.18782         6.15985
     2014.09171        -5.27173         6.23839
     2014.09445        -6.04864         5.95912
     2014.09719        -9.48655         5.96261
     2014.09993        -2.01646         6.02981
     2014.10266         2.75863         6.12930
     2014.10540        -2.03929         5.85526
     2014.10814        -7.62820         5.94602
     2014.11088        -0.69711         5.97744
     2014.11362        -7.93002         6.05861
     2014.11635         2.00507         5.92071
     2014.11909         3.09116         5.94690
     2014.12183         3.03325         6.20610
     2014.12457         1.53234         5.92595
     2014.12731         9.37943         5.94166
     2014.13004         4.00152         5.98617
     2014.13278         4.98861         6.35447
     2014.13552         5.72970         6.62764
     2014.14099         0.95788         6.04465
     2014.14373        -2.70903         6.13628
     2014.14647        -6.06994         6.11446
     2014.14921        -5.81185         6.09090
     2014.15195        -5.78476         6.09265
     2014.15468         0.09233         6.25847
     2014.15742         0.65742         6.42254
     2014.16016        -3.26749         6.37716
     2014.16290        -4.66540         6.11010
     2014.16564        -4.84731         6.12057
     2014.16837        -8.70822         6.20523
     2014.17111        -3.18013         6.15374
     2014.17385        -4.00604         6.16159
     2014.17659         4.65504         6.19825
     2014.17932        -1.67187         6.31432
     2014.18206        -1.38478         6.36843
     2014.18480        -2.12169         6.41033
     2014.18754        -2.08360         6.17992
     2014.19028        -8.43551         6.13454
     2014.19301        -4.71742         6.24974
     2014.19575        -1.67233         6.26807
     2014.19849        -2.53324         6.14239
     2014.20123        -7.90615         6.13454
     2014.20397        -1.54806         6.18865
     2014.20670        -4.04797         6.12494
     2014.20944        -7.27288         6.16334
     2014.21218        -0.84779         6.19738
     2014.21492        -6.54570         6.10574
     2014.21765       -10.93261         6.18254
     2014.22039       -10.41152         6.21570
     2014.22313        -8.49943         6.14152
     2014.22587       -10.88934         6.11097
     2014.22861        -8.82425         6.12843
     2014.23134         3.94784         6.14239
     2014.23408        -2.87907         6.09265
     2014.23682        -5.32398         6.09963
     2014.23956        -7.24589         6.13279
     2014.24230       -10.57180         6.12843
     2014.24503       -11.71271         6.08217
     2014.24777        -5.47563         6.93921
     2014.25051        -5.72454         6.44524
     2014.25325        -9.32745         6.16421
     2014.25598        -0.97136         6.44000
     2014.25872        -4.63327         6.19388
     2014.26146       -11.35318         6.44873
     2014.26420       -15.25009         6.18603
     2014.26694        -6.94700         6.37280
     2014.26967        -7.42791         6.27941
     2014.27241        -9.79982         6.49673
     2014.27515       -11.77573         6.33091
     2014.27789       -10.23164         6.40771
     2014.28062        -7.06055         6.23403
     2014.28336        -6.44246         6.26370
     2014.28610        -4.34537         6.27767
     2014.28884        -9.89228         6.58226
     2014.29158        -7.61419         6.18167
     2014.29431        -8.67910         6.25585
     2014.29705        -1.82301         6.22792
     2014.29979        -5.08992         6.11708
     2014.30253       -16.33883         6.08043
     2014.30527        -1.55774         6.11970
     2014.30800        -3.49565         6.85630
     2014.31029         0.07925         8.59918
     2014.31348        -5.02547         6.16770
     2014.31622        -6.15638         6.08566
     2014.31895        -3.26929         6.04465
     2014.32169       -14.41221        10.91195
     2014.32443       -22.35112         6.21309
     2014.32717       -15.79703         6.23665
     2014.32991        -7.17594         6.10486
     2014.33264        -8.31385         6.11883
     2014.33538       -13.69676         6.09788
     2014.33812        -3.76767         6.08916
     2014.34086        -1.67958         6.21570
     2014.34360        -2.77749         6.14588
     2014.34633       -14.41240         6.28640
     2014.34907        -7.47231         6.39287
     2014.35181         0.95178         6.47142
     2014.35455        -5.03013         6.17294
     2014.35728        -6.71904         6.12319
     2014.36002       -19.16195         6.13890
     2014.36276       -20.17086         6.18865
     2014.36550       -11.83377         6.16072
     2014.36824       -21.10168         6.44349
     2014.37097       -10.43559         6.25149
     2014.37371        -5.71350         6.10225
     2014.37645        -3.10941         6.10574
     2014.37919        -3.98532         6.30211
     2014.38193        -4.90723         6.40596
     2014.38466       -16.25114         6.21832
     2014.38740       -11.60405         6.24450
     2014.39014         2.61604         6.27680
     2014.39288        -7.15088         6.31171
     2014.39561        -5.60779         6.24625
     2014.39835         0.96730         6.34312
     2014.40109        -9.15161         6.18167
     2014.40383         5.05848         6.20261
     2014.40657        -5.02343         6.25672
     2014.40930        -8.02534         6.27330
     2014.41204       -13.89625         6.33352
     2014.41478        -9.57316         6.23316
     2014.41752         0.32593         6.18778
     2014.42019        -2.51186         6.28727
     2014.42300        -5.84090         6.26720
     2014.42573        -1.99580         6.38153
     2014.42847        -7.36971         6.21570
     2014.43121        -9.62362         6.12232
     2014.43394        -3.37153         6.24887
     2014.43668         7.49656         6.66255
     2014.43942        -1.18635         6.28901
     2014.44216        -4.94526         6.29687
     2014.44490         2.58183         6.50371
     2014.44763        12.38992         6.51506
     2014.45037        -2.26899         6.20087
     2014.45311         7.00910         6.27941
     2014.45585         3.94019         6.24712
     2014.45859        -3.62972         6.20523
     2014.46132        -1.59263         6.17643
     2014.46406        -3.16055         6.17905
     2014.46680         4.80954         6.36756
     2014.46954        -2.93837         6.36756
     2014.47227        -2.33628         6.29861
     2014.47501        -1.95719         6.25760
     2014.47775        -5.63810         6.24276
     2014.48049         0.29299         6.36058
     2014.48323        -3.98692         6.24538
     2014.48596         8.80117         6.38414
     2014.48870         7.66026         6.26894
     2014.49144         0.96435         6.35447
     2014.49418        -6.19856         6.31607
     2014.49692        -7.06347         6.30734
     2014.49965         1.54662         6.36058
     2014.50239        13.83971         6.47055
     2014.50513        12.16180         6.54037
     2014.50787         3.69089         6.47316
     2014.51060         1.47398         6.52378
     2014.51334        -4.21793         6.37367
     2014.51608        -0.71984         6.41382
     2014.51882         0.29825         6.50633
     2014.52156         5.98934         7.03696
     2014.52429         4.27043         6.51680
     2014.52703         7.64252         6.38763
     2014.52977         1.03861         6.41033
     2014.53251        -5.07030         6.47927
     2014.53525         0.04178         6.44698
     2014.53798         7.96387         6.48015
     2014.54072         9.30996         6.52902
     2014.54346         1.60405         6.52204
     2014.54620         2.45114         6.45222
     2014.54893        10.16223         6.53687
     2014.55167         3.96332         6.57702
     2014.55441        -3.36359         6.54560
     2014.55715        -0.62750         6.46182
     2014.55989        12.80859         6.88597
     2014.56262         3.85468         6.45135
     2014.56536         2.58577         6.44087
     2014.56810        -1.46714         6.38763
     2014.57084        -5.48105         6.38502
     2014.57357         3.31004         6.47316
     2014.57631        -2.28287         6.60582
     2014.57905        -2.52978         6.44436
     2014.58179         0.60831         6.45222
     2014.58453         3.78140         6.58051
     2014.58726        -4.24651         6.97587
     2014.59000        -3.89842         6.75681
     2014.59274        -5.21933         6.77950
     2014.59548        -0.08824         6.84146
     2014.59822        11.77285         7.29180
     2014.60095        13.32994         7.04656
     2014.60369         3.39003         6.81354
     2014.60643        -2.66189         6.66080
     2014.60917        -0.83580         6.72626
     2014.61190         8.11929         6.90081
     2014.61464        11.22638         6.83797
     2014.61816         3.34408        12.67752
     2014.62012        -3.56344         6.89645
     2014.62286         9.39265         6.65644
     2014.62559        -0.85526         6.63811
     2014.62833         2.79583         6.60582
     2014.63107        13.53192         6.81179
     2014.63381        12.47601         6.70793
     2014.63655        14.18110         6.82663
     2014.63928         7.00919         6.63549
     2014.64202        -7.89172         6.61368
     2014.64476         1.87437         6.60669
     2014.64750         4.01746         6.62589
     2014.65023         3.35855         6.63375
     2014.65297        14.44664         6.95405
     2014.65571        17.77573         6.76379
     2014.65845        11.54282         6.65993
     2014.66119        10.85191         6.79172
     2014.66392        12.83800         6.76466
     2014.66666        12.73109         6.70182
     2014.66940         8.94218         6.64160
     2014.67214         9.45227         6.67477
     2014.67488         1.22436         8.29371
     2014.67761         2.22744         6.67739
     2014.68035        -0.20447         6.69921
     2014.68309         1.62162         6.61193
     2014.68583         9.63571         6.72539
     2014.68856         4.46580         6.69222
     2014.69130         1.62189         6.71317
     2014.69404        -6.86902         6.58400
     2014.69678        -7.98993         6.69746
     2014.69952        -2.82384         6.58313
     2014.70225         0.06025         6.58488
     2014.70499        -0.44566         6.59797
     2014.70773         4.68643         6.77164
     2014.71047         5.54052         6.69048
     2014.71321        11.94361         6.73499
     2014.71594        14.18370         6.99332
     2014.71868         1.39679         6.58313
     2014.72142        -1.12012         6.70182
     2014.72416        11.22297         6.87463
     2014.72689         2.33006         6.76902
     2014.72963        11.38515         6.74284
     2014.73237         5.59724         6.89906
     2014.73511         6.79133         6.95492
     2014.73785        -2.52858         6.71666
     2014.74058        -7.29449         6.68262
     2014.74308        10.60402         7.27260
     2014.74613         9.60057         7.26038
     2014.74880         3.41578         6.73499
     2014.75154        -0.92314         6.80830
     2014.75427         0.86295         6.81528
     2014.75701        -1.35696         6.78997
     2014.75975         3.19313         6.74982
     2014.76249         4.91222         6.70793
     2014.76522         0.36931         6.69135
     2014.76796         8.25240         6.72364
     2014.77070        -1.82951         6.72975
     2014.77344         0.99858         6.63724
     2014.77618        13.43367         6.82139
     2014.77891         3.77276         6.74546
     2014.78165         3.60885         6.73848
     2014.78439         7.47394         6.92612
     2014.78713         8.58203         6.65382
     2014.78987         2.16712         6.59971
     2014.79260        -4.22979         6.60757
     2014.80141        10.14742        11.63023
     2014.80355        13.50257         6.70444
     2014.80629        -1.62834         6.60320
     2014.80903         3.24575         6.71317
     2014.81177         8.99884         6.71317
     2014.81451         7.89093         6.64509
     2014.81724         9.01002         6.60669
     2014.81998         3.99211         6.65644
     2014.82272         0.57919         6.64684
     2014.82546         4.59928         6.66604
     2014.82820         1.94337         6.67128
     2014.83093         1.33546         6.87463
     2014.83367        11.43255         6.88510
     2014.83641         2.55264         6.98110
     2014.83915         2.46873         6.99158
     2014.84188         4.19482         7.34155
     2014.84462         1.37091         7.03696
     2014.84736         0.45900         6.97150
     2014.85010         6.66009         6.99943
     2014.85284        -4.64082         7.10154
     2014.85557         9.57127         7.01950
     2014.85831         0.61436         7.14343
     2014.86105        -8.72855         6.96190
     2014.86379       -10.58046         7.01950
     2014.86653       -12.74937         6.89470
     2014.86926        -4.66428         6.89208
     2014.87200        -9.35719         6.86939
     2014.87474        -5.43710         6.84670
     2014.87748        -8.94301         6.90430
     2014.88021        -2.72092         6.92786
     2014.88295        -2.42383         6.78299
     2014.88569        -2.55474         6.83884
     2014.88843         1.40135         7.29093
     2014.89117        16.37644         7.22984
     2014.89390         3.79852         6.74197
     2014.89664         2.62561         6.87375
     2014.89938        -2.33030         6.85892
     2014.90212       -12.84321         6.86241
     2014.90485        -0.82712         7.00467
     2014.90759         8.93297         7.15740
     2014.91033         0.65406         6.81877
     2014.91307        -0.88485         6.81179
     2014.91581        -5.91476         6.80306
     2014.91854         0.76133         6.87026
     2014.92128        -3.72258         6.79783
     2014.92402        -3.74049         6.87201
     2014.92676        -5.10640         6.85543
     2014.92950        -5.17231         6.81615
     2014.93223        -4.96122         6.97238
     2014.93497       -10.11113         6.99507
     2014.93771         0.56996         6.96888
     2014.94045         4.97905         6.98372
     2014.94318        13.58214         6.98285
     2014.94592        11.40423         6.99768
     2014.94866        -8.58168         7.05092
     2014.95140        -8.44859         6.90343
     2014.95414        -7.82850         6.87899
     2014.95687        -1.52041         7.21413
     2014.95961         5.29668         7.27347
     2014.96235         5.64577         6.83535
     2014.96509         3.21085         6.89906
     2014.96783         0.79394         6.91565
     2014.97056         2.87803         6.95579
     2014.97330         0.31312         7.22547
     2014.97604        -9.57379         6.97063
     2014.97878        -0.05670         7.04132
     2014.98151         0.98639         6.87725
     2014.98425       -10.69952         6.93223
     2014.98699        -2.94143         6.90168
     2014.98973       -17.35634         6.85194
     2014.99247       -20.29125         8.21255
     2014.99520       -23.21916         6.87899
     2014.99794        -8.27507         6.93747
     2015.00342        -9.70389         6.88685
     2015.00616       -17.61980         6.78473
     2015.00889       -18.15171         7.18707
     2015.01163       -18.16762         7.13383
     2015.01437       -24.07453         7.09631
     2015.01711       -23.53444         7.40177
     2015.01984       -16.69235         7.10940
     2015.02258        -9.57026         7.76745
     2015.02532        -3.13617         7.08932
     2015.02806        -5.36208         7.31624
     2015.03080        -1.87899         7.05267
     2015.03353        -4.50290         7.09456
     2015.03627        -5.02982         7.07885
     2015.03901        -3.99373         7.13296
     2015.04175         7.08236         7.34591
     2015.04449        -7.47755         7.15303
     2015.04722        -7.18746         7.14605
     2015.04996       -16.38937         7.16612
     2015.05270        -5.52128         7.68192
     2015.05544        -6.95819         7.20540
     2015.05817         0.75290         7.12423
     2015.06091        -6.99501         7.01601
     2015.06365         2.14208         7.09805
     2015.06639        -4.06783         7.18183
     2015.06913         1.21926         7.24816
     2015.07186        -4.84165         7.00205
     2015.07460        -6.21356         7.09631
     2015.07734       -12.36947         7.04394
     2015.08008       -12.65938         7.00728
     2015.08282        -2.99729         7.16787
     2015.08555        -9.11720         7.01863
     2015.08829        -3.03411         6.97412
     2015.09103        -1.11702         7.21587
     2015.09377        -4.07493         6.95579
     2015.09650         3.64816         7.53006
     2015.09919         5.99235         7.27435
     2015.10198         6.72333         7.06227
     2015.10472        -7.82257         6.87986
     2015.10746        -2.46448         6.98110
     2015.10985        -4.59678         8.38535
     2015.11293       -12.28531         7.07972
     2015.11567        -9.81922         6.92699
     2015.11841       -11.18513         6.87812
     2015.12115         0.36696         6.96016
     2015.12388        -9.10195         6.94183
     2015.12662        -8.30886         7.04830
     2015.12936       -10.26677         7.07798
     2015.13210       -10.28568         7.08147
     2015.13483        -1.68059         7.27085
     2015.13757        -0.73150         7.34242
     2015.14031       -10.01841         7.12598
     2015.14305        -5.21932         7.01776
     2015.14579        -8.84623         6.99681
     2015.14852        -6.67214         7.08409
     2015.15126       -11.43905         6.99158
     2015.15400        -6.93096         7.00379
     2015.15674        -3.56887         7.03521
     2015.15948        -5.45778         7.07798
     2015.16221        -5.97369         7.32933
     2015.16495        -2.60660         7.08496
     2015.16769        -7.97451         7.04307
     2015.17043        -5.53242         7.00030
     2015.17316        -8.42333         7.35202
     2015.17590        -7.95224         8.11829
     2015.17864        -8.51815         6.98721
     2015.18138        -3.08007         7.07100
     2015.18412        -0.65198         7.00118
     2015.18685        -3.79389         6.91652
     2015.18959        -7.25080         6.97150
     2015.19233        -0.30271         7.03434
     2015.19507        -6.04162         7.02125
     2015.19780        -8.19753         7.04132
     2015.20054        -1.68444         7.05529
     2015.20328        -5.53835         6.87201
     2015.20602        -9.74726         7.61035
     2015.20876        -6.48617         7.37646
     2015.21149       -11.59308         7.28307
     2015.21423        -8.84899         7.38780
     2015.21697         1.57710         7.02561
     2015.21971       -13.39781         7.34940
     2015.22245        -3.47272         7.12511
     2015.22518        -6.30463         7.05354
     2015.22792        -9.45154         7.16612
     2015.23066       -10.03745         7.22198
     2015.23340         2.73764         7.23682
     2015.23613         4.99273         7.10852
     2015.23887        -3.10218         7.53704
     2015.24161        -5.86609         7.57457
     2015.24435         2.05800         7.56061
     2015.24709        -4.06391         7.46199
     2015.24982         0.05818         7.06576
     2015.25256        -6.35374         7.11725
     2015.25530        -2.21065         7.08234
     2015.25804        -1.36156         7.19667
     2015.26078         3.11453         7.08845
     2015.26351         3.33362         7.19143
     2015.26625         4.96171         7.28133
     2015.26899        -1.46020         7.25078
     2015.27173         5.49989         7.35289
     2015.27446        17.20298         7.20191
     2015.27720        11.90007         7.15740
     2015.27994         0.57916         7.20976
     2015.28268         1.59625         7.10503
     2015.28542        -2.32866         7.42882
     2015.28815        -4.54557         7.46373
     2015.29089       -13.61148         7.10154
     2015.29363         0.50961         7.30053
     2015.29637        -5.31530         7.10067
     2015.29910         3.49980         7.16351
     2015.30184         4.09288         7.05441
     2015.30458         8.18297         7.07449
     2015.30732        -0.44294         7.09543
     2015.31006        -1.14285         7.42359
     2015.31279        -0.79076         7.10852
     2015.31553        -0.84467         7.09107
     2015.31827        -6.27758         7.16438
     2015.32101        -1.90849         7.17834
     2015.32375        -7.21241         7.36249
     2015.32648        -2.08332         7.36773
     2015.32922        -9.29223         7.40700
     2015.33196        -5.67214         7.05703
     2015.33470        -1.75905         6.92525
     2015.33744        -7.74396         6.97238
     2015.34017        -0.52787         7.13732
     2015.34291        -4.82378         7.18096
     2015.34565        -1.20669         7.07536
     2015.34839        -0.27860         7.36773
     2015.35112        -9.13451         7.01339
     2015.35352        -2.15281         8.11742
     2015.35740       -13.63776        12.10936
     2015.35934        -0.18924         7.35202
     2015.36208        -6.46515         7.42359
     2015.36481        -7.18506         8.17677
     2015.36755        -4.37897         6.97936
     2015.37029        -0.71788         7.12074
     2015.37303        -6.81279         7.08060
     2015.37577        -9.62470         7.12772
     2015.37850        -6.93961         6.98547
     2015.38124        -1.12652         6.96627
     2015.38398       -10.95243         7.17223
     2015.38672        -0.05834         7.20453
     2015.38945        -2.12625         7.07798
     2015.39219        -0.86016         7.82679
     2015.39493        -5.69908         7.39828
     2015.39767        -6.01299         7.06925
     2015.40041        -1.52190         7.16787
     2015.40314        -4.10881         7.07274
     2015.40588        -7.70572         7.05441
     2015.40862         8.01037         7.19667
     2015.41136       -13.60354         7.14082
     2015.41410        -5.58245         7.14518
     2015.41683        -4.95536         7.24467
     2015.41957        -4.04127         7.08409
     2015.42231         3.12582         6.96365
     2015.42505       -12.20709         7.73952
     2015.42778        -0.64300         7.17922
     2015.43052         5.20609         7.19493
     2015.43326       -12.71782         7.41922
     2015.43600        -2.00873         7.28656
     2015.43874         4.16436         7.05878
     2015.44147        14.02345         7.18358
     2015.44421         2.86354         7.27784
     2015.44695        -1.02637         7.08321
     2015.44969         3.73472         7.13907
     2015.45243        -5.63819         7.07972
     2015.45516         2.06890         7.12685
     2015.45790        -6.84601         7.10329
     2015.46064        -0.93892        10.81770
     2015.46338         7.45917         7.27871
     2015.46611         2.94225         7.03609
     2015.46885         0.44134         7.18620
     2015.47159         2.70143         7.19318
     2015.47433        -2.16048         7.97254
     2015.47707        -4.75439         7.13121
     2015.47980         0.82270         7.05092
     2015.48254        -7.60721         7.30838
     2015.48528        -3.96312         7.16438
     2015.48802         1.10397         7.17485
     2015.49076        -8.73794         7.10503
     2015.49349         4.48615         7.39391
     2015.49623         2.33824         7.46024
     2015.49897        -6.10967         6.99856
     2015.50171         3.48742         6.99594
     2015.50444        13.28651         7.22373
     2015.50718        -9.73640         7.32147
     2015.50992         2.72669         7.14867
     2015.51266        -8.22522         7.31798
     2015.51540        -3.00413         7.10241
     2015.51813         6.80496         7.10067
     2015.52087        14.18005         7.11201
     2015.52361        10.18214         7.33107
     2015.52635        11.30723         7.16263
     2015.52908        10.82932         7.15652
     2015.53182         2.69341         7.10067
     2015.53456         9.27750         7.03783
     2015.53730        10.37159         7.34242
     2015.54004         2.52967         7.55275
     2015.54277         3.49376         7.51522
     2015.54551         1.64885         7.51610
     2015.54825         2.95294         7.56061
     2015.55099        13.44603         8.23960
     2015.55373         9.71512         7.60337
     2015.55646        21.10221         7.42446
     2015.55886         6.78092         7.69588
     2015.56468         8.98948         7.61384
     2015.56741         4.87757         7.72905
     2015.57015         6.66966         7.54926
     2015.57289         0.97475         7.51348
     2015.57563         9.67884         7.53355
     2015.57837         2.43293        19.95710
     2015.58110        18.92302         7.57632
     2015.58384        17.92811         7.58504
     2015.58658        19.01820         7.64177
     2015.58932         7.81729         7.82941
     2015.59206        30.45338         7.87829
     2015.59479        11.92447         7.70636
     2015.59753        15.91556         7.56322
     2015.60027        13.19765         7.87305
     2015.60301        19.76674         7.55712
     2015.60574         9.05283         7.78578
     2015.60848        15.10592         7.64526
     2015.61122        20.23400         7.73865
     2015.61396        28.69209         8.43423
     2015.61943         0.78627         8.23437
     2015.62217         6.84636         7.81632
     2015.62491        23.23345         7.78228
     2015.62765         6.12954         7.75523
     2015.63039         1.82163         7.90360
     2015.63312        11.96572         7.87392
     2015.63586         3.83581         7.90010
     2015.63860         5.23990         7.70723
     2015.64134         2.24199         7.85385
     2015.64407         9.21808         7.83116
     2015.64681        17.40517         8.14447
     2015.64955         9.40626         7.61472
     2015.65229         6.33035         7.93851
     2015.65503        19.44944         7.74563
     2015.65776        13.35953         7.75872
     2015.66050        12.37562         7.59639
     2015.66324        17.17171         7.62694
     2015.66598        12.28480         7.62170
     2015.66872        11.79389         7.65574
     2015.67145         8.00598         7.72119
     2015.67419        -1.45393         7.60337
     2015.67693         5.21116         7.45500
     2015.67967         2.50625         7.57719
     2015.68240         3.12833         7.52133
     2015.68514         6.96042         8.03189
     2015.68788         5.11451         7.72817
     2015.69062        -0.78940         7.57457
     2015.69336         2.03069         8.31379
     2015.69609         1.75878         7.62432
     2015.69883        17.60187         7.95858
     2015.70157        11.77796         7.80498
     2015.70431        11.79305         7.64439
     2015.70705        12.64814         7.70548
     2015.70978        10.05123         7.72556
     2015.71252         0.86232         7.67494
     2015.71526        20.12041         7.64526
     2015.71800        16.72950         7.86520
     2015.72073        10.14559         7.85821
     2015.72347         3.77468         7.72119
     2015.72621        -1.18223         7.75523
     2015.72895       -16.48614         7.94200
     2015.73169        15.17395         7.79188
     2015.73442         7.79804         7.69850
     2015.73716        14.17213         7.61559
     2015.73990         8.42322         7.78490
     2015.74264         7.97531         7.69326
     2015.74486         5.29132         9.10886
     2015.74811         6.34749         7.74650
     2015.75085       -12.20042         7.76308
     2015.75359         7.94666         7.66010
     2015.75633         7.05575         7.66359
     2015.75906         0.79884         7.75436
     2015.76180        -8.74807         7.71945
     2015.76454        -3.18198         7.83465
     2015.76728        -2.28689         7.69065
     2015.77002        -3.97080         7.81719
     2015.77275        20.83229         7.79363
     2015.77549         1.25938         7.83727
     2015.77823        16.47447         7.66883
     2015.78097         5.72156         7.65574
     2015.78371         5.45365         7.78578
     2015.78644         7.36574         7.71770
     2015.78918        -0.93017         7.63392
     2015.79192         3.22392         7.83814
     2015.79466         9.07501         7.69152
     2015.79739        12.44710         7.63828
     2015.80013       -14.83581         8.17066
     2015.80287        -0.93372         7.77443
     2015.80561         2.34337         7.81894
     2015.80835        -0.95254         7.61123
     2015.81108        -2.06945         7.65923
     2015.81382        -1.00936         7.68715
     2015.81656         5.90273         7.79450
     2015.81930         2.72782         7.80236
     2015.82203         3.30591         7.80934
     2015.82477        12.00999         7.75087
     2015.82751        15.11308         7.85559
     2015.83025        17.77117         7.69588
     2015.83299         3.05826         7.66883
     2015.83572         2.46535         7.85996
     2015.83846        -0.28756         8.31117
     2015.84120         3.28853         8.40804
     2015.84394         4.56562         8.18462
     2015.84668        -2.42729         8.56776
     2015.84941         3.79480         9.39076
     2015.85215        -4.64511         9.76778
     2015.85489         3.81898         8.99278
     2015.85797         3.74845         9.30523
     2015.86036         5.53516        11.04025
     2015.86310         9.82325         8.46739
     2015.86584         9.23034        10.49827
     2015.86858         8.91343         8.91249
     2015.87132         0.19252        10.56024
     2015.87405         7.04461         8.20644
     2015.87673         4.91380        18.03182
     2015.87963        -2.53639         8.65329
     2015.88227         3.18188         8.13051
     2015.88501        -8.47903         7.97778
     2015.88774        -8.33894         8.14884
     2015.89048         3.87115         8.06855
     2015.89322         4.10624         8.12615
     2015.89596        -9.83968         8.10869
     2015.89869       -10.10659         8.10520
     2015.90143        -4.19250         8.41415
     2015.90417       -12.03841         8.10956
     2015.90691       -10.65532         8.19684
     2015.90868        -7.70249        22.34581
     2015.91323        -7.90665        10.30627
     2015.91512        -7.94005         8.03014
     2015.91786         1.78304         8.00571
     2015.92060        -4.80887         8.59481
     2015.92334         1.88622         8.98842
     2015.92607       -11.43169         8.67336
     2015.92881         4.89340         8.42288
     2015.93155        -3.16851         8.48834
     2015.93429         7.98558         9.45010
     2015.93702        17.32767         8.81474
     2015.93976         4.29676         9.22755
     2015.94250         3.46785         9.08093
     2015.94524        -3.59306         8.60965
     2015.94798        12.70103         8.42899
     2015.95071         0.86612         8.96486
     2015.95345         1.21221         8.65852
     2015.95619         1.22330         9.15162
     2015.95893        -9.16061         9.00675
     2015.96167        -0.91152         8.58085
     2015.96440        -2.94543         8.49445
     2015.96714         4.75266         9.32006
     2015.96988         8.15774         8.76849
     2015.97262        12.15983         8.52325
     2015.97535         9.38292         8.48135
     2015.97809         5.02201         8.53983
     2015.98083        -2.48190         8.60878
     2015.98357       -15.25181         8.75540
     2015.98631       -14.95272         8.70303
     2015.98904        -9.15263         8.43859
     2015.99178       -13.67654         8.46303
     2015.99452       -10.65545         8.63670
     2015.99714        -9.71715         8.96922
     2016.00273       -14.99118         8.38012
     2016.00547       -13.69609         8.44644
     2016.00821        -7.90600         8.60528
     2016.01095        -3.91091         8.64979
     2016.01368        -8.16382         8.90551
     2016.01642       -13.82473         8.80602
     2016.01916       -12.80664         8.49008
     2016.02190        -7.96255         8.45604
     2016.02464        -7.16946         8.73445
     2016.02737        -8.83437         8.49794
     2016.03011       -10.03728         8.53372
     2016.03285        -8.55419         8.56427
     2016.03559        -5.74710         8.37924
     2016.03833        -2.48701         9.73549
     2016.04089        -3.46062         9.08268
     2016.04733        -8.79316        12.12595
     2016.04928        -5.11366         8.35830
     2016.05201        -5.80257         8.79205
     2016.05475        -1.13248         8.71089
     2016.05749        -3.78839         8.52499
     2016.06023        -3.36930         8.39146
     2016.06297        -6.50221         8.39844
     2016.06570        -3.91912         9.12021
     2016.06844       -10.23803         8.89416
     2016.07118        -1.99394         9.14639
     2016.07392        -5.83585         8.73445
     2016.07666         0.67624         8.75540
     2016.07939         9.61033         8.66987
     2016.08213        -1.28158         8.77111
     2016.08487         2.38551         8.86536
     2016.08761        -6.06540         8.66812
     2016.09034        -1.25731         8.60354
     2016.09308        -5.49722         8.54768
     2016.09582        -8.34513         8.66812
     2016.09856        -2.23404         8.68470
     2016.10130       -14.35895         8.73096
     2016.10403       -20.08886         9.19701
     2016.10677        -8.23977         8.57212
     2016.10951        -7.23468         8.53634
     2016.11225        -8.34760         8.72921
     2016.11498        -8.25851         8.68383
     2016.11772        -9.71942         8.64543
     2016.12046         1.75767         8.62623
     2016.12320        -4.65424         8.72660
     2016.12594        -7.41215         8.64369
     2016.12867         3.85994         8.66289
     2016.13141         1.59503         8.57299
     2016.13415         0.87812         8.43335
     2016.13689         2.99021         8.43423
     2016.13963       -13.94370         8.40979
     2016.14236        -9.50661         8.44470
     2016.14510       -14.24152         8.41241
     2016.14784       -14.11743         8.46041
     2016.15058       -16.59134         8.47350
     2016.15331        -2.58025         8.84005
     2016.15605        -2.73316         8.37401
     2016.15879        -7.13107         9.19177
     2016.16153         1.73602         9.14639
     2016.16427        -8.18789         8.51539
     2016.16700        -9.58980         8.21604
     2016.16974       -13.82771         8.57910
     2016.17248        -2.95862         8.41677
     2016.17522         2.83647         8.53197
     2016.17796         8.38056         8.52848
     2016.18069        -4.67535         8.98755
     2016.18343        -4.12227         8.91424
     2016.18617        -5.90418         8.46041
     2016.18891        -0.10809         8.58958
     2016.19164         0.33900         8.64019
     2016.19438         9.41609         8.70652
     2016.19712        -0.95182        11.45829
     2016.19986        12.60027         8.53372
     2016.20260        -4.88764         8.71176
     2016.20533        -2.92755         8.81474
     2016.20807        -5.50446         8.57997
     2016.21081        -4.60537         8.66899
     2016.21355        -5.69028         8.46652
     2016.21629        -3.08519         8.64281
     2016.21902         5.25690         8.89067
     2016.22176         5.71899         8.55990
     2016.22450         5.41508        12.04565
     2016.22724        -6.23883         8.56165
     2016.22997         5.89326         8.66289
     2016.23271        11.18835        13.82431
     2016.23545         2.02444         8.56863
     2016.23819         5.63253         8.77547
     2016.24093        -0.26838         9.62465
     2016.24366         4.44671         8.58958
     2016.24640         6.45380         8.57212
     2016.24914        -0.74011         8.55292
     2016.25188        -4.46402         8.72049
     2016.25462         9.05506         8.63147
     2016.25735         1.39215         8.58434
     2016.26009        -6.61576         8.56165
     2016.26283        -4.60467         8.54419
     2016.26557        -0.58358         8.84093
     2016.26830        -6.98349         8.62885
     2016.27104        -5.34140         8.84005
     2016.27378         6.64669         8.75365
     2016.27652         8.27278         8.74667
     2016.27926         3.94987         8.63496
     2016.28148       -15.66512        11.16331
     2016.28473        -7.40995         8.89416
     2016.28747        -3.73386         8.74929
     2016.29021        -6.08277         9.01111
     2016.29295       -11.91468         8.75278
     2016.29568       -10.18459         8.81213
     2016.29842        -4.22050         9.17170
     2016.30116        -6.11341         9.14813
     2016.30390         1.68368         9.12282
     2016.30663         2.90777         8.80602
     2016.30937        -0.77414         8.79554
     2016.31211        -0.83405         8.75802
     2016.31485         1.02604         8.88631
     2016.31759         4.01313         8.81474
     2016.32032        -5.94078         8.85751
     2016.32306        -6.64069         8.64805
     2016.32580        -7.38761         8.74667
     2016.32854        -7.71752         8.64805
     2016.33128        -3.32943         8.71089
     2016.33401        -1.98034         8.70390
     2016.33675       -11.16925         8.75802
     2016.33949         3.34684         8.61663
     2016.34223        -2.04807         8.56252
     2016.34496        -3.30898         8.58696
     2016.34770         2.82811         9.03817
     2016.35044         0.08520         9.70145
     2016.35318         0.53729         8.65590
     2016.35592       -12.36562         8.74580
     2016.35865        -3.40153         8.60616
     2016.36139        -4.62744         8.70827
     2016.36413        -3.04235         8.76849
     2016.36687        -5.21226         8.77896
     2016.36961         7.56983         8.62012
     2016.37234        15.75292         8.63583
     2016.37508         9.11501         8.74405
     2016.37782        -7.25490         8.61576
     2016.38055         5.98820         8.69780
     2016.38329         1.98128         8.63147
     2016.38603        -7.20763         8.60965
     2016.38877        23.66846         8.65590
     2016.39151         5.34355         8.47350
     2016.39425        -4.00936         8.48310
     2016.39698         5.24073         9.56531
     2016.39972        -4.00219         8.98929
     2016.40246         4.68790         8.80951
     2016.40520         0.34499         8.61750
     2016.40794        -2.06492         8.62099
     2016.41067        -3.68283         8.64369
     2016.41341        -1.12674         8.57125
     2016.41615       -11.11665         8.70740
     2016.41889         2.59044         8.60441
     2016.42162         4.47453         8.60092
     2016.42436        -2.00138         8.57474
     2016.42710       -14.50529         8.71525
     2016.42984         0.76880         8.54506
     2016.43258        -0.57611         8.74231
     2016.43531         8.43198         8.90987
     2016.43805         3.70907         8.91249
     2016.44079         0.99916         8.84093
     2016.44353         1.78525         8.91598
     2016.44626         3.03834         8.55554
     2016.44900         0.55243         8.63670
     2016.45174        11.96752         8.87933
     2016.45448        14.28461         8.56776
     2016.45722         1.58170         8.69169
     2016.45995        -3.04121         8.59568
     2016.46269        -2.39112         8.54419
     2016.46543        -0.14503         8.48572
     2016.46817         3.46906         8.48572
     2016.47091        -2.12786         8.75802
     2016.47364         3.66223         8.65678
     2016.47638         8.47632         8.67510
     2016.47912         7.18141         8.47001
     2016.48186        -2.40050         8.44644
     2016.48457       -15.54036         8.57037
     2016.48733        -4.90432         8.46215
     2016.49007         8.41877         8.47525
     2016.49281        -5.67114         8.65241
     2016.49555        14.85395         8.69343
     2016.49737        -3.30232        13.48045
     2016.50752        30.88048        29.42204
     2016.50924        -2.81460         8.44994
     2016.51197        -7.37751         8.45692
     2016.51471         4.08258         8.53634
     2016.51745         5.72367         8.53459
     2016.52019       -16.31024         8.46215
     2016.52292       -17.25815         8.66463
     2016.52566        12.29994         8.50666
     2016.52840         0.90403         8.45954
     2016.53114         1.91512         8.50492
     2016.53388        -5.32979         8.39670
     2016.53661        15.89830         8.91860
     2016.53935         4.49139         8.57997
     2016.54112        16.44421        13.58867
     2016.54571       -13.51901        19.14894
     2016.54757        10.47665         8.88718
     2016.55030         1.58974         9.24763
     2016.55304         0.85083         8.57387
     2016.55572        13.48303         8.70478
     2016.55830        10.77540         8.77198
     2016.56486        -9.52737        17.29959
     2016.56673         4.77428         8.50666
     2016.56947        -7.08663         8.51888
     2016.57221         7.15746         8.49968
     2016.57494         9.13355         8.51103
     2016.57768         2.52564         8.86013
     2016.58042        16.31073         8.78682
     2016.58316         4.37182         8.68209
     2016.58590        -3.04209         8.76674
     2016.58863        13.60400         8.98231
     2016.59137         2.07209         8.57823
     2016.59411         4.41018         8.76151
     2016.59685        17.14327         8.81649
     2016.59958         5.87936         9.11933
     2016.60233        11.97243         8.60179
     2016.60506        -1.37646         8.58870
     2016.60780         3.50863         8.59219
     2016.61054         6.50672         8.70216
     2016.61327         3.44880         8.77722
     2016.61601        -0.45111         8.47786
     2016.61875         5.84598         8.72136
     2016.62149         4.56807         8.61663
     2016.62423         8.18516         8.43161
     2016.62696         1.13925         8.68296
     2016.62970         2.88634         8.51277
     2016.63244        -3.81257         8.47175
     2016.63518        10.84752         8.45168
     2016.63791        17.85161         9.61069
     2016.63945       -33.09915        28.70028
     2016.71827        22.40550        14.85939
     2016.72005        12.25930         8.77983
     2016.72279        16.97839         8.41852
     2016.72553        11.11648         9.06871
     2016.72821        13.02367         9.18217
     2016.73101        10.41665         8.40019
     2016.73374         6.49275         8.38361
     2016.73648        13.52884         8.52586
     2016.73921         1.16493         8.62798
     2016.74195         8.44902         8.51714
     2016.74469         0.73611         8.52936
     2016.74743         8.56620         8.79642
     2016.75017        28.09229         8.71874
     2016.75290        15.84138         8.70041
     2016.75563         9.12149         8.43597
     2016.75838        16.61155         8.46652
     2016.76112        13.24064         8.44470
     2016.76386         3.25073         8.44383
     2016.76659        17.27982         8.55641
     2016.76933        12.31191         8.57037
     2016.77207        13.90300         8.64281
     2016.77481         7.48609         8.46390
     2016.77754         9.00718         8.42550
     2016.78028        -8.24473         8.47088
     2016.78302        10.34836         8.59394
     2016.78576        12.04445         8.58958
     2016.78850        18.17654         8.42986
     2016.79123        19.08063         8.49532
     2016.79397        19.37172         8.44994
     2016.79671         8.11081         8.40717
     2016.79939        -0.90200         8.51626
     2016.80219         0.82599        12.43926
     2016.80492         6.90208         8.47612
     2016.80766        10.46317         8.53197
     2016.81040         0.01526         8.54245
     2016.81314        -1.67165         8.59394
     2016.81587        -9.53156         8.59656
     2016.81861        -3.81347         8.47437
     2016.82135         8.78262         8.59132
     2016.82409         2.55571         8.52237
     2016.82683        -3.88020         8.50928
     2016.82956         3.33088         8.46215
     2016.83230        10.32797         8.48572
     2016.83504         6.64206         8.34782
     2016.83778         3.95415         8.47525
     2016.84052         7.84524         8.37139
     2016.84325         0.43333         8.37750
     2016.84599        -1.96158         8.38012
     2016.84873        13.44851         8.19248
     2016.85147         0.24360         8.34346
     2016.85420        -5.91331         8.50928
     2016.85694         1.64278         8.50928
     2016.85968         0.84887         8.54594
     2016.86242        -0.44404         8.51539
     2016.86516        17.20105         8.47088
     2016.86789        12.54214         8.50841
     2016.87063         0.29823         8.57561
     2016.87337         4.42032         8.29982
     2016.87611         0.15541         8.36528
     2016.87885         4.64950         8.41415
     2016.88158        -9.80941         8.35393
     2016.88432         3.25968         8.37139
     2016.88706         0.18877         8.56077
     2016.88980        -0.41214         8.35568
     2016.89253         0.60295         8.51888
     2016.89527        -2.51596         8.41852
     2016.89801        10.34113         8.71176
     2016.90075         6.12221         8.40106
     2016.90349         3.36530         8.32426
     2016.90622         6.94839         8.32862
     2016.90896        17.10248         8.40019
     2016.91170         7.40457         8.35393
     2016.91444         1.27566         8.36877
     2016.91718        -2.81225         8.48310
     2016.91991       -12.54916         8.39583
     2016.92265        -1.08707         8.36092
     2016.92539         4.43002         8.33561
     2016.92813        -3.88189         8.40455
     2016.93086        -4.56180         8.31553
     2016.93360        -8.91271         8.33211
     2016.93634        -8.58062         8.39059
     2016.93908        -8.07653         8.42899
     2016.94182        -4.33544         8.38710
     2016.94455        -8.67435         8.45517
     2016.94729        -3.94626         8.91249
     2016.95003        -5.91117         9.46930
     2016.95277        -3.93608         9.57491
     2016.95551        -3.67399         8.55903
     2016.95824        -7.63590         8.44034
     2016.96001       -13.76207        17.51079
     2016.96749         2.36652        15.85432
     2016.96919         3.38746         8.41764
     2016.97188       -10.64135         8.64019
     2016.97468         2.10962         8.34084
     2016.97741         5.24272         8.29546
     2016.98015        -5.18319         8.33299
     2016.98288       -12.05210         8.35917
     2016.98562        -4.20701         8.33299
     2016.98836         1.71408         8.45866
     2016.99110         0.88517         8.37575
     2016.99384         6.77126         8.32513
     2016.99657         4.21235         8.38884
     2016.99931        -5.86356         8.40979
     2017.00480        -8.40341         8.46390
     2017.00752       -12.23628        10.02175
     2017.01032       -22.20130        17.14424
     2017.01300        -2.02211         8.31641
     2017.01574        -4.85302         8.38710
     2017.01848        -4.01893         8.35568
     2017.02121        -6.05484         8.38448
     2017.02395        -5.81175         8.43248
     2017.02669        -5.29566         8.44383
     2017.02943        -3.96657         8.40543
     2017.03216       -14.66848         8.36528
     2017.03490       -11.85939         8.55117
     2017.03764       -18.58930         8.42375
     2017.04038       -11.89021         8.38448
     2017.04312        -1.81013         8.45255
     2017.04585         3.29596         8.96486
     2017.04859         5.68705         8.97882
     2017.05133        15.56214         8.49008
     2017.05401         9.05134         8.46739
     2017.05681         8.27131         8.51452
     2017.05954        -5.72259         9.08879
     2017.06228        -1.86550         8.37488
     2017.06502        -7.14441         8.38884
     2017.06776       -11.43732         8.30768
     2017.07049        -7.69023         8.63409
     2017.07323        -7.76814         8.53721
     2017.07597       -16.19705         8.64456
     2017.07871        -8.31996         8.48048
     2017.08145       -16.74287         8.69081
     2017.08418       -11.51578         8.56776
     2017.08692        -9.73969         8.67772
     2017.08966        -7.04560         8.60354
     2017.09240       -11.22351         8.44994
     2017.09514       -23.35442         8.41677
     2017.09787       -23.43833         9.03293
     2017.10061       -24.47224         8.36615
     2017.10335       -37.38215         8.76936
     2017.10609       -31.75006         8.80078
     2017.10882       -16.80897         8.63234
     2017.11156       -16.34888         8.50928
     2017.11430        -5.24880         8.38273
     2017.11704        -9.56571         8.32862
     2017.11978       -11.27062         8.34695
     2017.12251       -13.21453         8.45168
     2017.12525        -4.37844         8.57387
     2017.12799         6.32365         8.43597
     2017.13073         8.25974         8.38012
     2017.13347         2.34183         8.43597
     2017.13620        -1.45208         8.47001
     2017.13894         0.64201         8.60703
     2017.14168        -4.15990         8.59307
     2017.14442        -8.13281         8.67598
     2017.14715        -3.47572         8.54245
     2017.14989        -2.31863         8.55903
     2017.15263        -2.86254         8.67161
     2017.15537        -3.80145         8.62361
     2017.15811       -10.82336        14.46403
     2017.16084         3.55073         8.57997
     2017.16358        -8.05418         8.58958
     2017.16632        -7.53709         8.62710
     2017.16906        -4.38800         8.59045
     2017.17180        -3.41791         8.46739
     2017.17453        -3.06482         8.58085
     2017.17727         2.28427         8.54506
     2017.18001         4.14236         8.47350
     2017.18275        -2.85655         8.54245
     2017.18548       -13.27946         8.39321
     2017.18822        -6.03738         8.80340
     2017.19096       -10.10929         8.46914
     2017.19370        -1.55920         8.36528
     2017.19644        -4.69811         8.41328
     2017.19917        -1.75902         8.42375
     2017.20191        -2.42993         8.45604
     2017.20465        -7.05884        10.16401
     2017.20739         0.48425         8.39670
     2017.21013         9.63334         8.37575
     2017.21286        -7.52757         8.92296
     2017.21560       -14.23348         8.43423
     2017.21834         1.28061         8.52761
     2017.22108         3.12370         8.49619
     2017.22381         5.49379         8.49095
     2017.22655        -2.50712         8.43684
     2017.22929        -6.64403         8.44383
     2017.23203         0.22106        11.66688
     2017.23477         3.44015         9.12021
     2017.23800       -12.02165         9.93884
     2017.24024         0.18233         8.53023
     2017.24298        -3.91358         8.52936
     2017.24572       -10.41449         8.55117
     2017.24846         2.15860         8.57648
     2017.25119        -2.37531         8.55467
     2017.25393        -8.07522         8.82347
     2017.25667        -5.29113         8.60528
     2017.25941       -13.19105         8.68034
     2017.26214        -5.04296         8.60441
     2017.26488         5.49113         8.70041
     2017.26762        -4.94178         8.61576
     2017.27036        -3.97469         8.57648
     2017.27310        -7.19260         8.47699
     2017.27583        -8.04451         8.52237
     2017.27857        -9.56342         8.49270
     2017.28131       -12.79533         8.65852
     2017.28405       -19.59024         8.51103
     2017.28679        -8.40315         8.43946
     2017.28952        -4.95206         8.63321
     2017.29226        -9.24797         8.58870
     2017.29500       -15.68288         8.52063
     2017.29774        -5.06879         8.54943
     2017.30047       -16.91970         8.43248
     2017.30321        -4.07961         8.47961
     2017.30595        -8.38252         8.58347
     2017.30869        -9.10043         8.68296
     2017.31143        -7.97234         8.51016
     2017.31416       -10.58025         8.59045
     2017.31690         1.72584         8.42899
     2017.31964        -1.04507         8.51103
     2017.32238       -13.91298         8.58696
     2017.32514       -12.89394         8.65590
     2017.32694       -29.45717        17.17304
     2017.33181        20.42810        27.82754
     2017.33333       -14.57363         8.31641
     2017.33607       -16.13554         8.61227
     2017.33880       -11.69245         8.42201
     2017.34154         2.87964         9.33665
     2017.34428       -12.64727         8.54070
     2017.34702        -1.03818         8.62274
     2017.34970        -5.12899         8.57997
     2017.35249       -14.70400        15.58551
     2017.35523       -13.53491         8.41852
     2017.35797       -18.85882         8.50579
     2017.36071       -10.12973         8.55205
     2017.36344        -9.64164         8.41677
     2017.36618        -0.34355         8.98318
     2017.36892        -9.45346         8.42550
     2017.37166       -11.38037         8.40630
     2017.37440        -6.48628         8.49532
     2017.38073        -9.30565        15.28965
     2017.38261       -14.37501         8.44470
     2017.38535       -14.84592         8.54245
     2017.38729       -13.87440        13.16015
     2017.39171       -17.25833        16.76460
     2017.39356        23.98935         8.78682
     2017.39630         4.02844         8.59219
     2017.39904       -13.34147         8.50143
     2017.40177        -7.49539         8.50317
     2017.40430        -1.03391        15.29140
     2017.40689       -21.02857        29.61841
     2017.40982       -28.03881        17.15995
     2017.41274        -5.56504         8.60965
     2017.41546       -11.14794         8.47175
     2017.41820         0.16215         8.93431
     2017.42094        -3.61076         8.62274
     2017.42368       -19.79267         8.65939
     2017.42642        -6.22858         8.61052
     2017.42915        -0.72749         8.58085
     2017.43189        -8.16440         9.40908
     2017.43463         3.13669         8.52325
     2017.43737        14.12678         8.69518
     2017.44010         7.02287         8.66899
     2017.44286         5.04093         8.59132
     2017.44558        -5.82095         8.75627
     2017.44832         2.86614         8.60354
     2017.45106        14.62723         8.72572
     2017.45379         7.02732        10.45027
     2017.45653         2.02141         8.55641
     2017.45927       -12.79250         8.57474
     2017.46201        -0.85541         8.59045
     2017.46475         0.66168         8.76063
     2017.46748       -10.54723        14.64207
     2017.47022        -6.41014         9.46494
     2017.47296        -9.37406         8.75889
     2017.47570       -11.92897         8.66027
     2017.47843        -7.24188         8.50928
     2017.48117       -10.96379         8.74667
     2017.48391         1.18030         8.85838
     2017.48665        10.68539         9.53738
     2017.48939         0.69548         8.54594
     2017.49212        -3.57343         8.65678
     2017.49486        -2.20334         9.17257
     2017.49760         2.39875         8.63409
     2017.50034         0.37784         9.00064
     2017.50308        18.79093         9.06959
     2017.50581         5.11102         8.71176
     2017.50855         5.05011         8.96049
     2017.51129        -1.89980         8.74580
     2017.51403        -5.08771         8.91075
     2017.51676         7.37638         8.80427
     2017.51950        -0.10453         8.69169
     2017.52224         6.30956         8.65765
     2017.52458         6.37336         9.33839
     2017.53045         5.99983         8.87584
     2017.53319        -1.92908         8.60790
     2017.53490        -8.11015        15.42755
     2017.54234       -33.57649        25.72247
     2017.54414         7.97927         8.80951
     2017.54688         6.51336         8.76151
     2017.54962         2.71045         8.93518
     2017.55236         8.99054         8.78682
     2017.55509        -2.24037         8.75103
     2017.55783        -0.29928         9.04602
     2017.56057        -8.31019         9.13417
     2017.56331         2.48090         8.69780
     2017.56605        -0.59201         8.70740
     2017.56878       -14.38092         8.75452
     2017.57152        -3.03083         9.01198
     2017.57426        -1.84774         8.81125
     2017.57700         1.49435         8.82173
     2017.57974        -1.88956         8.63845
     2017.58247        -1.60847         9.19264
     2017.58521        -7.62938         8.83133
     2017.58795         1.68271         8.78420
     2017.59069        -7.05220         8.71874
     2017.59342         2.54589         8.60616
     2017.59616        -1.19302         8.66812
     2017.59890        -1.40793         8.56339
     2017.60164         7.57416         8.81125
     2017.60438         4.57525         8.80776
     2017.60711         0.45934         8.73271
     2017.60985        -6.03057         9.60196
     2017.61259         8.63852         8.88195
     2017.61533         6.41861         9.05999
     2017.61807        19.59769         9.03380
     2017.62080         1.63978         8.58085
     2017.62354        -1.55213         8.51976
     2017.62628         3.97296         8.75103
     2017.62902        19.29405         8.69169
     2017.63175        -0.53786         8.76936
     2017.63449        10.57823         8.60965
     2017.63723         9.65132         8.73620
     2017.63997        11.08741         8.56601
     2017.64271         2.00650         8.69954
     2017.64544        22.87759         8.90027
     2017.64818        -0.85532        13.22299
     2017.65092         6.89377         8.54768
     2017.65269        18.17260        15.07234
     2017.65749        -1.15901        17.38686
     2017.65913         8.73804         8.68296
     2017.66187        15.94313         8.63234
     2017.66461        19.74522         8.78332
     2017.66735         6.89031         8.59568
     2017.67008        19.27240         8.54768
     2017.67282         7.35349         8.80514
     2017.67556         4.53558         8.66376
     2017.67830         2.58667         8.54245
     2017.68104         8.09176         8.73009
     2017.68375         2.31488         9.78437
     2017.68661        16.75876         9.07657
     2017.68925        28.04002         8.57474
     2017.69199        24.09811         8.58521
     2017.69472         6.34520        10.28445
     2017.69746        15.34829         8.63845
     2017.70020        10.66338         8.67336
     2017.70294        12.91547         8.39583
     2017.70568         0.88056         8.49794
     2017.70841        20.77865         8.43074
     2017.71115        10.99374         8.49881
     2017.71389        30.59883         8.74056
     2017.71663        13.67692         8.57212
     2017.71937        13.88701         8.38012
     2017.72210        13.44910         8.45255
     2017.72484         9.98119         8.63932
     2017.72758         4.03228         8.62710
     2017.73020        16.29657        13.30241
     2017.73305        16.67246         9.25635
     2017.73579         6.71755         8.61139
     2017.73853        10.87464         8.77111
     2017.74133         6.79563        10.43194
     2017.74401        19.17282         8.75278
     2017.74669         8.48901         8.97969
     2017.74971       -16.04941        14.81575
     2017.75228        11.87798        40.68397
     2017.75496        10.61518        10.76621
     2017.75770        12.53627         9.69185
     2017.76043       -25.52565        35.51294
     2017.76317        19.37344         8.62012
     2017.76591        11.55953         8.78682
     2017.76865        18.52362         8.64369
     2017.77138         9.42571         8.62012
     2017.77412        14.37280         8.70129
     2017.77686        13.14689         8.76587
     2017.77960         4.58198         8.57997
     2017.78234         1.50507         8.57212
     2017.78507         9.62916         8.66289
     2017.78781        -3.92375         8.64281
     2017.79055         5.32234         8.49881
     2017.79329        12.62043         8.69954
     2017.79603         9.14052         8.72921
     2017.79871        10.94671        10.42147
     2017.80150        19.04670         9.89608
     2017.80424        16.86079         8.62885
     2017.80698        16.19988         8.65329
     2017.80971        -3.75403         8.41677
     2017.81245       -17.53794         8.45081
     2017.81519        -7.64885         8.53546
     2017.81793        -5.13876         8.51016
     2017.82067        -3.05067         8.61314
     2017.82340         7.82142         8.49183
     2017.82512        -1.91665        21.85795
     2017.82998        12.40663        17.93495
     2017.83162        12.62068         8.75103
     2017.83436         7.08177         8.63845
     2017.83709        -5.41714         8.47437
     2017.83983       -16.02605        11.12403
     2017.84257        -3.45496         8.53634
     2017.84531        10.71213         8.61314
     2017.84804         0.21922         8.55117
     2017.85078         9.79831         8.75627
     2017.85352         2.94040         8.53721
     2017.85626        -0.97851         9.00151
     2017.85900        -4.27442         9.17781
     2017.86173         8.55867         8.61314
     2017.86447         5.96476         8.67161
     2017.86647         6.21018        13.39056
     2017.87097         0.22110        15.10725
     2017.87269         8.90403         8.77983
     2017.87542         0.13912         8.54245
     2017.87816        12.86921         8.52761
     2017.88090         3.00130         8.42812
     2017.88364         3.23239         8.48659
     2017.88637        -0.41052         8.69169
     2017.88911        -5.81043         8.48659
     2017.89185        24.52166         8.69692
     2017.89459         4.99075         8.59918
     2017.89733        14.83984         8.52325
     2017.90006         5.59293         8.51016
     2017.90280        -9.69499         8.41328
     2017.90554        11.25510        13.39230
     2017.90828         2.65219         8.63845
     2017.91102         0.53328         9.22232
     2017.91375         4.51537         9.08704
     2017.91649         1.24446         8.44034
     2017.91923         6.59755         8.38012
     2017.92197         4.30964         8.65503
     2017.92470        -4.12527         8.36702
     2017.92744        -4.42718         8.65241
     2017.93018        -6.83309         8.34608
     2017.93292       -10.55800         8.34171
     2017.93566        -5.25991         8.40804
     2017.93839         3.05318         8.36702
     2017.94113        -4.23073         8.66987
     2017.94387        -4.06964         8.51365
     2017.94661        -0.20255         8.40543
     2017.94935        -8.23646         8.46652
     2017.95208        -0.32637         9.21359
     2017.95482         2.10572         8.45692
     2017.95756         2.00781         8.36790
     2017.96030        -1.09110         8.34259
     2017.96303         2.07799         8.41590
     2017.96577        -0.59792         8.36790
     2017.96851       -15.37283         8.54506
     2017.97125        -1.06074         8.39059
     2017.97399       -10.05566         8.37139
     2017.97672       -15.78457         8.40106
     2017.97946        -9.50748         8.57910
     2017.98220        -5.47739         8.49357
     2017.98494        -7.50030         8.47525
     2017.98767        -4.17221         8.32164
     2017.99041       -10.89612         8.44644
     2017.99315        -6.59503         8.43248
     2017.99589       -14.07694         8.65852
     2017.99766       -24.36411        16.14931
     2018.00457       -20.26051        10.29841
     2018.00684       -18.66258         8.41415
     2018.00958         0.52151         8.56077
     2018.01232         3.48260         8.64107
     2018.01505         6.87169         8.51626
     2018.01779        11.76978         8.49270
     2018.02053         8.38287         8.44644
     2018.02327         7.76796         8.42550
     2018.02600         6.47605         8.40717
     2018.02874        -1.10486         8.35044
     2018.03148        -8.36377         8.38273
     2018.03422       -12.06368         8.40804
     2018.03696       -14.53659         8.52848
     2018.03969       -14.39250         8.47175
     2018.04243        -3.73341         8.38622
     2018.04517        -0.33232         8.44644
     2018.04791         3.84976         8.49881
     2018.05065         3.07585         8.45517
     2018.05338         2.22794         8.48135
     2018.05612        -3.19397         8.38710
     2018.05886        -9.63988         8.42899
     2018.06160        -4.22579         8.39233
     2018.06433         3.33330         8.82871
     2018.06707         7.23839         9.22232
     2018.06981        -2.05952         8.81474
     2018.07255       -11.58543         8.68732
     2018.07529       -11.76934         8.73707
     2018.07802       -13.16625         8.73532
     2018.08076         2.21584         8.77460
     2018.08350        -6.72007         8.57997
     2018.08624        -9.50698         8.73183
     2018.08898       -12.34489         8.72223
     2018.09171        -6.65880         8.77634
     2018.09445         0.39629         8.79554
     2018.09719        -5.98362        15.02259
     2018.09993       -10.30053         8.80165
     2018.10266       -15.77444         9.04951
     2018.10540        -6.95835         8.87235
     2018.10814       -10.26526         8.92733
     2018.11088       -10.31817         9.01984
     2018.11362        -3.28008         8.81998
     2018.11635       -10.01299         8.95351
     2018.11909        -8.71091         9.11148
     2018.12183         3.87318         8.84354
     2018.12457         2.31727         8.83133
     2018.12731        -9.62864         8.71787
     2018.13004         1.78345         8.88893
     2018.13278        -4.74546         8.90289
     2018.13552         0.48863         9.06260
     2018.13826        -2.37928         8.79031
     2018.14099        -3.19319         8.65939
     2018.14373        -4.25610         8.70565
     2018.14647        -0.28101         8.73271
     2018.14921         1.08608         8.75103
     2018.15195         9.15617         8.67074
     2018.15468         1.99026         8.75540
     2018.15742        -3.21865         8.79554
     2018.16016        -3.45956         8.72834
     2018.16290        -5.84847         9.60196
     2018.16564        -8.63638         9.56880
     2018.16837        -2.37529         8.65765
     2018.17111        -8.69020         8.71351
     2018.17385        -7.12511         8.66114
     2018.17659        -7.47502         8.83307
     2018.17931        -2.26890         8.88282
     2018.18206         0.52316         9.26683
     2018.18480        16.00125         9.21272
     2018.18754        -1.18866         8.78856
     2018.19028        -9.78058         8.69954
     2018.19301        -7.53149         8.56165
     2018.19575         1.25260         8.68470
     2018.19849         5.07669         8.82783
     2018.20123        14.49578         8.63496
     2018.20397         0.70187         8.70478
     2018.20670        -3.25804         8.77198
     2018.20944        -4.21095         8.92209
     2018.21218       -10.62186         8.83394
     2018.21492       -16.98877         8.84442
     2018.21765        -4.23568         8.34782
     2018.22039        -7.16559         8.41241
     2018.22313       -10.54850         8.40368
     2018.22587        -8.88641         8.43684
     2018.22861       -12.38732         8.28848
     2018.23134        -6.60623         8.34171
     2018.23408        -3.83514         8.39059
     2018.23682        -2.93205         8.34608
     2018.23956       -11.37996         8.32426
     2018.24230       -10.56487         8.40193
     2018.24503       -14.25278         8.28150
     2018.24777        -8.24469         8.35132
     2018.25051        -2.58660         8.36615
     2018.25325       -12.06051         8.38186
     2018.25598        -8.48742         8.30331
     2018.25872        -6.90333         8.23088
     2018.26146        -7.62625         8.28673
     2018.26420        -2.24016         8.32077
     2018.26694       -16.49107         8.28586
     2018.26967       -12.81798         8.27451
     2018.27241       -12.00589         9.16821
     2018.27464        -6.93588        11.61364
     2018.27795         5.41818        10.58817
     2018.28062        -4.42562         8.42724
     2018.28336        -6.46153         8.45517
     2018.28610        -8.72144         8.35917
     2018.28884        -3.71735         8.25706
     2018.29158         2.14674         8.41677
     2018.29431        -6.80517         8.54419
     2018.29705        -8.67608         8.52150
     2018.29979       -12.26899         8.55292
     2018.30247        -1.44880         8.57736
     2018.30527       -13.91582         8.36441
     2018.30800       -16.13472         8.47350
     2018.31074        -9.64063         8.62012
     2018.31348         0.42246         8.60005
     2018.31622       -11.67245         8.42463
     2018.31895        -2.70436         8.93955
     2018.32169        -0.23127         8.47699
     2018.32443        -6.39318         8.58521
     2018.32717       -11.01009         8.50317
     2018.32991       -12.92900         8.45517
     2018.33264       -10.23092         8.43248
     2018.33538        -7.01983         9.23366
     2018.34095        -8.11981         8.88107
     2018.34360       -13.88556         8.54681
     2018.34633       -14.33947         8.50055
     2018.34907       -12.97738         8.52150
     2018.35181       -13.00729         8.54594
     2018.35455        -5.50420         8.72921
     2018.35728        -5.39211         8.75365
     2018.36002        -7.88402         8.57387
     2018.36276        -5.60093         8.88456
     2018.36550        -6.11784         8.70303
     2018.36824         3.46825         9.65433
     2018.37097        -8.37166         8.74056
     2018.37371        -3.33457         8.81300
     2018.37645       -14.15448         9.63687
     2018.37919       -11.92739         8.58085
     2018.38193        -4.64130         8.83744
     2018.38466        -6.15121         8.68470
     2018.38740        -8.30612         8.81125
     2018.39014        -8.45803         8.79031
     2018.39288         5.50006         8.59918
     2018.39561        -5.19585         8.71263
     2018.39835        -9.30776         8.90987
     2018.40109         4.29333         8.63758
     2018.40383        -7.10758        14.91350
     2018.40657         2.68550         8.57387
     2018.40930        10.56759         8.89155
     2018.41204        -3.10332         8.57387
     2018.41478         0.12177         8.54332
     2018.41752         4.95186        10.05754
     2018.42026         3.91595         8.91860
     2018.42299        -2.11196         8.76674
     2018.42573         3.56313         8.53023
     2018.42836        -3.74458         8.65241
     2018.43394         1.93440         9.03380
     2018.43668        -0.64251         8.78158
     2018.43942         5.66958         8.65939
     2018.44216         7.55867         8.45954
     2018.44490         5.60176         8.52150
     2018.44763         3.45285         8.53808
     2018.45037         5.55194         8.74754
     2018.45311       -15.60097         8.43248
     2018.45585         4.81712         8.50928
     2018.45859         1.72721         8.65416
     2018.46132        -0.73070         8.70390
     2018.46406        -5.29261         8.70216
     2018.46680        -3.64852         8.62187
     2018.46954        -1.02043         8.47175
     2018.47227         9.70266         8.84005
     2018.47501        11.21475         8.38884
     2018.47775         0.12183         8.48310
     2018.48049         1.90792         9.53389
     2018.48323         7.36601         8.55379
     2018.48596         3.55610         8.58783
     2018.48870        -3.70381         8.40892
     2018.49144         2.07428         8.48135
     2018.49418         8.25937         9.18304
     2018.49692        -0.04654         9.03380
     2018.49965        10.41355         8.55990
     2018.50239        -0.62236         8.44732
     2018.50513        -4.14527         8.36790
     2018.50787        -0.00618         8.85489
     2018.51060         3.79491         8.81823
     2018.51334       -15.79000         9.15861
     2018.51608        -2.95791         8.53197
     2018.51882         0.97818         8.51452
     2018.52156         4.36427         8.75278
     2018.52429        -6.05064         8.59132
     2018.52703         3.07845         8.96049
     2018.52977        -3.01546         8.67161
     2018.53251         0.03163         8.90202
     2018.53525         3.21672         8.53459
     2018.53798        10.27381        14.18825
     2018.54072        -4.30110         8.53546
     2018.54346         4.27699        10.13259
     2018.54620        11.32208         8.76500
     2018.54893         3.41416         8.69692
     2018.55167         0.79125         8.59394
     2018.55441         6.69434         8.62448
     2018.55715        -0.67157         8.49619
     2018.55989         6.36652         9.47192
     2018.56262         6.03661         8.50317
     2018.56536         5.27570         8.55641
     2018.56810        14.37679         8.76762
     2018.57084        -3.82512         8.37488
     2018.57357         1.88497         8.67336
     2018.57631        -0.25894         8.47786
     2018.57905        -0.43485         9.28865
     2018.58179        -4.10376         8.67772
     2018.58453        -0.52467         9.14639
     2018.58726        11.72942         8.62536
     2018.59000        10.67251         8.47437
     2018.59274         9.44260         8.42375
     2018.59548        -0.02431         8.57736
     2018.59822         6.78678         8.80165
     2018.60095         2.26287         8.49445
     2018.60369         1.21996         8.57212
     2018.60643         3.13505         8.60005
     2018.60917        14.43714         8.71787
     2018.61190         8.39923         8.69169
     2018.61464         2.11632         8.47001
     2018.61738        10.81241         8.31902
     2018.62012         4.18749         8.50317
     2018.62286         5.22158         8.71351
     2018.62559         1.74667         8.58958
     2018.62833         1.03676         8.48485
     2018.63107         5.02485         8.47350
     2018.63381         9.24794         9.52080
     2018.63655        -5.67097         8.60703
     2018.63928         7.94912         8.55379
     2018.64202         9.83221         8.38884
     2018.64476         5.84130         8.74231
     2018.64750         8.89039         8.36790
     2018.65023        20.88948         9.65345
     2018.65297        12.47657         8.46826
     2018.65571         0.45266         8.57736
     2018.65845         2.97275         8.45866
     2018.66119        23.31384         8.61488
     2018.66392        11.24993         8.53721
     2018.66666         6.02302         8.59568
     2018.66940         6.94711         8.49532
     2018.67214        -0.14780         8.50841
     2018.67488         4.95029        10.40663
     2018.67761        11.89538         8.54856
     2018.68035         0.97747         8.83656
     2018.68309         3.35456         8.90725
     2018.68583        21.49665         9.00151
     2018.68856         6.16674         8.53285
     2018.69130        22.35782         8.44557
     2018.69404         7.56491         8.53634
     2018.69678         9.95900         9.26334
     2018.69952         6.95909         8.55030
     2018.70225         0.54018         8.97795
     2018.70499        -1.77973         8.59830
     2018.70773        15.73636         8.67598
     2018.71047         2.37045         8.67074
     2018.71321         0.34054         8.58870
     2018.71594         2.61863         8.52936
     2018.71868        -2.45728         8.49619
     2018.72142         4.95781         8.60790
     2018.72416        13.99390         8.51365
     2018.72689         0.37699         8.55292
     2018.72963         6.11008         8.60528
     2018.73237        -3.33283         8.60703
     2018.73511         5.64026         8.67074
     2018.73785         0.70735         8.63409
     2018.74058        -2.62756         8.62798
     2018.74332         2.28953         8.55467
     2018.74606        10.16062         8.86536
     2018.74880         4.44371         8.50492
     2018.75154        -0.65620         8.70478
     2018.75427         0.30489         8.39408
     2018.75701        -1.68402         8.27626
     2018.75975        -2.74993         8.39583
     2018.76249         4.84015         8.47525
     2018.76522         2.09524         8.59656
     2018.76796         3.14933         8.47263
     2018.77070         6.11742         8.31466
     2018.77344         8.34351        10.52009
     2018.77618         1.13760         8.34608
     2018.77891        14.43669         8.44732
     2018.78165         3.21478         8.49881
     2018.78439         8.47087         8.68034
     2018.78713        -2.58604         8.55554
     2018.78987        -0.53195         8.52412
     2018.79260         2.94214         8.57561
     2018.79534        14.28923         8.54157
     2018.79808        -2.19168         8.47612
     2018.80082        10.89641         8.52237
     2018.80355         3.14350         8.40368
     2018.80629         9.19659         8.50055
     2018.80903        13.67968         8.70129
     2018.81145         5.15233        10.28358
     2018.81506        -0.06713        21.38143
     2018.81724        -2.40905         8.42026
     2018.81998        10.61704         8.68907
     2018.82272         6.68113         8.80951
     2018.82546         8.96322         8.52761
     2018.82820         6.84331         8.43772
     2018.83093         2.36040         8.49008
     2018.83367         8.71049         8.34259
     2018.83641        21.50657         8.53197
     2018.83915         8.01066         8.53285
     2018.84188        11.64175         8.37662
     2018.84462         7.15884         8.44732
     2018.84736         0.24693         8.43597
     2018.85010         0.20902         8.40106
     2018.85284         5.25311         8.62710
     2018.85557         1.51620         8.61488
     2018.85831        -1.50571         8.43423
     2018.86105        -9.09062         8.51452
     2018.86379        -1.99553         9.00238
     2018.86653         2.05356         8.46739
     2018.86926         5.02465         8.57037
     2018.87200         1.92574         8.52499
     2018.87474         0.74083         8.63234
     2018.87748        -2.95108         8.78158
     2018.88021        -1.10599         8.79205
     2018.88295        -3.53390         8.81562
     2018.88569         2.11519         8.93344
     2018.88843         9.29128         9.06871
     2018.89117         2.98937         8.85402
     2018.89390        -1.14154         8.69692
     2018.89664        -1.80745         8.84704
     2018.89938        -0.74236         8.94566
     2018.90212         4.70773         9.09315
     2018.90485         5.76182         8.91947
     2018.90759        10.93390         8.78856
     2018.91033         0.97999         8.85664
     2018.91307        13.86108         8.74841
     2018.91581         9.79817         8.94478
     2018.91854        12.23426         8.91336
     2018.92128         3.25435         8.85751
     2018.92402         1.07844         8.59918
     2018.92676        -2.34147         8.76238
     2018.92950         2.33462         8.80340
     2018.93223        -4.64729         8.97271
     2018.93497        -3.15520         8.79467
     2018.93771        -5.84411         8.90725
     2018.94045         2.17798         8.74405
     2018.94318         4.17107         8.55990
     2018.94592        11.90316         8.41939
     2018.94866         5.53125         8.51539
     2018.95140        21.67134         8.43946
     2018.95414        12.22643         8.26579
     2018.95687        11.70052         8.55728
     2018.95961         6.32361         8.62012
     2018.96235        12.00970         8.41415
     2018.96509         1.57179         8.50754
     2018.96783         5.63588         8.51539
     2018.97056        13.65497         8.41939
     2018.97330        -1.08994         8.53285
     2018.97604        -3.53785         8.52412
     2018.97878         0.51223         8.38186
     2018.98151        -9.01668         8.41241
     2018.98425        -1.75959         8.53285
     2018.98699        -9.80150         8.64281
     2018.98973        -9.20141         8.78682
     2018.99247        -1.19132         8.77809
     2018.99520         0.43877         8.83220
     2018.99794        -6.03014         8.88020
     2019.00068        -0.62205         8.96398
     2019.00342        -7.56096         8.90987
     2019.00616         2.10513         8.59918
     2019.00889         3.97622         8.74929
     2019.01163         5.00831         8.60179
     2019.01437         8.51540         8.64543
     2019.01711         8.75849         8.61838
     2019.01984        -3.41842         8.72049
     2019.02258        -3.68633         8.66114
     2019.02532       -10.52624         8.45081
     2019.02806        -0.03515         8.38012
     2019.03005       -18.44273        14.29647
     2019.03901        -3.81479         8.32077
     2019.04066       -18.85276        15.61955
     2019.04722       -27.51352        16.92082
     2019.04945       -29.06051        11.11618
     2019.05914       -16.50991        24.14629
     2019.06091        -6.11108         8.84354
     2019.06365        -4.32899         9.03817
     2019.06639        -9.58090         9.14988
     2019.06913        -2.26081         9.67614
     2019.07186        -5.74772         9.72676
     2019.07460        -8.03363         8.35568
     2019.07734        -7.89154         8.54419
     2019.08008        -1.45445         8.53896
     2019.08282        -4.67936         9.57316
     2019.08555        -2.59727         8.43510
     2019.08829        -2.88918         8.29459
     2019.09103         4.70491         8.40281
     2019.09377        -1.94900         8.46303
     2019.09650         6.64509         8.47874
     2019.09924         1.44818         8.38273
     2019.10198        -3.02573         8.30331
     2019.10472        -7.79164         8.47786
     2019.10746        -8.69655         8.43161
     2019.11019        -4.66646         8.40630
     2019.11293         3.87563         8.55467
     2019.11567         3.94872         8.42026
     2019.11841        16.56381         8.25008
     2019.12115        13.36889         8.34782
     2019.12388        -2.92802         8.54157
     2019.12662        -2.00193         8.62710
     2019.12936       -12.83084         8.41066
     2019.13210         2.19425         8.39233
     2019.13483        -3.58166         8.30855
     2019.13757        -6.50657         8.67336
     2019.14031        -1.88648         8.57212
     2019.14305         3.04061         8.52586
     2019.14579        -4.86230         8.43161
     2019.14852        -0.16721         8.43248
     2019.15126         5.46988         8.35219
     2019.15400        -3.97903         8.68558
     2019.15674        -3.10394         8.50143
     2019.15948        -4.89185         8.66899
     2019.16221       -12.26176         9.33665
     2019.32648       115.32962        14.49458
     2019.38672       139.04759        12.00987
     2019.48802       129.66790         9.24152
     2019.85489         2.74891         8.92820
     2019.85763         3.54500         9.01635
     2019.86036        -4.48491         9.08879
     2019.86310        -9.24982         9.10537
     2019.86584        -8.96673         9.07570
     2019.86858        -1.04964         9.05475
     2019.87132        10.59345         9.05213
     2019.87405        -1.13946         9.18042
     2019.87679         9.50763         9.17344
     2019.87953         3.40472         9.01984
     2019.88227         6.37181         8.84791
     2019.88501         8.84890         9.53912
     2019.88774        -0.18601        10.23819
     2019.89048         4.00808         9.06086
     2019.89322         4.22317         9.11759
     2019.89596        -3.05074         8.98667
     2019.89869         0.35035         9.17170
     2019.90143         4.97444         8.92122
     2019.90417        -3.42247         9.81229
     2019.90691         1.14362         8.97097
     2019.90965         2.32770         9.61069
     2019.91238         5.51879         9.17519
     2019.91512         4.81688         9.23104
     2019.91786         4.60097         9.03380
     2019.92060         5.20306         8.98318
     2019.92607        -0.90076         9.02508
     2019.92877         2.44340         9.29737
     2019.93155         6.43242         9.17693
     2019.93429         5.24151         9.00151
     2019.93702         2.78660         8.97446
     2019.93976         2.06069         9.07308
     2019.94250        -7.16222         9.10362
     2019.94524         2.07187         9.11410
     2019.94798        -7.92104         8.97620
     2019.95071        -7.06295         8.85838
     2019.95345         5.83814         8.99802
     2019.95619         4.32923         8.97882
     2019.95893        -0.16168         9.14377
     2019.96167        -2.52859         9.12021
     2019.96440        11.51750        10.17274
     2019.96714        -5.81341         9.97201
     2019.96988        -5.48132         8.90813
     2019.97262        -8.58823         9.08442
     2019.97535        -0.41214         9.05475
     2019.97809        -6.86605         8.99628
     2019.98083        -9.03897         9.04515
     2019.98357        -8.74588         9.00849
     2019.98631        -8.74679         9.35672
     2019.98904        -4.10070         9.19264
     2019.99178        -8.62161         8.96660
     2019.99452        -7.02652         8.92558
     2019.99726         2.40757         8.96398
     2020.03011        -3.85935         9.07744
     2020.03285        -6.42826         9.09140
     2020.03559        -1.52717         9.07570
     2020.03833        -2.02808         8.98755
     2020.04106        -7.48299        10.35689
     2020.04380        -8.34590        10.36387
     2020.04654        -1.44381         9.15948
     2020.04928       -10.75772         9.07744
     2020.05201        -7.19763         8.88369
     2020.05475        -1.53655         9.00500
     2020.05749        -1.65446         8.85053
     2020.06023        -7.00237         8.89067
     2020.06297        -6.55428         9.05737
     2020.06519         1.50073        11.67299
     2020.07218        -0.07680        24.80783
     2020.07392         3.86008         8.89155
     2020.07666         6.58517         9.06871
     2020.11878         0.93061        23.70555
     2020.12046         6.98561         9.20312
     2020.12320        -4.91030         9.11759
     2020.12594        -4.67222         9.23977
     2020.12867        -5.90713         9.10973
     2020.13141        -2.06204         9.15599
     2020.13415        -3.44695         9.13504
     2020.13689        -5.20686         9.72938
     2020.13963        -4.61177         9.98946
     2020.14236         0.44232         9.46058
     2020.14510        -0.90659         9.12195
     2020.14784         0.96450         9.05388
     2020.15058       -14.63741         9.15424
     2020.15331        -3.07032         9.22319
     2020.15605        -9.95423         9.32268
     2020.15879        -6.14514         9.21010
     2020.16153         0.51895         9.21970
     2020.16427        -2.78096         9.09053
     2020.22176       -13.74008         9.78873
     2020.22450       -10.60399         9.81491
     2020.22724         1.28710         9.71542
     2020.22997        -6.00081         9.83760
     2020.23271         5.79828         9.90393
     2020.23545        -2.76063         9.56443
     2020.23819        -9.95554         9.74946
     2020.24093        -7.13745         9.79135
     2020.24355       -11.66516        16.63630
     2020.24914       -10.03218        10.17623
     2020.25188        -9.11109         9.64996
     2020.26009        -0.45182         9.73898
     2020.26283        -9.52473        16.34742
     2020.26483         3.78869        13.18197
     2020.26932        -8.30538        18.25961
     2020.28574       -33.64783        40.27291
     2020.28747        -0.79393         9.79920
     2020.29021        -4.10484         9.87775
     2020.29277        -4.62544        10.43980
     2020.33624         7.42061        12.66007
     2020.34322       -21.74392        20.23464
     2020.34417        -4.81461        13.44554
     2020.49828         3.02197        10.91195
     2020.50102        -3.61594        10.85872
     2020.50376       -66.05085       104.40148
     2020.50650         9.04524        19.02152
     2020.50924        -5.97567        10.89101
     2020.51197        -7.52258        10.80199
     2020.51471        -0.65249        10.83603
     2020.51745         1.30860        10.91195
     2020.52019        10.54769        11.18774
     2020.52292        -6.41022        12.76916
     2020.52566        20.54087        13.24306
     2020.52840        23.93096        14.04337
     2020.53114         3.75905        12.98560
     2020.53388        12.20214        12.78400
     2020.53542       -23.49462        78.39798
     2020.54029        18.56164        34.72224
     2020.54203       -14.42949        13.41063
     2020.54602         1.29736        60.80253
     2020.54757        12.41559        13.11128
     2020.55030        13.71668        12.59287
     2020.55304        25.82777        12.10587
     2020.55578        21.79185        12.00202
     2020.55852        14.95494        12.10762
     2020.56125        28.53503        12.54399
     2020.56399         9.60912        12.10500
     2020.56673         7.23021        11.93918
     2020.56947        22.78630        11.62499
     2020.57221        26.49039        12.01074
     2020.57494        29.66848        12.33366
     2020.57768        21.27757        11.95751
     2020.58042        14.57666        11.92958
     2020.58316        10.98975        12.24115
     2020.58590        19.97284        11.63459
     2020.58863        35.43093        11.99852
     2020.59137         9.87602        11.89030
     2020.59411        22.52411        11.64157
     2020.59673        18.55140        13.54241
     2020.60049        77.77667        45.41775
     2020.60871        50.75193        32.57266
     2020.61054        23.12365        14.43785
     2020.61327        14.47974        11.63372
     2020.61601        15.05583        11.48797
     2020.61875         3.95392        11.86674
     2020.62149         2.28801        12.00812
     2020.62423        -2.38090        11.82136
     2020.62696         5.88118        11.76812
     2020.62970       -10.38973        11.92434
     2020.63244       -10.47764        12.33540
     2020.63518        19.95645        12.21235
     2020.63786       -10.73035        13.78504
     2020.64068        14.98659        12.34239
     2020.64339         3.46472        11.57350
     2020.64613        23.03981        11.97321
     2020.64887        16.03790        11.66339
     2020.65160        -8.15101        11.69655
     2020.65434        10.02508        11.70441
     2020.65708         6.88917        11.38847
     2020.65982        12.48626        11.80914
     2020.66256         9.20335        11.81350
     2020.66529        12.56944        11.69830
     2020.66803        -7.38147        11.89816
     2020.67077        39.56562        12.29962
     2020.67351        12.49871        12.04653
     2020.67624        -4.96220        12.30922
     2020.67898        16.21689        12.93760
     2020.68172       -13.52302        11.89292
     2020.68446        15.97607        11.97845
     2020.68720       -12.04384        11.83270
     2020.68993         6.50325        11.84579
     2020.69267         4.64334        11.95838
     2020.69541        -9.11157        11.96449
     2020.69815        12.65951        12.21235
     2020.70089         5.67860        11.87459
     2020.70362       -13.24131        11.71139
     2020.70636       -19.05522        12.14864
     2020.70910       -27.81113        12.18180
     2020.71184        -7.43504        12.14340
     2020.71457         2.70905        12.48988
     2020.71731        -4.39086        12.08056
     2020.71925         9.87166        21.69387
     2020.72373       -18.77738        21.73402
     2020.72553         2.18041        12.13031
     2020.72826        -3.03450        12.26122
     2020.73100        13.12359        12.31271
     2020.73374        14.55968        12.45235
     2020.73648         1.46377        12.28479
     2020.73921        -8.39114        12.07358
     2020.74195        -8.39305        12.29264
     2020.74469        -1.33996        12.37904
     2020.74743         2.01113        12.36071
     2020.75017         0.76322        12.47679
     2020.75290         2.25931        11.70354
     2020.75564         4.86140        12.46806
     2020.75838        13.66449        12.04827
     2020.76112        17.13058        12.19227
     2020.76386         3.50267        12.06136
     2020.76659        10.49676        11.88594
     2020.76933        19.62384        34.77460
     2020.77207        10.64193        12.10413
     2020.77481        17.50402        12.23242
     2020.77754         3.44011        11.93743
     2020.78028         5.41320        11.68084
     2020.78302        -3.49171        12.04478
     2020.78576         6.18638        12.06485
     2020.82683         0.60673        12.19053
     2020.82956         7.71382        12.48726
     2020.83230        -1.11109        12.31795
     2020.83504        -9.77800        12.19926
     2020.83778         4.37109        12.42355
     2020.84052        -3.77783        12.14602
     2020.84325        -3.62174        12.24813
     2020.84599       -13.24665        12.52741
     2020.84873         8.70344        12.47941
     2020.85147        -8.02047        12.44101
     2020.85420        -3.77338        12.30224
     2020.85694         6.66971        12.12507
     2020.85968         0.30880        13.10080
     2020.86242         0.86089        13.85922
     2020.86516         3.71098        13.60787
     2020.86784         5.88517        13.76846
     2020.87064        20.76314        13.51012
     2020.87337         6.93125        13.66809
     2020.87611        14.48134        13.59391
     2020.87885         0.05643        13.94562
     2020.88158         2.39052        16.49317
     2020.88432         5.54561        14.32178
     2020.88706        -7.82730        13.28408
     2020.88894       -12.99768        16.49404
     2020.89606        27.82855       109.00085
     2020.90428        88.45182       145.15876
     2020.91718        -2.30332        13.40627
     2020.91986       -12.98412        14.22403
     2020.92539       -17.20305        13.69253
     2020.92813       -11.96896        13.79289
     2020.93086       -20.18187        13.57994
     2020.93360        -9.61878        13.40103
     2020.93634        -1.92269        13.75536
     2020.93908        -5.26560        13.81820
     2020.94182       -11.25051        13.73616
     2020.94455       -17.05142        13.75624
     2020.94731       -13.25936        13.72307
     2020.95003       -14.40424        13.75362
     2020.95278       -21.22118        13.49790
     2020.95551        45.48493       134.86907
     2020.95824         0.75903        14.07217
     2020.96098        -8.24387        13.70474
     2020.96360       -12.03259        16.25927
     2020.96575        -8.40743        17.96288
     2020.97467       -20.75443        14.64207
     2020.97741       -16.21634        14.15159
     2020.98015       -20.76725        14.30083
     2020.98288       -13.36716        14.20308
     2020.98562         1.22392        13.84264
     2020.98836       -16.38399        13.53194
     2020.99110       -10.79990        14.00846
     2020.99384        -1.12181        13.77369
     2020.99657        -7.46072        13.57994
     2020.99931        -6.22263        13.91333
     2021.00205        -9.29054        14.31567
     2021.00479        -1.77445        13.46474
     2021.00752        15.26464        15.89796
     2021.01026        10.85973        13.99799
     2021.01300         0.91082        13.60351
     2021.01574        -3.37909        13.91508
     2021.01848         2.14000        13.65413
     2021.02121        -4.85191        13.63231
     2021.02395        -1.97082        13.41587
     2021.02669        -0.27073        13.56074
     2021.02943       -13.28664        13.84089
     2021.03216        -1.86755        13.62620
     2021.03490         4.44454        13.77980
     2021.03764       -20.49237        13.53456
     2021.04038         1.84672        13.31288
     2021.04312        -9.38719        13.51710
     2021.04585        -1.64310        13.45252
     2021.04859        -3.25101        13.63754
     2021.05133        -7.43192        13.53718
     2021.05407         9.79817        13.55900
     2021.05681        -7.00875        13.21601
     2021.05954        -3.20866        13.72220
     2021.06228        -4.56657        14.15595
     2021.06502        -8.23348        13.69165
     2021.06776         2.37961        13.36525
     2021.07049         6.63870        13.61136
     2021.07323         0.42079        14.10534
     2021.07597         4.77888        15.73214
     2021.07871        -0.03203        14.18825
     2021.08145         8.55206        13.84089
     2021.08418        -1.58785        13.52321
     2021.08692         2.75124        13.90286
     2021.08966        -1.85167        13.87231
     2021.09240        -0.61458        14.09399
     2021.09514        13.25751        27.51858
     2021.09787         4.43060        16.87631
     2021.10061         9.99769        13.95260
     2021.10335         1.54178        14.10708
     2021.10609       -11.95413        14.01893
     2021.10882        -4.76404        13.95086
     2021.11156        -6.39895        13.95260
     2021.11430       -12.48286        13.94650
     2021.11704        -9.99177        13.59216
     2021.11978         0.66632        14.07392
     2021.16084       -13.16334        13.51972
     2021.16358       -11.38925        13.35128
     2021.16632       -10.30316        13.46125
     2021.16906       -18.48407        13.62969
     2021.17180        -6.34598        13.65238
     2021.17453       -12.88189        13.46561
     2021.17727       -19.64780        13.38008
     2021.18001       -14.62571        13.64714
     2021.18275       -12.43062        13.42634
     2021.18548       -18.42953        13.96657
     2021.18822       -17.12544        13.71260
     2021.19096       -10.93635        13.34605
     2021.19370        -7.40126        14.26767
     2021.19644       -13.29917        13.21339
     2021.19917       -10.97509        13.17237
     2021.20163         3.09652        30.28955
     2021.20557        -2.82555        17.50294
     2021.20739       -17.46782        12.75432
     2021.21013       -13.32873        12.82938
     2021.21286         1.53536        12.93236
     2021.21503        12.89848        21.33866
     2021.22199       -12.52700        16.03672
     2021.22381       -19.39128        13.11215
     2021.22655       -16.50219        12.56756
     2021.22929        -6.00610        12.44712
     2021.23191       -13.59481        13.06502
     2021.24555       -17.45125        13.68816
     2021.24935        -5.25208        16.27411
     2021.25119       -20.24938        12.41133
     2021.25393        -9.62529        11.93656
     2021.25667       -17.39920        12.17656
     2021.25941       -10.89911        11.96885
     2021.26214       -11.77902        11.98194
     2021.26488        -2.91993        11.64070
     2021.26762        -2.54384        15.21023
     2021.27036         8.05724        15.21809
     2021.27310        13.52933        11.79343
     2021.27583       -11.80658        11.83358
     2021.27857       -12.98449        11.79605
     2021.28131       -12.95940        11.61539
     2021.28405       -19.08031        11.84056
     2021.28679       -13.32922        12.16522
     2021.28924       -20.87962        31.31154
     2021.29868       -31.12856        19.22225
     2021.30047       -12.79977        12.01860
     2021.30321        -5.40368        11.99329
     2021.30595        21.98441        12.19053
     2021.30869        11.06850        12.07358
     2021.31143        -7.71641        12.09016
     2021.31354        12.06280        17.89829
     2021.31780       -22.31285        20.72948
     2021.31964        -8.12814        12.20798
     2021.32238         0.05895        12.66879
     2021.32512       -11.98496        12.57716
     2021.32785       -19.13187        12.58850
     2021.33059        16.12322        12.81454
     2021.35631        24.63209        91.00917
     2021.35797       -19.94589        13.45950
     2021.36031       -12.47808        18.20375
     2021.36433       -39.55929        21.09866
     2021.36618       -28.35462        13.94999
     2021.36892       -16.78353        14.21094
     2021.37530       -59.02498        22.81099
     2021.37713       -29.15026        15.55759
     2021.37987        -8.71017        14.94317
     2021.38261       -17.97708        26.80031
     2021.38415        -3.83484        71.65165
     2021.39718         4.65879        22.07090
     2021.39904       -19.50954        15.06448
     2021.40177        13.88955        14.98419
     2021.40451        -3.51636        18.20201
     2021.40725       -24.39627        15.13256
     2021.40999       -20.03918        15.27220
     2021.41273       -11.05709        14.80790
     2021.41546       -10.50301        14.54607
     2021.41820       -25.85292        15.22943
     2021.42083         4.11338        16.66772
     2021.42371         7.56921        20.49559
     2021.42642        -0.03265        15.25212
     2021.42915         1.17044        14.79655
     2021.43189        -2.03447        14.23974
     2021.43463        -9.13538        14.43349
     2021.43737         4.96371        14.68571
     2021.44010       -17.75720        15.04616
     2021.44284         3.43489        14.66128
     2021.44558        -0.73302        14.20221
     2021.44832        -7.86593        14.91350
     2021.45106        10.27416        14.60804
     2021.45379        -1.76675        16.19906
     2021.45653         6.79234        14.24585
     2021.45927        10.91543        14.19348
     2021.46201       -16.45548        14.49982
     2021.46475        -0.97139        14.30083
     2021.46748        -5.23330        14.45793
     2021.47022        -4.68221        15.63613
     2021.47296       -12.87812        18.33205
     2021.47570         6.59897        18.40012
     2021.47843        -2.01594        18.18717
     2021.48117       -21.22985        18.18543
     2021.48391       -29.45476        18.06324
     2021.48665       -30.50768        18.01524
     2021.48939        18.67941        17.82847
     2021.49218         3.82840        18.37132
     2021.49486       -36.25241        19.67695
     2021.49721       -28.33861        26.19375
     2021.50942      -151.30252        27.21050
     2021.51132        -0.15492        17.06046
     2021.51405       -15.25982        17.88171
     2021.51678         7.74228        17.34148
     2021.51952       -15.92963        18.97963
     2021.52225       -16.26354        17.82760
     2021.52499       -34.69144        19.23360
     2021.52772         8.82866        17.79007
     2021.53045        16.08876        18.90021
     2021.53319       -15.00114        18.06412
     2021.53592       -16.31005        23.35122
     2021.53867        -6.44397        23.17667
     2021.54140        18.57113        18.06673
     2021.54414         0.96921        18.71082
     2021.54688        16.85530        18.29103
     2021.54962        29.02939        18.13044
     2021.55235        -4.74852        18.68115
     2021.55509       -19.44643        18.43154
     2021.55783       -21.76835        18.87752
     2021.56057        14.00774        17.69669
     2021.56331       -16.97917        17.36330
     2021.56605        -7.90508        17.46977
     2021.56878        -1.98999        17.77175
     2021.57152       -19.79690        18.62529
     2021.57426         1.51919        17.75778
     2021.57700       -16.12072        18.32070
     2021.57974        -9.10363        18.21772
     2021.58247       -38.11854        18.63315
     2021.58521        -0.07645        18.60173
     2021.58795        17.72964        18.38703
     2021.59069        21.02873        17.84942
     2021.59342        -6.49218        18.30063
     2021.59616       -21.75609        18.06848
     2021.59890        15.71300        19.52946
     2021.60164        18.79109        18.79286
     2021.60438        -8.07082        19.08174
     2021.60711        12.78227        19.19258
     2021.60985        36.27236        18.94384
     2021.61259       -22.80755        18.51620
     2021.61533        25.82754        19.22923
     2021.61807        14.13763        19.32523
     2021.61995       -13.02875        40.17865
     2021.62442        -3.71478        37.06905
     2021.62628       -49.01910        34.74493
     2021.62902        -8.31902        27.22970
     2021.63175       -14.38493        19.51898
     2021.63449         2.95016        18.50834
     2021.63723        17.63725        18.90370
     2021.63997         0.12934        18.50485
     2021.64271        23.77643        18.88362
     2021.64544         6.94652        18.30325
     2021.64818        11.47961        18.36609
     2021.65092         9.94470        24.05203
     2021.65366        11.26579        18.20637
     2021.65639        -3.40512        18.16972
     2021.65913        47.17597        18.40536
     2021.66187        86.83906        32.00276
     2021.66461        31.93815        18.98050
     2021.66735        -4.70076        18.12608
     2021.67008        -2.19967        18.55111
     2021.67282        27.32242        39.77719
     2021.67556         3.86951        18.89759
     2021.67830        12.19460        19.00581
     2021.68104        12.34469        18.24041
     2021.68377        12.99678        19.80263
     2021.68651        17.55887        19.99114
     2021.68925       -32.95804        64.34850
     2021.69199       -40.73195        44.72042
     2021.70841        -0.77042        18.95955
     2021.71115         7.89367        18.68813
     2021.71389        12.22576        19.70575
     2021.72026        49.63634        34.73096
     2021.72210        -1.68597        18.54064
     2021.72484        25.27212        18.63838
     2021.72758         3.65921        19.22312
     2021.73032        14.80730        18.98050
     2021.73305         0.01839        19.35753
     2021.73579         0.90048        19.91347
     2021.73853         9.34057        19.25367
     2021.74127        -1.30834        20.08016
     2021.74395       -13.76815       126.57710
     2021.75148        35.07635        41.31846
     2021.76591        18.81847        19.80350
     2021.76865         3.64056        18.90195
     2021.77138         2.28565        18.89061
     2021.77412        60.23173        19.53644
     2021.77686        14.28582        19.14370
     2021.77960        14.23891        18.77104
     2021.78234         9.31100        18.68551
     2021.78507         4.70309        19.09483
     2021.78781        20.39118        19.19083
     2021.79055        -2.68673        19.15854
     2021.79329        29.72136        18.88450
     2021.79603        18.89745        18.66195
     2021.79876        11.54154        19.06167
     2021.80150        32.24263        19.36625
     2021.80424        22.20672        20.63261
     2021.80698        18.33381        18.83650
     2021.80971        20.42590        19.39069
     2021.81245        17.01699        19.46051
     2021.81519        40.57408        19.19520
     2021.81793        22.65217        20.41704
     2021.82067        19.05626        19.06777
     2021.82340         2.88035        18.83388
     2021.82614        11.07544        18.50311
     2021.82888         4.18653        19.21440
     2021.83162         2.65862        18.88275
     2021.83436         6.09571        18.92377
     2021.83709        -6.36220        18.94646
     2021.83983         0.48189        18.75271
     2021.84257       -22.79902        22.09621
     2021.84531        20.04106        18.87053
     2021.84804        20.74915        19.93354
     2021.85044       -32.94114        23.51267
     2021.85457       -52.64654        94.66773
     2021.85597         5.88693        20.88047
     2021.87542        35.03405        21.19902
     2021.87816         8.99914        19.59142
     2021.88090       -17.03377        19.20480
     2021.88364       -10.82068        18.87141
     2021.88637        -1.46859        18.86442
     2021.88911       -21.39550        19.13061
     2021.89185       -29.77641        19.56960
     2021.89459         5.90368        19.04246
     2021.89733        -8.64623        20.34635
     2021.90006        -3.29214        19.61499
     2021.90280        10.19195        19.87419
     2021.90554       -19.74696        20.04089
     2021.90828         0.63613        20.11158
     2021.91102        -3.25578        20.16482
     2021.91375       -10.00169        20.78010
     2021.91649        14.57039        19.74677
     2021.91923        12.24548        23.90017
     2021.93292        -9.19207        23.55806
     2021.93565         7.31803        23.42104
     2021.93839         9.84411        50.74849
     2021.94113       -18.58980        50.60536
     2021.94387         7.49029        23.40620
     2021.94661         5.73638        22.87731
     2021.94935        -4.80353        22.82495
     2021.95208       -20.24044        23.80243
     2021.95482       -10.35635        22.83717
     2021.95756        11.88174        23.28314
     2021.96018        -7.82297        23.45856
     2021.96325       -10.08247        28.27351
     2021.96577        -9.98199        23.44111
     2021.96851       -25.23990        22.97943
     2021.97125       -17.55581        22.79789
     2021.97399       -11.84772        22.65302
     2021.97672        -6.37563        22.71760
     2021.97946        19.35246        25.43708
     2021.98220        -4.51145        23.54322
     2021.98494        -5.55636        23.01521
     2021.98767         3.25072        22.84066
     2021.99041        -2.72019        23.37914
     2021.99315        -9.59110        23.48998
     2021.99589        -1.44601        23.33987
     2021.99863       -13.65892        23.30671
     2022.00136       -16.03083        23.39660
     2022.00410        -4.76474        23.03354
     2022.00684        -5.94365        23.22641
     2022.00958       -10.61356        23.43849
     2022.01232       -24.88947        23.58599
     2022.01505       -22.31838        23.65319
     2022.01779        -0.69829        23.64097
     2022.02053         1.47980        24.43080
     2022.02327       -16.16111        24.54862
     2022.02600       -11.03802        23.66890
     2022.02874        -6.46193        25.41963
     2022.03148       -18.89384        24.83489
     2022.03422       -20.79675        25.21279
     2022.03696       -28.44166        25.25380
     2022.03969       -17.90157        24.54426
     2022.04243         9.05552        24.46833
     2022.04517       -11.77839        25.07227
     2022.04791       -14.76730        25.96073
     2022.05065       -23.98721        25.58370
     2022.05338       -35.51912        26.36656
     2022.05612       -20.21303        25.54268
     2022.05886       -41.02695        25.10107
     2022.06160       -45.81286        24.34004
     2022.06433       -15.53377        24.77816
     2022.06707       -35.43568        24.77554
     2022.06981       -11.28559        24.30862
     2022.07255        -8.37550        16.23222
     2022.07529       -13.41141        15.95469
     2022.07802        -3.16732        16.81958
     2022.08076       -15.60823        16.49492
     2022.08350        -8.12914        17.43050
     2022.08624       -33.67205        16.76809
     2022.08898        -8.22996        16.12749
     2022.09171        -3.71387        16.66074
     2022.09445        -5.32278        17.41566
     2022.09719       -11.48669        16.62757
     2022.09993       -12.25760        16.58743
     2022.10266         5.64249        16.50190
     2022.10540         5.46858        17.67051
     2022.10814        -5.84533        17.03078
     2022.11088         3.54676        17.14424
     2022.11362       -13.97715        16.85187
     2022.11635        11.34194        16.11004
     2022.11909        -0.19297        16.04109
     2022.12183         0.70212        17.18264
     2022.12457         6.84721        16.90685
     2022.12731         1.67330        17.47065
     2022.13004         9.01539        16.59092
     2022.13278         4.91547        17.36854
     2022.13552         8.78956        16.83703
     2022.15742         5.85328        16.72183
     2022.16016        -1.69163        16.80911
     2022.16290        -1.18554        16.54292
     2022.16564         3.58755        16.81085
     2022.16837        -0.79836        17.02031
     2022.17111        -1.67127        16.22960
     2022.17385         2.59582        16.15105
     2022.17659         7.14391        16.20167
     2022.17932         4.24300        16.69478
     2022.18206        -4.48891        17.54745
     2022.18480       -25.10782        16.70088
     2022.18754       -12.01473        26.00175
     2022.19028        -2.16264        25.89353
     2022.19301        -3.42855        16.34131
     2022.19575         3.33454        16.42422
     2022.19849         2.20763        16.62583
     2022.20094        -0.38677        18.40012
     2022.20487       -66.81582        39.36961
     2022.20670       -11.18711        16.44953
     2022.20944       -14.07102        16.40153
     2022.21218        -2.36293        17.02555
     2022.21492       -18.59584        16.43732
     2022.21765       -29.75175        17.11020
     2022.22039       -10.10566        16.42073
     2022.22313       -47.59957        18.40012
     2022.22587       -45.67548        22.29432
     2022.22861       -56.41539        34.90726
     2022.23134        -7.66130        17.20795
     2022.23408        -1.13521        17.29261
     2022.23682         4.79888        17.38774
     2022.23956       -28.90803        17.90353
     2022.24230         9.22706        16.46786
     2022.24492         2.91735        22.19221
     2022.24781        14.10616        34.80776
     2022.24948       -11.91382        41.25300
     2022.25684        35.84496        35.61767
     2022.25872       -17.34040        18.07197
     2022.26146       -53.16931        17.35108
     2022.26420        -9.29922        16.41288
     2022.26694        16.66287        25.48421
     2022.26967       -17.33304        17.65305
     2022.28336       -26.28160        28.47337
     2022.28610       -25.91351        16.57608
     2022.28884       -24.89542        17.59807
     2022.29158       -11.43233        17.44272
     2022.29431         1.87276        17.48636
     2022.29705        -4.83615        16.57870
     2022.29979        -8.78506        19.20043
     2022.30253        -7.51897        16.43295
     2022.30527        -8.25888        17.82411
     2022.30800       -55.96379        19.82445
     2022.31074       -14.85570        17.12940
     2022.31348       -15.10661        17.10060
     2022.31622         1.53648        17.05173
     2022.31895         0.69957        55.87238
     2022.32169        23.85866        69.49073
     2022.32443       -10.21225        17.26904
     2022.32717       -23.76916        17.20708
     2022.32991       -14.64907        17.98731
     2022.33264        -4.04098        17.01595
     2022.33538       -31.49789        18.18455
     2022.33812         0.62620        16.89376
     2022.34063       -20.74831        29.40022
     2022.34462        32.71653        90.83113
     2022.34633        -0.63854        16.30378
     2022.34907        -7.27845        16.88591
     2022.35181         1.46164        16.45564
     2022.35455       -10.71127        17.76302
     2022.35728        -5.63818        16.41462
     2022.36002       -28.59209        16.47659
     2022.36276        -9.74500        16.54379
     2022.36550        -8.62291        16.37710
     2022.36824       -13.94982        16.61623
     2022.37097       -17.06373        16.78990
     2022.37371       -10.33364        16.73230
     2022.37645         7.95945        22.15992
     2022.37924       -11.82156        16.74103
     2022.38193       -15.83237        16.26189
     2022.38466       -55.01628        17.81626
     2022.38740       -22.71319        15.87614
     2022.39014        -3.64210        16.14931
     2022.39288       -24.74001        16.14407
     2022.39561       -10.52892        16.30029
     2022.39835       -28.50683        16.51412
     2022.40109         5.02326        16.24357
     2022.40383       -13.62365        16.86758
     2022.40657         1.67644        16.09171
     2022.40930       -15.13947        16.46175
     2022.41204       -20.95538        16.51761
     2022.41478        -6.28429        16.04109
     2022.41752       -25.19421        16.49492
     2022.42026         2.13788        16.27848
     2022.42299       -16.88703        17.00460
     2022.42573       -18.98494        17.00722
     2022.42847        -8.70785        16.42771
     2022.43121       -18.96076        15.91279
     2022.43394        24.61633        16.56212
     2022.43668       -24.71958        16.69478
     2022.43942        27.24351        17.73509
     2022.44216        14.93560        22.56662
     2022.44497       -29.71245        16.23746
     2022.44770        23.60566        15.85956
     2022.45044        14.39874        15.82116
     2022.45316        -4.65313        16.45564
     2022.45591        -1.76306        17.12940
     2022.45863       -27.75395        16.65550
     2022.46136        18.47216        16.22873
     2022.46410        -6.92075        16.24269
     2022.46684        -4.06466        16.37099
     2022.46957        -8.49255        16.30815
     2022.47231        10.39853        16.72183
     2022.47504        -8.25137        17.85815
     2022.47776       -12.76826        15.81068
     2022.48050       -32.30116        16.22873
     2022.48324         5.75393        16.23484
     2022.48598       -16.63799        16.24618
     2022.48870         9.53112        16.22786
     2022.49144        21.84821        15.95120
     2022.49418       -20.04670        16.00618
     2022.49692       -19.85461        16.03236
     2022.49965        -8.40151        16.17462
     2022.50239       -15.63142        16.26451
     2022.50513       -31.26334        17.55967
     2022.50787        24.47675        16.39979
     2022.51060        11.44584        15.92152
     2022.51334        -4.35807        16.56386
     2022.51608        -2.14598        16.81347
     2022.51882        -3.41789        16.44081
     2022.52156        17.30220        16.36226
     2022.52429        12.79329        16.51237
     2022.52703        19.99438        19.94838
     2022.52977        12.85947        17.45232
     2022.53251        63.81056        24.24927
     2022.53525         3.93765        23.55369
     2022.53798       -18.76526        16.41986
     2022.54072        10.07883        16.71048
     2022.54346       -13.64208        17.07355
     2022.54620         8.71301        16.46786
     2022.54893        31.50210        16.43644
     2022.55167        10.57419        16.60488
     2022.55441        14.56528        17.15733
     2022.55715         9.84337        17.61203
     2022.55989       -16.62354        18.03619
     2022.56262         2.50254        17.28824
     2022.56536       -19.21737        17.52476
     2022.56753        21.59574        32.92700
     2022.59000        49.80244        16.67819
     2022.59274        12.70953        16.08123
     2022.59548         5.70062        15.99571
     2022.59822        14.65371        16.09433
     2022.60095         6.48580        18.73788
     2022.60369        20.02489        16.14233
     2022.60643        -6.19702        16.37710
     2022.60917        41.90307        16.61448
     2022.61190         4.32116        16.26189
     2022.61464         9.09325        16.41986
     2022.61738        13.63834        15.95381
     2022.62012        23.98743        15.99134
     2022.62286        24.45052        15.90145
     2022.62559        22.40261        16.03847
     2022.62833         1.54770        16.11789
     2022.63107        15.54079        16.67732
     2022.63381        49.00787        16.49055
     2022.63655        28.41096        21.97577
     2022.63928        34.70305        16.94264
     2022.64191        -5.71365        22.89302
     2022.64476        10.88523        17.67749
     2022.64750        14.88232        17.19224
     2022.65023        24.81241        16.71834
     2022.65297        43.73650        17.14249
     2022.65571         8.95059        17.23413
     2022.65845        19.11068        16.51237
     2022.66119        20.80277        16.45302
     2022.66392        -9.59114        16.48793
     2022.66666         1.41795        16.79165
     2022.66940        29.51404        16.55514
     2022.67214       -14.60787        16.60837
     2022.67488        29.48622        16.22262
     2022.67761         6.14631        16.67034
     2022.68035        16.47340        16.53855
     2022.68309        42.24749        16.07687
     2022.68583        21.76158        16.18596
     2022.68856        18.42067        16.44866
     2022.69130        35.67676        16.53768
     2022.69404        33.19885        16.33782
     2022.69678        49.67894        16.25229
     2022.69952        16.54003        15.92938
     2022.70225        14.24212        16.00269
     2022.70499        24.34620        16.10742
     2022.70773        32.94729        16.85711
     2022.71047        33.98538        16.38582
     2022.71321        26.09447        15.98174
     2022.71594        27.18856        15.71730
     2022.71868        12.73865        16.11091
     2022.72142         4.76873        15.79323
     2022.72416        36.58983        15.86828
     2022.72689        24.21392        15.55235
     2022.72963        43.92701        15.85519
     2022.73237         7.07910        15.56806
     2022.73511        42.54219        16.37622
     2022.73785        14.72728        15.93287
     2022.74058        49.03637        16.10043
     2022.74332        36.20146        15.94945
     2022.74606        25.39955        16.31077
     2022.74880        20.60264        16.07076
