# ================= DQRFIT RESULTS ================
# INPUT FILE: series/BCPR.rad
# OUTPUT: LDETRENDED
# FILTER FUNCTION: f(t)
# f(t)=+line(t)+annual(t)+jumps(t)
# line(t)=+P 1+P 2*t
# annual(t)=+P 3*sin(2*pi*t+P 4)
# jumps(t)=+P 5*heav(t-2012.8438  )
# heav(t)=(t<0?0:1)
# TOTAL OBSERVATIONS MTOT= 3967
# INITIAL TIME INTERVAL= 2020.7690 - 2009.0075 = 11.7615
# TOTAL OBSERVATIONS AFTER PREFILTER M= 3931
# TIME-SPAN= 2020.7690 - 2009.0075 = 11.7615
# OBSERVATIONS: USED M=  3931 REJECTED MTOT-M=    36 %USED=   99.0925
# N=  5 PARAMETERS
# MAXSIG= 175.00000
# MAXRES=  50.19362
# SCALE FACTOR FOR LENGTHS: SCL=  10.00000
# SCALE FACTOR FOR SIGMAS: SCLSIG=   1.00000
# CHI^2=   4418.800 DOF=  3926 CHI^2/DOF=   1.12552
# RMS=      6.092 SDEV=      6.091 MEAN=    0.14506
#  P #       PARAMETER +-    SIGMA %error PARAMETER NAME
# P 1 =     -3887.26369 +-   97.015   2.50 YZERO                              
# P 2 =         1.92775 +-    0.048   2.50 SLOPE                              
# P 3 =         5.69017 +-    0.129   2.26 ANNUAL AMPLITUDE                   
# P 4 =        -2.90445 +-    0.031   1.07 ANNUAL PHASE                       
# P 5 =         6.45304 +-    0.329   5.10 OFFSET 2012.8438                   
#       T            LDETRENDED       SIG_OBS
     2009.00752         4.66799         5.61750
     2009.01026         2.69371         5.66842
     2009.01300        10.04143         5.71616
     2009.01574        -4.78485         5.69176
     2009.01848         9.37187         5.70237
     2009.02121         9.08660         5.88909
     2009.02395         1.33632         5.77982
     2009.02669        -0.79396         5.70025
     2009.02943        -6.38624         5.74162
     2009.03216        -6.20952         5.76603
     2009.03490        -9.55279         5.72783
     2009.03764        -4.53907         5.64402
     2009.04038        -2.11035         5.67373
     2009.04312        -9.10763         5.72253
     2009.04585       -13.25790         5.75329
     2009.04859       -14.78418         5.72147
     2009.05133        -7.88946         5.67160
     2009.05407        -8.50974         5.66418
     2009.05681        -5.41402         5.72465
     2009.05954        -4.47229         5.69919
     2009.06228        -9.84857         5.74587
     2009.06502        -8.33185         5.68752
     2009.06776       -10.47213         5.69494
     2009.07049        -7.16641         5.74375
     2009.07323        -7.18768         5.74481
     2009.07597        -0.24196         5.74056
     2009.07871        -3.17124         5.72147
     2009.08145        -2.96052         5.77239
     2009.08418         2.67420         5.69070
     2009.08692        -4.06507         5.73950
     2009.08966        -0.67435         6.94575
     2009.09240        -5.21163         5.72677
     2009.09514         3.20909         9.92478
     2009.09787        -5.15818         5.70449
     2009.10061        -0.35446         5.65251
     2009.10335        -6.95974         5.73526
     2009.10609        -4.17902         5.70555
     2009.10882       -11.17130         5.70237
     2009.11162        -1.55568         5.79573
     2009.11430        -6.39685         5.79785
     2009.11704        -0.55913         5.76709
     2009.11978        -4.72641         5.67691
     2009.12251        -1.21269         5.70025
     2009.12525        -4.57696         5.67797
     2009.12799        -4.32424         5.71616
     2009.13073        -4.40252         5.73420
     2009.13347        -7.86580         5.69813
     2009.13620        -8.63108         5.70661
     2009.13894        -8.46435         5.72253
     2009.14168        -6.23163         5.72253
     2009.14442       -10.32191         5.71828
     2009.14715        -5.94219         5.78406
     2009.14989        -4.45046         5.77663
     2009.15263        -6.45474         7.24917
     2009.15537        -6.22302         5.77876
     2009.15811        -5.88630         5.81164
     2009.16084        -6.78658         5.72783
     2009.16358        -2.39685         5.71935
     2009.16632        -5.77413         5.72995
     2009.16906        -6.31841         5.80952
     2009.17180        -3.30769         5.70661
     2009.17453       -10.04597         5.67903
     2009.17750        -3.32568         6.57338
     2009.18001        -2.68752         5.71935
     2009.18275        -8.35480         5.70025
     2009.18548        -9.45708         5.69813
     2009.18822        -8.33336         5.72465
     2009.19096        -9.02063         5.71404
     2009.19370        -3.98391         5.65569
     2009.19644        -1.44419         5.65887
     2009.19917        -0.74047         5.63235
     2009.20191         2.22126         5.63129
     2009.20465        -3.62102         5.63872
     2009.20739        -3.22430         5.65357
     2009.21013         0.17742         5.68858
     2009.21286        -3.20186         5.80634
     2009.21560        -8.95113         5.65569
     2009.21834        -5.60141         5.75648
     2009.22108        -1.12869         5.61750
     2009.22381        -6.81797         5.62280
     2009.22655        -6.92025         5.64720
     2009.22929        -2.55152         7.88147
     2009.23203        -2.30480         5.61856
     2009.23448        -3.20053         6.39090
     2009.23842        -1.26412         9.84839
     2009.24372         0.77966         8.51271
     2009.24572        -1.13019         5.66206
     2009.24846         1.85653         5.65039
     2009.25119        -0.12775         5.81271
     2009.25393        -1.42202         5.78724
     2009.25667        -1.05030         5.73844
     2009.25941         0.95042         5.70237
     2009.26214        -1.29086         5.66524
     2009.26488        -4.39614         5.71616
     2009.26762        -5.57641         5.69176
     2009.27036        -2.40569         5.68327
     2009.27310        -7.52397         5.69919
     2009.27583        -2.89925         5.68221
     2009.27857        -2.29553         5.93471
     2009.28131        -2.24680         5.85832
     2009.28405        -6.83508         5.68964
     2009.28679        -0.82136         5.70131
     2009.28952         0.06836         5.72995
     2009.29226        -7.39192         5.77345
     2009.29500        -7.15919         5.71404
     2009.29774        -4.73647         5.72677
     2009.30047        -4.07975         5.71722
     2009.30321        -3.00403         5.75436
     2009.30595        -0.95230         5.70980
     2009.30869        -2.85858         5.76709
     2009.31143        -5.52186         5.77345
     2009.31416        -2.70914         5.74587
     2009.31690        -6.82442         5.72359
     2009.31964        -8.09969         5.70980
     2009.32238        -7.68697         5.75966
     2009.32512        -1.94825         5.93789
     2009.32785        -2.55753         5.93153
     2009.33059        -6.02081         5.75011
     2009.33333        -4.20308         5.77557
     2009.33607        -6.16036         5.77451
     2009.33880        -2.60064         5.74162
     2009.34091         3.20129         8.16367
     2009.65913         0.00185         6.19463
     2009.66187         7.01957         6.38453
     2009.66461         8.47129         5.81907
     2009.66700         9.25168         6.76434
     2009.67556         3.71818         5.81377
     2009.67830        13.46190         6.05990
     2009.68104        14.01962         5.94744
     2009.68377         4.57135         5.81589
     2009.68609        22.63988         6.80890
     2009.69199         6.39751         5.80316
     2009.69472         9.90423         5.96123
     2009.69746        11.90296         5.83392
     2009.70020        15.70568         6.04823
     2009.70294        12.56640         5.82756
     2009.70568        20.38312         5.81164
     2009.70841         7.85684         5.83074
     2009.71115         7.66057         5.87212
     2009.71389        10.78129         6.11082
     2009.71663        11.82001         5.82968
     2009.71937        12.68073         5.83180
     2009.72210         4.14446         5.77876
     2009.72484        17.75418         6.15856
     2009.72758         3.22090         6.13416
     2009.73037        10.81751         5.90500
     2009.73305        13.78434         6.07793
     2009.73579         8.81007         5.88060
     2009.73853         7.99879         5.78512
     2009.74127         6.11551         5.82225
     2009.74401         9.29523         5.88697
     2009.74674         7.46295         5.79679
     2009.74948        12.02568         5.82331
     2009.75222         6.17340         5.80528
     2009.75496         5.20712         5.77133
     2009.75770         2.87384         5.77133
     2009.76043         5.02256         5.82862
     2009.76317        13.74529         6.04823
     2009.76591         6.47301         5.82331
     2009.76865         9.72573         5.89015
     2009.77144         7.62634         6.09278
     2009.77452         0.95241         7.00516
     2009.77686         7.26990         5.91455
     2009.77960        10.72062         5.74269
     2009.78234        12.77134         5.76390
     2009.78507        19.49806         5.79149
     2009.78781         3.08479         6.24025
     2009.79055        -1.44049         6.08854
     2009.79329         2.65823         5.99518
     2009.79603         5.42595         6.01003
     2009.79876         6.34567         5.96760
     2009.80150        11.55740         6.19039
     2009.80424        11.08112         5.98457
     2009.80698         6.55084         6.06414
     2009.80971        11.11956         6.03762
     2009.81245        13.06828         6.08218
     2009.81519        12.48101         6.14053
     2009.81793        12.96073         6.10658
     2009.82067        10.88345         5.86893
     2009.82340        10.67117         5.87424
     2009.82614        15.45690         5.92940
     2009.82888        14.08762         5.89121
     2009.83162        19.19234         6.03337
     2009.83436         3.44106         5.91774
     2009.83709         4.73778         6.00473
     2009.83983         6.41251         5.95274
     2009.84257         7.94623         6.13946
     2009.84531        12.18895         6.00367
     2009.84804        13.94167         6.03231
     2009.85078        10.08339         5.95911
     2009.85352         7.35712         5.97927
     2009.85626         8.39484         6.01640
     2009.85900         2.17156         6.00155
     2009.86173         2.52628         5.94320
     2009.86447        10.65600         6.27314
     2009.86721        -1.98627         6.16174
     2009.86995         7.27645         5.99412
     2009.87269        10.33917         6.03125
     2009.87542        14.35789         5.98669
     2009.87816        14.38062         6.15220
     2009.88090         8.81434         6.19463
     2009.88364        11.14106         6.01216
     2009.88637        11.59878         5.95487
     2009.88911        12.49350         5.83392
     2009.89185        11.51623         5.85726
     2009.89459         2.99695         5.97290
     2009.89733         1.74067         5.91880
     2009.90006         1.41039         5.91667
     2009.90280         4.78111         5.83711
     2009.90537         1.26217         6.28056
     2009.90828         4.09556         5.87742
     2009.91102         9.84428         5.90713
     2009.91375         3.50400         5.80422
     2009.91649        -1.59628         5.81801
     2009.91923        -4.15755         5.80104
     2009.92197        -3.37383         6.00155
     2009.92470       -11.22711         5.79997
     2009.92744        -8.16339         5.82331
     2009.93018        -6.52966         5.73208
     2009.93292        -1.08594         5.82331
     2009.93566        -2.57522         5.79361
     2009.93839         1.21550         9.40281
     2009.94113         1.15722         5.82438
     2009.94387         1.94395         5.98882
     2009.94661         2.56767         5.93259
     2009.94935         2.10039         5.82225
     2009.95208        -1.80189         5.83074
     2009.95482        -4.29017         5.82438
     2009.95756        -1.38144         5.80740
     2009.96030        -1.38172         5.77982
     2009.96303        -1.51600         5.86681
     2009.96577         0.13772         5.86787
     2009.96851        -2.08156         5.94426
     2009.97125         2.84917         5.91774
     2009.97399         1.02489         5.89864
     2009.97672        -3.05839         5.79467
     2009.97946        -1.71767         5.80104
     2009.98220        -6.03094         5.92728
     2009.98494        -1.43622         5.83605
     2009.98767        -7.04350         5.77345
     2009.99041        -3.21878         5.80422
     2009.99315         0.15594         5.82544
     2009.99589        -4.10233         5.82438
     2009.99863        -3.36261         5.75966
     2010.00136       -10.27389         5.78618
     2010.00410         2.14583         5.91774
     2010.00684       -10.22945         5.77663
     2010.00958       -15.55972         7.53350
     2010.01232       -14.59200         5.79467
     2010.01505       -10.88428         5.82756
     2010.01779        -9.20656         5.80846
     2010.02053        -5.49384         5.99942
     2010.02327        -7.35111         5.80634
     2010.02600        -3.20639         5.80952
     2010.02874        -3.36667         5.80210
     2010.03148        -0.96595         5.94001
     2010.03422        -5.84122         5.93577
     2010.03696        -5.17050         6.17660
     2010.03969        -0.88278         5.95487
     2010.04243        -1.32006         5.82438
     2010.04517         8.37666         5.82119
     2010.04791         0.73539         5.82756
     2010.05065        -0.95689         5.92622
     2010.05338        -0.41317         5.94426
     2010.05612        -4.80545         5.85939
     2010.05886        -4.11073         5.78512
     2010.06160       -13.28600         5.77133
     2010.06433        -7.49228         5.76284
     2010.06707       -15.84956         5.81801
     2010.06981       -12.13384         5.88166
     2010.07255        -6.90812         5.85939
     2010.07529        -9.60939         5.90076
     2010.07802        -6.71867         5.86575
     2010.08076        -7.13895         5.75966
     2010.08350        -6.96023         5.97715
     2010.08624        -1.02050         5.78618
     2010.08898         1.62622         6.02807
     2010.09171        -0.22106         5.73950
     2010.09445         3.67166         5.93471
     2010.09993        -3.43489         5.82862
     2010.10266         0.49283         5.78406
     2010.10540        -0.08245         5.88485
     2010.10814         0.18327         6.08005
     2010.11173         0.87334         9.10788
     2010.11362         2.73272         5.81589
     2010.11635         8.69844         5.91455
     2010.11909         3.70016         5.79679
     2010.12183        -2.32012         5.79149
     2010.12457         3.97360         5.80740
     2010.12731         0.18833         5.91667
     2010.13004        -2.96495         5.85408
     2010.13278        -8.17423         5.87212
     2010.13552        -6.67551         5.86787
     2010.13826        -4.05178         5.78937
     2010.14099        -5.35006         5.73526
     2010.14373        -5.64734         5.86151
     2010.14647        -1.92962         5.92622
     2010.14921         0.67810         5.82650
     2010.15195        -0.65417         5.78194
     2010.15468        -1.33045         5.78618
     2010.15742        -0.84873         5.80634
     2010.16016        -1.21301         5.73526
     2010.16290        -1.26529         5.95274
     2010.16564         0.89144         5.77876
     2010.16837         1.74216         5.76921
     2010.17111         0.98288         5.73632
     2010.17385         1.67360         6.00261
     2010.17659         0.67832         5.78300
     2010.17932         1.28005         5.72253
     2010.18206         2.88577         5.67585
     2010.18480         4.80649         5.75011
     2010.18754        -2.26979         5.92516
     2010.19028         7.29094         5.85196
     2010.19301         4.57366         5.71935
     2010.19575         4.18838         5.68646
     2010.19849        -1.49790         5.71722
     2010.20123        -1.64718         5.75223
     2010.20397         2.05955         5.90182
     2010.20670        -0.61973         5.89970
     2010.20944        -5.63401         5.73526
     2010.21218        -2.78229         5.69494
     2010.21492         1.04343         5.69919
     2010.21765         6.25716         5.69494
     2010.22039        -1.71112         5.73632
     2010.22313         0.00260         5.73102
     2010.22587         3.29432         5.76709
     2010.22861         4.66204         5.72889
     2010.23134         1.53177         5.70980
     2010.23408        -4.43351         5.71510
     2010.23682         1.66821         5.81801
     2010.23956         8.06493         5.82438
     2010.24230         6.41966         5.99200
     2010.24503         2.84638         5.83923
     2010.24777         2.30510         5.74162
     2010.25051         7.40282         5.94956
     2010.25325         8.96754         5.81907
     2010.25598         4.45327         5.84029
     2010.25872         9.94699         5.78830
     2010.26146         6.91471         5.86363
     2010.26420         5.79243         5.92834
     2010.26694         4.80515         5.86681
     2010.26967         3.97488         5.89864
     2010.27241         4.59560         5.83923
     2010.27515        -0.21968         5.79149
     2010.27789         3.39704         5.92516
     2010.28062        -0.74724         5.86469
     2010.28336        -1.47151         5.97502
     2010.28610        -1.98279         5.97396
     2010.28884         4.03693         5.77982
     2010.29158         0.65065         5.96229
     2010.29431         6.08138         5.98351
     2010.29705         7.08510         5.79467
     2010.29979         5.32782         5.90500
     2010.30253        10.92754         5.82119
     2010.30527        12.63626         5.92940
     2010.30800         8.58299         5.69282
     2010.31074         5.33971         5.75754
     2010.31348         9.41043         5.76921
     2010.31622         9.49715         5.77345
     2010.31895        11.81787         5.91031
     2010.32169        12.92160         6.09703
     2010.32443         5.58432         5.85514
     2010.32717         3.29604         5.83074
     2010.32991         3.91976         5.79043
     2010.33264        10.41048         5.75117
     2010.33538         9.00821         5.90925
     2010.33812         7.72593         5.84135
     2010.34086         1.58865         5.81164
     2010.34360         1.51937         5.73208
     2010.34633        -2.52890         5.79467
     2010.34907        -1.99718         5.67160
     2010.35181        -0.77746         5.70131
     2010.35455         5.11526         5.73632
     2010.35728         3.37698         5.74375
     2010.36002        11.09171         5.84559
     2010.36276         6.29243         5.69494
     2010.36550         0.16615         5.95168
     2010.36824         3.57887         5.94850
     2010.37097         8.36059         5.68752
     2010.37371         7.64032         5.72041
     2010.37645        11.23904         5.70661
     2010.37919         4.58576         5.96548
     2010.38193         8.66448         5.96123
     2010.38466         0.03920         5.90288
     2010.38740         6.25193         5.82119
     2010.39014         4.13765         5.87318
     2010.39288         0.97637         5.86681
     2010.39561        -3.82191         5.84665
     2010.39835         2.02982         5.71298
     2010.40109         2.63254         5.67479
     2010.40383         0.72226         5.67797
     2010.40657         5.07198         5.79785
     2010.40930         5.10070         5.68009
     2010.41204         1.78943         5.70661
     2010.41478         5.52315         5.67267
     2010.41752         2.40987         5.65993
     2010.42026         7.71759         5.68752
     2010.42299         7.98031         5.71404
     2010.42573         1.42104         5.71298
     2010.42847        -4.18924         5.71510
     2010.43121        -0.27452         5.63447
     2010.43394         3.20320         5.66524
     2010.43668        -3.86708         5.69070
     2010.43942         7.61665         5.68434
     2010.44216         2.57737         5.77239
     2010.44490        -2.11991         5.88166
     2010.44763        -0.44719         5.65357
     2010.45037         1.47954         5.65039
     2010.45311        -2.32574         5.68327
     2010.45585         0.58698         5.71192
     2010.45859        -0.50530         5.83711
     2010.46132         1.66842         5.75754
     2010.46406         6.16315         5.69070
     2010.46680         2.60587         5.76178
     2010.46954         0.59259         5.87848
     2010.47227         1.48431         5.75011
     2010.47501         1.44503         5.68327
     2010.47775         5.98576         5.96441
     2010.48049         2.93248         5.93471
     2010.48323         2.79720         5.74905
     2010.48596         8.41992         5.73102
     2010.48870         8.15464         5.66736
     2010.49144         6.41337         5.69601
     2010.49418         2.99409         5.75648
     2010.49692         5.84081         5.72253
     2010.49965         1.62753         5.76390
     2010.50239         8.39626         5.73738
     2010.50513         7.70498         5.69388
     2010.50787         6.36070         5.76284
     2010.51060         3.07442         5.74693
     2010.51334         3.88814         5.72571
     2010.51608         5.71287         5.69919
     2010.51882        10.99059         5.77239
     2010.52156         7.28231         5.70768
     2010.52429         6.94703         5.75329
     2010.52703         7.73275         5.73420
     2010.52977         2.16848         5.79467
     2010.53251         1.83020         5.78618
     2010.53525        10.29992         5.74056
     2010.53798         1.22764         5.73950
     2010.54072         5.52736         5.72783
     2010.54346        -0.29591         5.74799
     2010.54620         2.66081         5.67479
     2010.54893         3.75453         5.85302
     2010.55167         0.69125         5.83817
     2010.55441         5.96898         5.71722
     2010.55715         8.99070         6.03974
     2010.56086         2.51755        10.33004
     2010.56262         4.44514         5.69494
     2010.56536         1.85686         6.09066
     2010.56810         4.53759         5.75329
     2010.57084         6.88831         5.93471
     2010.57357         7.05203         5.93789
     2010.57631         3.06775         5.92198
     2010.57905         4.86847         5.68964
     2010.58179         7.91220         5.78406
     2010.58453         7.48292         5.81271
     2010.58726         4.04964         5.78830
     2010.59000        10.31936         6.46622
     2010.59274         7.52508         5.74375
     2010.59548        10.96081         5.75011
     2010.59822        15.66153         5.78194
     2010.60095        11.98525         5.74269
     2010.60369         9.41297         5.74375
     2010.60643         9.65270         5.76072
     2010.60917         6.21642         5.81801
     2010.61190         5.87914         5.82650
     2010.61464         5.36486         5.78512
     2010.61738         9.96058         5.70980
     2010.62012         7.57731         5.70661
     2010.62286        10.69403         5.74799
     2010.62559         8.37975         5.82862
     2010.62833        18.51447         6.24131
     2010.63107        12.62419         5.89227
     2010.63381        16.76692         5.73632
     2010.63655        11.57564         5.76815
     2010.63928        11.21136         5.76603
     2010.64202        12.08008         5.82756
     2010.64476         3.27780         5.91986
     2010.64750        13.43953         5.73632
     2010.65023        12.13025         5.80210
     2010.65297        12.54897         5.87742
     2010.65571         6.29269         5.68646
     2010.65845        11.08642         5.82968
     2010.66119        14.40514         5.90819
     2010.66392        16.81686         5.85939
     2010.66666        18.53358         5.67373
     2010.66940         6.08230         5.70555
     2010.67214         9.52703         5.75966
     2010.67488        15.22375         5.60795
     2010.67761        10.41647         5.63553
     2010.68035        19.71419         5.87530
     2010.68309         8.74391         5.65039
     2010.68583         9.63164         5.68115
     2010.68856         7.86836         5.66312
     2010.69130        13.35408         5.66312
     2010.69404        12.45280         5.82225
     2010.69678         7.87352         5.66630
     2010.69952         5.15925         5.66842
     2010.70225         8.72297         5.63023
     2010.70499        10.83169         5.86681
     2010.70773        13.03341         5.65675
     2010.71047        11.02514         5.64614
     2010.71321         7.84786         5.65887
     2010.71594        11.39258         5.65145
     2010.71868        15.76230         5.69388
     2010.72142        10.31602         5.75648
     2010.72416         8.82875         5.76178
     2010.72689        10.43547         5.77133
     2010.72963         8.98119         5.80104
     2010.73237        17.60191         5.79255
     2010.73511        12.11363         5.73950
     2010.73785        15.80736         5.91667
     2010.74076         9.54075         6.14901
     2010.74332         5.81580         5.74162
     2010.74606         8.34352         5.70237
     2010.74880         5.07524         5.86787
     2010.75154        12.64697         5.67797
     2010.75427         8.08669         5.76072
     2010.75701         6.47641         5.74905
     2010.75975         7.97513         5.68646
     2010.76249        14.03386         5.84029
     2010.76522         7.94658         5.74162
     2010.76796        10.57930         5.79997
     2010.77076        12.39791         6.05459
     2010.77344        11.13974         6.00049
     2010.77618         8.38547         5.67160
     2010.77891         4.86719         5.77770
     2010.78165         7.35591         5.69070
     2010.78439        10.79163         5.85620
     2010.78713        10.03035         5.74905
     2010.78987         8.11308         5.64933
     2010.79260         9.99680         5.69494
     2010.79534         4.77252         5.74056
     2010.79808         8.37524         5.70237
     2010.80082         5.85396         5.76390
     2010.80355        13.50869         5.66524
     2010.80629        11.36041         5.72677
     2010.80903        11.46313         5.70449
     2010.81177        13.67485         5.74481
     2010.81451        14.21858         5.65145
     2010.81724        14.17430         5.60689
     2010.81998         8.10002         5.64402
     2010.82272         9.19374         5.88803
     2010.82546        10.84446         5.70025
     2010.82820        11.67319         5.68964
     2010.83093        12.24591         5.89970
     2010.83367         7.49863         5.93471
     2010.83641         7.99435         5.70343
     2010.83915         6.51607         5.80104
     2010.84188        10.84480         5.82119
     2010.84462        10.85252         5.80316
     2010.84736         9.26624         5.73208
     2010.85010        12.37496         5.71828
     2010.86926         4.28602         6.04717
     2010.87200         7.59474         5.69601
     2010.87474         5.96346         5.80316
     2010.87748         9.44418         5.73950
     2010.88021         9.56591         5.65463
     2010.88295         4.25163         5.81589
     2010.88569         1.93635         5.66630
     2010.88843         1.15907         5.95805
     2010.89117        10.21379         5.94638
     2010.89390         9.63652         5.62492
     2010.89664         3.83824         5.65781
     2010.89938         8.48196         5.59204
     2010.90212         7.81068         5.66524
     2010.90485         6.26140         5.64508
     2010.90759         5.27613         5.64296
     2010.91033         6.07985         5.63659
     2010.91307         7.87257         5.62492
     2010.91581         2.86529         5.64402
     2010.91854         7.10402         5.60265
     2010.92128        -0.92626         5.59946
     2010.92402         1.85246         5.63341
     2010.92671         6.21628         5.75542
     2010.93771         1.97807         5.64720
     2010.94045         3.32879         5.73738
     2010.94318         5.42251         5.60265
     2010.94592         5.89324         5.64084
     2010.94866         9.55096         5.62174
     2010.95140        10.26968         5.76496
     2010.95414         4.51440         5.77982
     2010.95687         2.37912         5.76284
     2010.95961         4.18085         5.79043
     2010.96235         0.26757         5.66842
     2010.96509         5.93729         5.61007
     2010.96783         4.96701         5.64296
     2010.97056        -0.13826         5.68009
     2010.97330         0.30146         5.68646
     2010.97604         0.49718         5.60265
     2010.97878         1.35590         5.63129
     2010.98151        -1.16738         5.63766
     2010.98425        -0.11865         5.66206
     2010.98699         4.29407         5.67797
     2010.98973         4.64979         5.77027
     2010.99247        -5.10849         5.77876
     2010.99520        -6.35577         5.75860
     2010.99794       -17.22104         5.64084
     2011.00068        -6.17732         5.58991
     2011.00342         0.91240         5.66842
     2011.00616         2.51012         5.62705
     2011.00889         6.92184         5.71086
     2011.01163         2.87457         5.67160
     2011.01437         0.08829         5.75223
     2011.01705         3.04512         6.12779
     2011.01984        -0.41627         5.56339
     2011.02258        -6.81954         5.56127
     2011.02532        -3.28782         5.67373
     2011.02806        -2.01910         5.79149
     2011.03080        -3.63038         5.66312
     2011.03353        -6.54866         5.53050
     2011.03627        -5.60493         5.55384
     2011.03901       -14.40321         5.62811
     2011.04175        -2.13949         5.58885
     2011.04449        -1.22777         5.56551
     2011.04722        -8.88405         5.66206
     2011.04996        -6.37132         5.67054
     2011.05270        -2.28060         5.54005
     2011.05544        -3.17488         5.65145
     2011.05817        -3.15616         5.64084
     2011.06091         1.56256         5.63659
     2011.06365         1.24629         5.54748
     2011.06639        -2.30299         5.56127
     2011.06913        -2.26527         5.98775
     2011.07186        -7.43255         5.61856
     2011.07460       -10.27282         5.59522
     2011.07734        -7.05710         5.59098
     2011.08008        -8.17338         5.55597
     2011.08282       -10.17466         5.63553
     2011.08555       -12.33294         5.75223
     2011.08829        -9.92721         5.68646
     2011.09103        -9.60949         5.65675
     2011.09377        -0.27677         6.36332
     2011.09650       -10.84105         5.62174
     2011.09924        -5.75633         5.65039
     2011.10198        -5.09560         5.58991
     2011.10472        -6.69788         5.61325
     2011.10746        -5.19116         5.60901
     2011.11019        -4.08544         5.60265
     2011.11293        -5.44372         5.66100
     2011.11567        -0.11399         5.65463
     2011.11841         2.66873         5.57931
     2011.12115        -8.95755         5.66100
     2011.12388        -4.91283         5.79361
     2011.12662        -1.72110         5.78300
     2011.12936        -1.68938         5.58567
     2011.13210        -6.01166         5.56870
     2011.13483        -8.79194         5.53050
     2011.13757        -7.81522         5.58885
     2011.14031       -14.89449         5.62068
     2011.14305        -0.58777         5.80952
     2011.14579        -2.87105         5.60265
     2011.14852        -0.28633         5.51671
     2011.15126        -3.29461         5.56658
     2011.15400         6.04812         5.55384
     2011.15674         6.18784         5.58567
     2011.15948         4.66556         5.57612
     2011.16221         0.66428         5.57825
     2011.16410         0.28065         8.68776
     2011.16769        -6.09727         5.58991
     2011.17043       -10.95855         5.58673
     2011.17316       -14.36883         5.65145
     2011.17590       -13.32911         5.56976
     2011.17864        -3.03138         5.52838
     2011.18138        -3.69166         5.55278
     2011.18412        -6.00894         5.61962
     2011.18685        -3.45322         5.60901
     2011.18959        -4.04450         5.60689
     2011.19233        -8.84177         5.56551
     2011.19507         1.43395         5.60158
     2011.19780         4.34867         5.65251
     2011.20054        -3.23361         5.60265
     2011.20328         0.35311         5.68964
     2011.20602        -2.73116         5.64826
     2011.20876        -1.77444         5.61325
     2011.21149        -3.62472         5.56551
     2011.21423        -4.36400         5.58037
     2011.21697        -1.79528         5.73420
     2011.21971         2.15345         5.69070
     2011.22245        -3.36983         5.58461
     2011.22518        -3.78811         5.60371
     2011.22792         0.13161         5.58885
     2011.23032        -1.43601         6.56701
     2011.23340        -4.46194         5.66418
     2011.23613        -2.14322         5.63978
     2011.23887        -5.29250         5.62705
     2011.24161         2.08022         5.61644
     2011.24435        -1.33305         5.62811
     2011.24709        -0.78033         5.62492
     2011.24982        -0.17961         5.63978
     2011.25256         0.52111         5.62492
     2011.25530        -1.21317         5.65357
     2011.25804         3.69556         5.74269
     2011.26078         4.26428         5.74693
     2011.26351         1.37900         5.58143
     2011.26625        -2.89828         5.59628
     2011.26899         0.75144         5.62705
     2011.27173        -1.14683         5.69176
     2011.27446         3.59789         5.72359
     2011.27720        -2.05639         5.88273
     2011.27994        -2.65367         5.63447
     2011.28268        -4.16494         5.64508
     2011.28542        -4.73422         5.63447
     2011.28815        -7.42750         5.63235
     2011.29089         0.19422         5.61644
     2011.29363        -3.66306         5.68540
     2011.29637         1.26867         5.62174
     2011.29911        -7.82561         5.60689
     2011.30184        -0.12189         5.78194
     2011.30458        -0.22617         5.65145
     2011.30732         1.49655         5.58673
     2011.31006        -1.39272         5.64826
     2011.31279        -1.47900         5.62174
     2011.31553        -0.51128         5.57825
     2011.31827        -2.21356         5.65781
     2011.32101        -3.10684         5.61750
     2011.32375        -9.68511         5.59310
     2011.32648        -7.13639         5.71086
     2011.32922       -10.86167         5.61538
     2011.33196        -9.47295         5.61432
     2011.33470        -6.72922         5.64296
     2011.33744        -4.96150         5.65039
     2011.34017        -3.45178         5.75329
     2011.34291        -0.59406         5.77770
     2011.34565        -0.17534         5.80316
     2011.34839        -9.87161         5.67797
     2011.35112        -3.62989         5.67054
     2011.35386        -4.28817         5.73208
     2011.35660        -2.87045         5.62280
     2011.35934       -12.01773         5.58673
     2011.36208       -10.53400         5.61325
     2011.36481       -14.09728         5.74481
     2011.36755        -6.13256         5.70237
     2011.37029        -3.77584         5.65675
     2011.37303        -1.28712         5.67691
     2011.37577        -3.41639         5.65145
     2011.37850        -9.36967         5.72571
     2011.38124       -10.25395         5.85726
     2011.38398       -10.86323         5.84559
     2011.38672        -8.11950         5.68434
     2011.38945        -0.15978         5.68327
     2011.39219        -7.45606         5.74693
     2011.39493        -6.55034         5.72359
     2011.39767        -3.69362         5.75223
     2011.40041        -5.29889         5.69388
     2011.40314       -10.16717         5.82544
     2011.40588        -6.06545         5.71086
     2011.40862        -5.47973         5.77451
     2011.41136        -6.92901         5.80104
     2011.41410        -2.64028         5.76496
     2011.41683        -5.65256         5.65463
     2011.41957        -7.14084         5.70025
     2011.42231       -11.65212         5.69707
     2011.42505        -4.41040         5.79891
     2011.42778        -3.11867         5.80952
     2011.43052        -5.09195         5.71192
     2011.43326        -6.28023         5.71828
     2011.43600        -5.19251         5.76072
     2011.43874        -8.84179         5.70131
     2011.44147        -3.85506         5.73526
     2011.44421        -0.26534         5.73208
     2011.44695        -3.24962         5.71722
     2011.44969        -3.03490         5.67267
     2011.45243        -4.01617         5.66736
     2011.45516        -6.73445         5.73844
     2011.45790        -1.04773         5.76815
     2011.46064        -2.17001         5.72465
     2011.46338        -6.40629         5.67160
     2011.46611        -7.34156         5.74905
     2011.46885        -3.79884         5.82438
     2011.47159        -2.13212         5.74693
     2011.47433         0.01860         5.76496
     2011.47707         5.22632         5.78618
     2011.47980         3.98905         5.72253
     2011.48254         1.38277         5.76496
     2011.48528        -1.14351         5.76496
     2011.48802         5.12021         5.72041
     2011.49076         5.90893         5.70555
     2011.49349         3.66666         5.68009
     2011.49623         2.26538         5.71298
     2011.49897         5.38010         5.77451
     2011.50171         2.36082         5.73632
     2011.50444         1.98755         5.75011
     2011.50718         4.44227         5.90182
     2011.50992         1.91199         5.73526
     2011.51266        -1.87629         5.68646
     2011.51540         3.03743         5.68009
     2011.51813         3.19916         5.69388
     2011.52087         1.08988         5.76284
     2011.52361        -4.19140         6.04610
     2011.52635        -4.99168         5.67373
     2011.52908         4.36604         5.72677
     2011.53182         2.10977         5.72465
     2011.53456         5.00049         6.23495
     2011.53730         2.09221         5.91774
     2011.54004        -3.21307         5.68964
     2011.54277         1.63365         5.70768
     2011.54551         6.63238         5.70555
     2011.54825        -0.16690         5.81695
     2011.55099         6.23182         5.81058
     2011.55373         4.08054         5.75117
     2011.55646         3.40327         5.68115
     2011.55920        -2.72101         5.70980
     2011.56194         2.31071         5.75648
     2011.56468         4.76843         5.75542
     2011.56741         4.97915         5.72995
     2011.57015         2.14388         5.83286
     2011.57289         2.09060         5.75117
     2011.57563         6.98032         5.75860
     2011.57837         5.55804         5.78937
     2011.58110        -3.20324         5.75648
     2011.58384         1.10349         5.74587
     2011.58658         2.69921         5.94107
     2011.58932         3.72393         5.78830
     2011.59206         0.71665         5.82862
     2011.59479        10.03637         5.84347
     2011.59753         6.02010         5.74587
     2011.60027         7.03182         5.76496
     2011.60301         2.76354         5.75223
     2011.60574         3.79426         5.78830
     2011.60848        11.67699         6.12673
     2011.61122         8.07371         5.92198
     2011.61396        11.68843         5.79573
     2011.61670         5.16815         5.85090
     2011.61943         8.20787         5.81801
     2011.62217         2.24260         5.84347
     2011.62491         3.74532         5.75329
     2011.62765         4.86604         6.02170
     2011.63039         7.27576         5.78300
     2011.63312         5.91748         5.85302
     2011.63586         9.29321         5.79467
     2011.63860         8.92993         5.75860
     2011.64134        10.27665         5.95911
     2011.64407         4.41137         5.80422
     2011.64681         6.12209         6.06520
     2011.64955        11.10382         6.12673
     2011.65229         6.40854         5.88273
     2011.65503         3.85826         5.90925
     2011.65776         4.66298         5.82438
     2011.66050         7.82071         5.91561
     2011.66324         9.18843         5.77557
     2011.66598         5.93115         5.95168
     2011.66872         9.19687         5.91880
     2011.67145         4.11559         5.82225
     2011.67419         5.14032         5.82225
     2011.67693         9.60604         5.72147
     2011.67967         1.20376         5.71298
     2011.68240         5.89748         5.83074
     2011.68514         6.66820         5.96017
     2011.68788         6.86993         5.89864
     2011.69062         3.35565         5.92622
     2011.69336         3.06837         5.77770
     2011.69609         2.03509         5.76178
     2011.69883        12.52681         6.06520
     2011.70157         8.63754         5.79255
     2011.70431         6.75426         5.69070
     2011.70705         8.66398         5.91137
     2011.70978         9.07470         5.90500
     2011.71252         6.45543         5.81058
     2011.71526         6.29515         5.83498
     2011.71800         6.89787         6.06732
     2011.72073         8.04159         5.92622
     2011.72347        11.09631         5.81483
     2011.72621         0.10404         5.94214
     2011.72895         8.08976         5.75966
     2011.73169        10.18048         5.78406
     2011.73442         9.76320         6.07793
     2011.73716        12.49192         5.77133
     2011.73990         4.98665         5.75966
     2011.74264         6.29137         5.77451
     2011.74538        10.78809         5.98033
     2011.74811         6.54181         5.91986
     2011.75085         5.17353         5.89227
     2011.75359         5.09126         6.06308
     2011.75633         4.10998         5.87530
     2011.75906         8.06670         5.80952
     2011.76180         3.42042         5.77876
     2011.76454         6.59415         5.81589
     2011.76728         0.46087         5.96441
     2011.77002         4.70459         5.97821
     2011.77275        11.08231         5.83286
     2011.77549         8.17703         5.77027
     2011.77823         6.83076         5.78512
     2011.78097         6.36748         5.84347
     2011.78371         3.42720         5.84559
     2011.78644         5.83092         5.73420
     2011.78918         6.63964         5.78724
     2011.79192         1.51237         5.72995
     2011.79466        -3.15191         5.94214
     2011.79739        10.03881         5.80422
     2011.80013        13.09553         5.76709
     2011.80287        10.94325         5.78406
     2011.80561         5.06898         5.80634
     2011.80835         8.62870         5.73420
     2011.81108         4.76242         5.79043
     2011.81382        -1.07486         6.48214
     2011.81656         1.90887         5.98563
     2011.81930         7.91359         5.70343
     2011.82203         3.09531         5.73526
     2011.82477         6.04803         5.70237
     2011.82751         3.33475         5.80952
     2011.83025         3.47548         5.80210
     2011.83299        -0.45280         5.83711
     2011.83572        -3.65408         5.72359
     2011.83846        -1.67136         5.70025
     2011.84120         3.88636         5.86999
     2011.84394         5.81709         5.72677
     2011.84668         5.87581         5.70449
     2011.84941         4.70653         5.70025
     2011.85215         2.03525         5.79573
     2011.85489         1.10397         5.87848
     2011.85763         0.72370         5.83392
     2011.86036         5.25242         5.80422
     2011.86310        10.35714         5.79043
     2011.86584         9.95786         5.76603
     2011.86858        10.72759         5.74056
     2011.87132         9.47931         5.70555
     2011.87405         3.50803         5.71616
     2011.87679         8.30275         5.68646
     2011.87953         4.35747         5.83711
     2011.88227         2.97820         5.71722
     2011.88501         6.79592         5.65251
     2011.88774        -0.43936         5.66418
     2011.89048         5.33236         5.66206
     2011.89322         3.12708         5.77982
     2011.89596         2.29481         5.68434
     2011.89869        11.99853         5.68964
     2011.90143         0.82925         5.65887
     2011.90417         0.54097         5.79891
     2011.90691        -0.66231         5.71935
     2011.90965         5.87642         5.69388
     2011.91238        -3.46886         5.80104
     2011.91512        -6.17614         5.82650
     2011.91786        -0.94042         5.81377
     2011.92060       -13.50669         5.81271
     2011.92334       -12.55597         5.83923
     2011.92607        -9.79625         5.89333
     2011.92881         1.85847         6.14159
     2011.93155        -1.85281         5.76072
     2011.93429         0.26892         5.80952
     2011.93702        -0.91236         5.79997
     2011.93976        -1.87464         5.82013
     2011.94250        -2.31392         5.75860
     2011.94524        -6.53220         5.98669
     2011.94798        -1.88647         5.75966
     2011.95071        -1.70475         5.73950
     2011.95345        -2.26803         5.81907
     2011.95619         2.94569         5.83711
     2011.95893        -1.30259         5.66630
     2011.96167        -0.73086         5.63129
     2011.96440         0.96686         5.73208
     2011.96714         1.96958         5.80528
     2011.96988        -4.74270         5.61432
     2011.97262        -3.72297         5.67691
     2011.97535        -7.81525         5.65039
     2011.97809        -5.71553         5.66842
     2011.98083        -4.72981         5.63659
     2011.98357        -5.76909         5.62705
     2011.98631        -2.97536         5.62705
     2011.98904        -0.95664         5.63553
     2011.99178        -1.92392         5.59098
     2011.99452        11.29480         5.60371
     2011.99726        -8.38348         5.65145
     2012.00000       -12.73875         5.61007
     2012.00273        -5.01203         5.61644
     2012.00547        -4.10831         5.60158
     2012.00821        -7.45659         5.74269
     2012.01095        -1.82787         5.62705
     2012.01368        -7.80114         5.58885
     2012.01642        -9.76142         5.61432
     2012.01916        -1.79470         5.65569
     2012.02190        -6.62998         5.58885
     2012.02464       -10.16025         5.56976
     2012.02737       -11.31153         5.63023
     2012.03011       -14.39481         5.74481
     2012.03285       -12.23809         5.59098
     2012.03559       -15.01937         5.58567
     2012.03833       -16.77564         5.60477
     2012.04106       -15.64692         5.62599
     2012.04380       -19.42320         5.78618
     2012.04654       -20.80248         5.64508
     2012.04928       -16.94276         5.65357
     2012.05201       -17.27803         5.65145
     2012.05475        -5.93431         5.65251
     2012.05749        -8.65259         5.71510
     2012.06023       -12.86187         5.72995
     2012.06297        -7.23515         5.81377
     2012.06570        -3.45042         5.63872
     2012.06844        -7.56170         5.58567
     2012.07118        -7.31798         5.56339
     2012.07392       -10.43126         5.63023
     2012.07666        -6.02953         5.66206
     2012.07939        -6.04481         5.56127
     2012.08213        -7.07409         5.62599
     2012.08487        -3.98937         5.51777
     2012.08761       -12.49165         5.59946
     2012.09040       -13.72903         5.71510
     2012.09308       -15.24220         5.56870
     2012.09582       -13.59148         5.60158
     2012.09856       -10.84376         5.75223
     2012.10130        -7.80904         5.79785
     2012.10398        -8.02020         6.16493
     2012.10711       -13.92725         6.78237
     2012.10962       -13.03209         5.90500
     2012.11322       -10.37502        10.46584
     2012.11498        -9.04843         5.57294
     2012.11772       -10.36770         5.59310
     2012.12046        -5.23098         5.63129
     2012.12320       -11.53826         5.66736
     2012.12594        -9.75754         5.58991
     2012.12867       -11.09281         5.57294
     2012.13141       -12.20209         5.59204
     2012.13415       -15.61137         5.70237
     2012.13689        -7.21165         5.58567
     2012.13963        -5.02693         5.67160
     2012.14236        -7.19120         5.65993
     2012.14510        -7.45048         5.57931
     2012.14784       -11.25976         5.55915
     2012.15058       -15.14104         5.70874
     2012.15331       -12.62132         5.51777
     2012.15605        -9.68759         5.63129
     2012.15879        -4.11387         5.64933
     2012.16153        -8.77215         5.54854
     2012.16427       -17.56343         5.66842
     2012.16700       -11.85571         5.63023
     2012.16923       -13.30299         7.09852
     2012.17248       -13.59826         5.56021
     2012.17522       -13.31654         5.52520
     2012.17796       -12.41382         5.60158
     2012.18069       -11.51609         5.92304
     2012.18343       -13.42437         5.57612
     2012.18617       -11.33565         6.05884
     2012.18891       -11.01693         5.97502
     2012.19164        -1.79921         5.62280
     2012.19438         6.60552         5.68327
     2012.19712        -5.94376         5.57825
     2012.19986        -4.37204         5.58779
     2012.20260        -5.99232         5.83817
     2012.20533        -4.68860         5.64508
     2012.20807       -12.04487         5.63341
     2012.21081        -7.11715         5.58885
     2012.21355        -9.95643         5.58355
     2012.21629        -5.29871         5.58249
     2012.21902       -10.38399         5.74269
     2012.22176        -7.75226         5.58143
     2012.22450       -18.40354         5.55172
     2012.22724       -11.21382         5.54748
     2012.22997        -8.65210         5.52202
     2012.23271        -4.15237         5.59204
     2012.23545        -4.74065         5.58567
     2012.23819        -2.68393         5.58037
     2012.24093        -4.99021         5.57294
     2012.24366        -4.87949         5.56339
     2012.24640        -8.94276         5.53899
     2012.24914        -5.74904         5.55384
     2012.25188        -6.53532         6.12779
     2012.25462       -11.14060         5.56764
     2012.25735       -12.36188         5.74693
     2012.26009       -15.69215         5.54960
     2012.26283       -12.29943         5.55491
     2012.26557       -17.72671         5.56764
     2012.26830       -17.87199         5.54536
     2012.27104       -13.61727         5.69494
     2012.27378       -12.09954         5.56445
     2012.27652       -10.47982         5.53475
     2012.27926       -11.87210         5.66736
     2012.28199        -9.93838         5.55597
     2012.28473        -9.58265         5.53050
     2012.28747       -16.66693         5.53369
     2012.29021        -8.23721         5.55491
     2012.29295       -14.67449         5.56870
     2012.29568       -15.00177         5.54748
     2012.29842       -10.61004         5.60265
     2012.30116       -15.00932         5.52520
     2012.30390       -18.22660         5.51671
     2012.30663       -15.88288         5.82225
     2012.30937       -12.40816         5.64508
     2012.31211       -11.50043         6.07369
     2012.31485        -8.55371         5.82968
     2012.31759       -14.48899         5.59204
     2012.32032       -10.98127         5.70661
     2012.32306       -11.57655         5.55597
     2012.32580       -11.14082         5.56764
     2012.32854       -11.52410         5.55597
     2012.33128        -8.67838         5.60583
     2012.33401       -12.48166         5.68964
     2012.33675        -8.88893         5.56764
     2012.33949       -11.29621         5.54111
     2012.34223       -15.02749         5.53581
     2012.34496       -17.50277         5.49443
     2012.34770       -15.59305         5.56127
     2012.35044       -11.98832         5.61750
     2012.35318       -11.81860         5.52944
     2012.35592       -10.97388         5.52838
     2012.35865       -12.88416         5.58885
     2012.36139       -15.87644         5.56658
     2012.36413       -13.34571         5.56021
     2012.36687       -13.76199         5.53475
     2012.36961       -13.29627         5.53793
     2012.37234        -8.52655         5.55597
     2012.37508       -10.14983         5.52202
     2012.37782       -12.83510         5.64933
     2012.38056       -16.98538         5.64296
     2012.38329        -7.27166         5.67903
     2012.38603       -10.67694         5.65569
     2012.38877       -17.30521         5.68858
     2012.39151        -8.19649         5.63766
     2012.39425       -12.94577         5.62386
     2012.39698       -12.67605         5.67160
     2012.39972        -9.67633         5.62386
     2012.40246       -13.03560         5.52944
     2012.40520        -9.35388         5.51565
     2012.40794       -11.31816         5.48064
     2012.41067        -6.86444         5.54217
     2012.41341        -9.89572         5.54960
     2012.41615        -8.00399         5.53581
     2012.41889        -7.76227         5.66630
     2012.42162       -13.38455         5.51353
     2012.42436        -7.82483         5.56445
     2012.42710       -10.70411         5.57931
     2012.42984        -7.03138         5.55809
     2012.43258        -8.77666         5.54854
     2012.43531       -10.83594         5.55703
     2012.43805       -13.89522         5.50929
     2012.44079       -17.90949         5.56021
     2012.44353       -13.76977         5.61325
     2012.44626       -11.62005         5.57294
     2012.44900        -6.56033         5.56339
     2012.45174        -7.56961         5.51777
     2012.45448        -9.76288         5.53263
     2012.45722        -3.59516         5.69176
     2012.45995        -8.09744         5.74269
     2012.46269        -6.22472         5.57718
     2012.46543       -11.29200         5.56870
     2012.46817        -8.48227         5.62068
     2012.47091        -8.42155         5.55703
     2012.47364        -8.87083         5.55278
     2012.47638       -14.65911         5.56764
     2012.47912        -8.59339         5.54217
     2012.48186       -11.13466         5.51883
     2012.48459        -7.39094         5.51565
     2012.48733        -9.56322         5.57082
     2012.49007        -8.60750         5.59946
     2012.49281        -8.09877         5.52944
     2012.49555        -9.67605         5.56339
     2012.49828        -9.23733         5.51459
     2012.50102        -3.87761         5.52732
     2012.50376        -5.43189         5.53157
     2012.50650       -11.16116         5.56233
     2012.50924       -10.24444         5.66312
     2012.51197        -9.27372         5.68752
     2012.51471        -8.91800         5.52202
     2012.51745        -5.74628         5.55491
     2012.52019        -3.80555         5.58567
     2012.52292       -13.47583         5.57931
     2012.52566       -10.38111         5.52626
     2012.52840        -8.72839         5.56339
     2012.53114        -8.22667         5.56445
     2012.53388        -9.21394         5.57825
     2012.53661        -6.19222         6.31027
     2012.53935        -7.67050         5.80740
     2012.54209        -1.97678         5.57718
     2012.54483        -0.46205         5.54748
     2012.54757         2.08767         5.63978
     2012.55030        -2.41461         5.65569
     2012.55304        -0.91089         5.63235
     2012.55578        -4.12717         5.53157
     2012.55852        -3.34244         5.55278
     2012.56125        -0.56972         5.56976
     2012.56399        -5.98000         5.52626
     2012.56673        -1.43728         5.53263
     2012.56947         1.43044         5.58461
     2012.57221         3.45117         5.52520
     2012.57494        -2.33611         5.54324
     2012.57768        -0.39539         5.56233
     2012.58042         1.36033         5.54111
     2012.58316        -7.68095         5.61325
     2012.58590        -2.32222         5.58779
     2012.58863         3.22850         5.76496
     2012.59137         2.68422         5.86681
     2012.59411         0.37894         5.62917
     2012.59685         1.23367         5.61219
     2012.59958         6.01239         5.61750
     2012.60232         4.18711         5.89121
     2012.60506        -1.71917         5.56551
     2012.60780         1.89455         5.55278
     2012.61054         3.41028         5.50716
     2012.61327         3.36000         5.51671
     2012.61601         4.15172         5.59628
     2012.61875         4.82844         5.57294
     2012.62149         0.35516         5.52944
     2012.62423         1.95789         5.56127
     2012.62696         4.83261         5.50823
     2012.62970         1.40633         5.66630
     2012.63244        -1.30095         5.55915
     2012.63518         4.10177         5.55172
     2012.63791         6.45750         5.53475
     2012.64065         5.80122         5.55915
     2012.64339         1.63294         5.51990
     2012.64613         0.40766         5.50610
     2012.64887         3.25239         5.56976
     2012.65160         3.62211         5.58673
     2012.65434         3.34183         5.51141
     2012.65708         8.10855         5.75117
     2012.65982         8.69427         5.82225
     2012.66256         4.63500         5.48913
     2012.66529         0.40472         5.51141
     2012.66803         3.24544         5.57718
     2012.67077         5.16316         5.57082
     2012.67351        -0.46312         5.72359
     2012.67624         0.18261         5.51671
     2012.67898         3.25133         5.70661
     2012.68172         1.46005         5.65463
     2012.68446        -1.18523         5.64190
     2012.68720        -1.43651         5.58673
     2012.68993        -2.57678         5.64826
     2012.69267         3.55794         5.69494
     2012.69541         1.60866         5.66206
     2012.69815        -1.37662         5.69388
     2012.70089         1.50611         5.80422
     2012.70362       -10.48917         5.77770
     2012.70636        -6.77845         5.51565
     2012.70910        -5.52473         5.52944
     2012.71184        -1.72701         5.65781
     2012.71457         3.00772         5.60052
     2012.71731         2.93244         5.62599
     2012.72005        -2.18684         5.53263
     2012.72279        -0.57012         5.54748
     2012.72553         4.88360         5.54642
     2012.72826        -2.39667         5.98775
     2012.73100        -3.49995         5.69707
     2012.73374         0.76577         5.63023
     2012.73648         0.54049         5.56551
     2012.73921        -8.46679         6.03550
     2012.74195        -3.16806         5.62705
     2012.74469         2.62566         5.60477
     2012.74743        -0.37962         5.63659
     2012.75017        -2.19090         6.12673
     2012.75290         1.90983         5.54854
     2012.75564        -4.00245         5.55278
     2012.75838        -3.66673         5.60477
     2012.76112         1.05499         5.62174
     2012.76386        -3.72829         5.56976
     2012.76659        -0.85356         5.62068
     2012.76933        -2.33584         5.89121
     2012.77207        -2.15312         5.91031
     2012.77481         2.41960         5.62599
     2012.77754        -1.70668         5.61856
     2012.78028         2.89605         5.61113
     2012.78302         6.73777         5.87636
     2012.78576        -1.50851         5.94532
     2012.78850         7.22421         5.61750
     2012.79068         5.28600         7.10383
     2012.79479         1.69008         9.49617
     2012.79671        -3.35162         5.65675
     2012.79945         2.79610         5.63872
     2012.80219         2.99382         5.73950
     2012.80492         1.28055         5.67479
     2012.80766         5.01227         5.62174
     2012.81040         0.85499         5.62174
     2012.81314        -0.17229         5.60583
     2012.81587        -2.39557         5.59628
     2012.81861        -0.75784         5.69176
     2012.82135         1.97588         5.64614
     2012.82409         9.33260         5.64296
     2012.82683         8.04332         5.62068
     2012.82956        10.45204         5.65887
     2012.83230         9.52677         5.60477
     2012.83504         4.80549         5.74162
     2012.83778         8.17721         5.67479
     2012.84052         8.37993         5.68540
     2012.84325         7.14565         5.80528
     2012.84599        12.85138         5.67054
     2012.84873         9.61810         5.60052
     2012.85147         9.80082         5.65145
     2012.85420         4.19854         5.64402
     2012.85694         2.73027         5.61325
     2012.85968         7.12399         5.67479
     2012.86242         7.67971         5.61856
     2012.86516        11.23643         5.65993
     2012.86789         7.44315         5.83711
     2012.87063         2.06788         6.15644
     2012.87337         3.84460         5.69813
     2012.87611         9.33532         5.62705
     2012.87885        13.21104         5.66206
     2012.88158        13.34276         5.65887
     2012.88432        10.79449         5.62705
     2012.88706         2.40921         5.78300
     2012.88980        13.73693         5.76284
     2012.89253         6.17465         5.64296
     2012.89527        10.70737         5.64933
     2012.89801         2.96910         5.63978
     2012.90075         8.38882         5.62811
     2012.90349         2.60254         5.60265
     2012.90622         8.58226         5.60477
     2012.90896        11.41999         5.66630
     2012.91170         6.19471         5.66312
     2012.91444         9.45443         5.63659
     2012.91718         9.54915         5.60795
     2012.91991        12.35887         5.58991
     2012.92265         5.44260         5.59522
     2012.92539         4.60932         5.59204
     2012.92813         7.40804         5.67373
     2012.93086         2.20876         5.78088
     2012.93360         2.04548         5.78512
     2012.93634        -1.21479         5.58249
     2012.95003         8.38482         5.71298
     2012.95277         8.42254         5.59204
     2012.95551         9.86426         5.61432
     2012.95824        10.57098         5.58461
     2012.96098         8.10571         5.71086
     2012.96372         8.44343         5.73102
     2012.96646         7.67915         5.59628
     2012.96919         5.30587         5.63659
     2012.97193         3.97259         5.70661
     2012.97467         8.64432         5.56764
     2012.97741         8.02504         5.55066
     2012.98015         2.74976         5.58249
     2012.98288         4.70148         5.62811
     2012.98562         7.86720         5.60052
     2012.98836         7.12193         5.55597
     2012.99110         6.59465         5.57506
     2012.99384         8.54937         5.59946
     2012.99657         8.89209         5.63978
     2012.99931         4.10981         5.64190
     2013.00205         5.24754         5.59628
     2013.00479         4.37826         5.67903
     2013.00752         3.13298         5.67585
     2013.01026         2.35870         5.66206
     2013.01300         7.40243         5.70768
     2013.01574         4.20015         5.61007
     2013.01848         3.63887         5.67691
     2013.02121         4.32059         5.62174
     2013.02395         1.23331         5.63553
     2013.02669        -0.12396         5.75117
     2013.02943        -1.83124         5.62705
     2013.03216        -3.76052         5.61750
     2013.03490        -5.15380         5.60158
     2013.03764        -0.60808         5.67585
     2013.04032        -6.47224         5.77770
     2013.04312        -6.24463         5.75860
     2013.04585         0.02209         5.83817
     2013.04859        -0.74019         5.77770
     2013.05133        -0.56747         5.66312
     2013.05407        -4.97474         5.62811
     2013.05681        -5.46602         5.63872
     2013.05954        -4.57330         5.78618
     2013.06228        -1.28958         5.71298
     2013.06502        -0.14885         5.73208
     2013.06776        -1.37613         5.71510
     2013.07049         5.86159         5.68115
     2013.07323         5.85931         5.58143
     2013.07597        -0.07097         5.58885
     2013.07871         2.78576         5.66736
     2013.08145         7.01648         5.61325
     2013.08418         1.83420         5.63766
     2013.08692         0.26492         5.68646
     2013.08966        -3.84836         5.65039
     2013.09240         3.16237         5.59946
     2013.09514         7.33509         5.63659
     2013.09787         2.53281         5.83817
     2013.10061         5.02753         5.91455
     2013.10335         0.04325         5.61538
     2013.10609         0.93498         5.56127
     2013.10882         4.45270         5.59522
     2013.11156        -6.01258         5.77345
     2013.11430         0.48914         5.62811
     2013.11704        -6.85113         5.70237
     2013.11978        -3.09041         5.82438
     2013.12251         1.19031         5.61219
     2013.12525        -5.15897         5.62280
     2013.12799        -1.13825         5.57612
     2013.13073        -0.41952         5.59840
     2013.13347        -2.89580         5.57188
     2013.13620         2.31992         5.59734
     2013.13894         7.20564         5.60583
     2013.14168        12.05436         5.69707
     2013.14442         8.33009         5.76390
     2013.14715         7.97881         5.78300
     2013.14989        -7.72047         5.62492
     2013.15263        -4.55575         5.63023
     2013.15537       -11.87903         5.65569
     2013.15811       -10.06830         5.62705
     2013.16084        -6.67758         5.61856
     2013.16358        -9.06686         5.67691
     2013.16632        -9.48614         5.67585
     2013.16906        -1.55841         5.61644
     2013.17180        -5.88969         5.62492
     2013.17453        -4.79597         5.58143
     2013.17727        -1.59125         5.67373
     2013.18001        -2.64553         5.75648
     2013.18275        -0.33780         5.66842
     2013.18548        -1.35708         5.56551
     2013.18822        -3.37236         5.56976
     2013.19096        -2.89464         5.51565
     2013.19370         0.42808         5.50292
     2013.19644        -1.13819         5.63341
     2013.19917        -3.20247         5.59310
     2013.20191        -1.58175         5.62917
     2013.20465         1.21997         5.52838
     2013.20739        -2.00631         5.88803
     2013.21013        -7.54158         5.55491
     2013.21286        -7.42486         5.55597
     2013.21560         0.26186         5.57825
     2013.21834         1.34658         5.63447
     2013.22108        -7.46769         5.53581
     2013.22381        -4.19997         5.61644
     2013.22655        -4.46125         5.56339
     2013.22929        -4.42953         5.52838
     2013.23203        -4.86981         5.56658
     2013.23477        -6.39008         5.55703
     2013.23750        -9.24036         5.63659
     2013.24024        -9.64164         5.65887
     2013.24298        -6.81892         5.63553
     2013.24572         0.05180         5.64084
     2013.24846        -0.64347         5.70874
     2013.25119        -1.95275         5.66948
     2013.25393        -5.22003         5.63553
     2013.25667        -3.02331         5.73526
     2013.25941         3.83041         5.58991
     2013.26214         0.41514         5.67691
     2013.26488        -1.96314         5.68434
     2013.26762        -7.10542         5.69919
     2013.27036        -5.42870         5.77345
     2013.27310        -2.84497         5.72677
     2013.27583        -4.87125         5.78194
     2013.27857         0.23247         5.81589
     2013.28131         2.99019         5.67267
     2013.28405        -3.14309         5.64720
     2013.28679        -4.70436         5.62068
     2013.28952       -10.07764         5.60371
     2013.29226        -0.98392         5.64614
     2013.29500        -1.67020         5.70237
     2013.29774        -6.81948         5.63447
     2013.30047        -8.14475         5.62599
     2013.30321       -10.82003         5.62811
     2013.30595        -8.47431         5.67691
     2013.30869        -6.90959         5.69601
     2013.31143        -7.89087         5.70131
     2013.31416        -0.11914         5.64402
     2013.31690        -3.83842         5.68752
     2013.31964        -0.60570         5.68434
     2013.32238        -2.30698         5.78088
     2013.32512         1.54275         5.73208
     2013.32785        -2.33453         5.65357
     2013.33059        -8.61881         5.68434
     2013.33333        -8.01509         5.69813
     2013.33607        -7.41937         5.69707
     2013.33880        -2.92864         5.70131
     2013.34154         1.36108         5.67479
     2013.34428        -3.98620         5.66418
     2013.34702        -5.42448         5.64933
     2013.34976        -4.69476         5.69494
     2013.35249        -7.89303         5.70343
     2013.35523        -4.70231         5.81271
     2013.35797        -5.12659         5.68646
     2013.36071        -0.40887         5.63659
     2013.36344        -1.37915         5.69176
     2013.36618         0.57558         5.70131
     2013.36892         2.49130         5.65463
     2013.37166        -1.56598         5.66842
     2013.37440        -2.05526         5.64190
     2013.37713        -3.82753         5.80740
     2013.37987        -3.53681         5.68858
     2013.38261        -4.75509         5.68434
     2013.38535        -5.04737         5.67691
     2013.38809         1.05035         5.70661
     2013.39082        -1.58392         5.67797
     2013.39356         2.55480         5.70449
     2013.39630         0.24052         5.77982
     2013.39904         3.48524         5.70555
     2013.40177         4.76896         5.70131
     2013.40451         2.73969         5.68221
     2013.40725         4.60041         5.69494
     2013.40999         4.10413         5.65675
     2013.41273         2.91585         5.66948
     2013.41546        -0.17243         6.14371
     2013.41820        -4.89670         5.68858
     2013.42094         5.28602         5.77133
     2013.42368        -1.87526         5.77770
     2013.42642        -3.05654         5.67054
     2013.42915        -0.09381         5.70237
     2013.43189        -1.64709         5.82968
     2013.43463        -0.71937         5.68752
     2013.43737        -1.55665         5.67373
     2013.44010        -2.14593         5.75648
     2013.44284        -0.90620         5.66206
     2013.44558        -1.81148         5.79255
     2013.44832        -2.61876         5.71404
     2013.45106         1.18496         5.65145
     2013.45379        -1.22932         5.68858
     2013.45653        -2.11959         5.65675
     2013.45927         1.14513         5.69919
     2013.46201         2.89885         5.69070
     2013.46475        -0.05643         5.69707
     2013.46748         1.56029         5.68540
     2013.47022         3.36202         5.67479
     2013.47296         2.33874         5.67054
     2013.47570         3.11746         5.64508
     2013.47843         6.15618         5.80104
     2013.48117         5.16391         5.68858
     2013.48391         6.75763         5.70131
     2013.48665        -0.15265         5.61007
     2013.48939         1.16707         5.72677
     2013.49212         0.18779         6.18614
     2013.49486        -1.19648         5.78618
     2013.49760         9.36024         5.70343
     2013.50034         1.60096         5.66312
     2013.50308         0.76568         5.64720
     2013.50581         1.78740         5.64826
     2013.50855         3.20313         5.68646
     2013.51129         3.48185         5.84453
     2013.51403         3.15257         5.71298
     2013.51676         6.98529         5.77557
     2013.51950         7.66901         5.68752
     2013.52224         9.53674         5.68540
     2013.52498         9.74746         5.74905
     2013.52772         8.69318         5.68646
     2013.53045         6.92590         5.68434
     2013.53319         0.51463         5.68434
     2013.53593         4.46835         5.66630
     2013.53867         4.13707         5.60901
     2013.54141         1.39379         5.63129
     2013.54414         3.28751         5.67160
     2013.54688         2.64324         5.68327
     2013.54962         7.93696         5.61219
     2013.55236        11.07068         5.62174
     2013.55509         9.16740         5.62068
     2013.55783         8.65912         5.71828
     2013.56057         6.13885         5.84347
     2013.56331         7.12057         5.85196
     2013.56605         6.79729         5.66312
     2013.56878        10.53801         5.68221
     2013.57152        10.50973         5.66842
     2013.57426         7.37546         5.69707
     2013.57700         7.11918         5.68858
     2013.57974         7.83490         5.61113
     2013.58247        10.65862         5.63978
     2013.58521        11.53835         5.68858
     2013.58795         8.46907         5.65781
     2013.59069        12.58979         5.68327
     2013.59342        10.12151         5.82119
     2013.59616         9.09323         5.64190
     2013.59890         8.63696         5.66312
     2013.60164         6.38268         5.95274
     2013.60438        11.28340         5.69070
     2013.60711         6.94212         5.66842
     2013.60985        13.05584         5.64084
     2013.61259         9.40657         5.67797
     2013.61533        10.93229         5.72465
     2013.61807         5.92401         5.82968
     2013.62080         7.59873         5.79891
     2013.62354        10.28445         5.63447
     2013.62628        10.57118         5.76921
     2013.62902        11.26990         5.65357
     2013.63175        11.10562         5.69919
     2013.63449        10.58734         5.79997
     2013.63723        11.48907         5.78724
     2013.63997        11.48579         5.72041
     2013.64271        10.89751         5.67797
     2013.64544        14.56623         5.67797
     2013.64818        10.62595         5.76496
     2013.65092        10.07368         5.65781
     2013.65366        13.46440         5.66630
     2013.65639         9.01712         5.63235
     2013.65913        15.48184         5.81907
     2013.66187        10.43956         5.77557
     2013.66461         7.95929         5.80104
     2013.66735        12.70901         5.70025
     2013.67008        16.29673         5.60795
     2013.67282        12.74145         5.76072
     2013.67556        14.80917         5.73844
     2013.67830        17.71890         5.76390
     2013.68104        14.02862         5.67054
     2013.68377        12.87534         5.63766
     2013.68651        13.07506         6.06944
     2013.68925        10.75379         5.65569
     2013.69199        11.86551         5.67903
     2013.69428        11.95409         6.62218
     2013.69838        14.36818        11.42172
     2013.70020        16.54067         5.67585
     2013.70294        12.17040         5.62386
     2013.70568        14.62712         5.65251
     2013.70841        13.14884         5.71510
     2013.71115        14.21756         5.76496
     2013.71389        12.20928         5.67267
     2013.71663         9.67501         5.64402
     2013.71937        20.53473         5.91031
     2013.72210        13.81245         5.74799
     2013.72484        11.86917         5.69176
     2013.72758        12.00389         5.70661
     2013.73032        14.20062         5.71935
     2013.73305        10.20234         5.66312
     2013.73579         8.91006         5.77345
     2013.73853        12.20678         5.68964
     2013.74127        15.38251         5.68327
     2013.74401        17.00523         5.76390
     2013.74674        18.92395         5.68115
     2013.74948        10.09667         5.65357
     2013.75222        10.37639         5.84772
     2013.75496         5.13312         5.70237
     2013.75770         9.94784         5.79997
     2013.76043        10.26356         5.71086
     2013.76317         6.34828         5.67160
     2013.76591        16.48200         5.70237
     2013.76865         6.86373         5.69282
     2013.77138         5.07745         5.91455
     2013.77412        17.62917         5.74799
     2013.77686        13.73489         5.66206
     2013.77960        11.90661         5.57825
     2013.78234         3.44134         5.65145
     2013.78507         5.87506         5.72783
     2013.78781         5.69478         5.75011
     2013.79055         6.26850         5.67160
     2013.79329         5.51923         5.62386
     2013.79603        11.16195         5.61538
     2013.79876        11.21467         5.69070
     2013.80150        10.60639         5.76921
     2013.80424        11.81111         5.80952
     2013.80698        12.91584         5.67373
     2013.80977        15.11745         6.06202
     2013.81245        15.10028         5.59946
     2013.81519         7.88100         5.65357
     2013.81793        15.36572         5.82650
     2013.82067         6.63645         5.61750
     2013.82340         5.17117         5.62811
     2013.82614         7.26089         5.74693
     2013.82888        12.34361         5.89970
     2013.83162        12.08633         5.69919
     2013.83436        15.24106         5.79149
     2013.83709        14.06078         5.73526
     2013.83983         7.21050         5.70661
     2013.84257         5.64722         5.78406
     2013.84531         6.47895         5.83074
     2013.84804         6.02567         5.70025
     2013.85078        11.62539         5.69176
     2013.85352        14.81411         5.68327
     2013.85626        13.17083         5.96866
     2013.85900        -0.07444         5.69919
     2013.86173        -0.37472         5.82119
     2013.86447         1.60900         5.67903
     2013.86721        11.09772         5.59522
     2013.86995         5.88744         5.59840
     2013.87269         7.95217         5.72253
     2013.87542        12.82389         5.71828
     2013.87816        18.89561         5.67479
     2013.88090         8.60033         5.65569
     2013.88364         7.72205         5.89333
     2013.88637         4.99378         5.73420
     2013.88911        -2.42150         5.75011
     2013.89185         1.28822         5.65781
     2013.89459         4.32194         5.69707
     2013.89733         6.62367         5.65357
     2013.90006        13.99539         5.92304
     2013.90280         5.23111         5.87212
     2013.90554         6.51683         5.73950
     2013.90828         6.38955         5.69282
     2013.91102         2.00928         5.63447
     2013.91375         1.48300         5.56551
     2013.91649         2.57072         5.62068
     2013.91923         2.65144         5.73102
     2013.92197        -2.34684         5.69282
     2013.92470         0.88389         5.65251
     2013.92744         2.14661         5.73208
     2013.93018        -0.95367         5.57931
     2013.93292        -1.01995         5.62705
     2013.93566         1.56677         5.67797
     2013.93839         1.89450         5.67267
     2013.94113         4.64722         5.65569
     2013.94387         4.17294         5.60583
     2013.94661         2.81666         5.72147
     2013.94935         3.32239         5.66524
     2013.95208         1.13611         5.70237
     2013.95482         6.71583         5.71616
     2013.95756         5.04755         5.63023
     2013.96030         6.04527         5.61962
     2013.96303         0.44800         5.59522
     2013.96577         5.30072         5.65039
     2013.96851         8.62944         5.65463
     2013.97125        10.57816         5.65569
     2013.97399         5.87188         5.71192
     2013.97672         4.67661         5.61432
     2013.97946         3.31133         5.59522
     2013.98220         3.18905         5.72253
     2013.98494         0.95477         5.64084
     2013.98767        -0.59651         5.69388
     2013.99041        -1.94178         5.64826
     2013.99315        -4.69106         5.66948
     2013.99589        -1.27434         5.76921
     2013.99863         1.11338         5.64933
     2014.00136       -17.05689         5.69494
     2014.00410         1.34683         5.81164
     2014.00684         0.95255         5.63766
     2014.00958         1.89027         5.68115
     2014.01232        -2.07501         5.68009
     2014.01505         4.72372         5.89970
     2014.01779         2.14544         5.81377
     2014.02053         7.29316         5.74905
     2014.02327         4.67288         5.81164
     2014.02600        10.33760         5.82544
     2014.02874         5.91133         5.65887
     2014.03148         6.39105         5.64084
     2014.03422         8.37177         5.73632
     2014.03696         3.29849         5.67903
     2014.03969         4.66021         5.80846
     2014.04243         3.06494         5.85196
     2014.04517         4.04966         5.88697
     2014.04791         5.99538         5.79785
     2014.05065         6.14410         5.63553
     2014.05338        -1.58217         5.62811
     2014.05612        -0.66345         5.66630
     2014.05886        -6.12873         5.65781
     2014.06160         2.31999         5.64296
     2014.06433         2.37271         5.75648
     2014.06707         1.81144         5.75223
     2014.06981        -0.76884         5.72465
     2014.07255        -3.96012         5.65145
     2014.07529         0.32760         5.76815
     2014.07802         2.65832         5.64296
     2014.08076         7.06905         5.67479
     2014.08350         6.12477         5.59734
     2014.08624         4.03149         5.71298
     2014.08898         2.58521         5.89333
     2014.09171         3.44493         5.91031
     2014.09445         3.33866         5.76178
     2014.09719         0.61038         5.75011
     2014.09993         8.10110         5.62174
     2014.10266         6.52982         5.80210
     2014.10540         7.48655         5.69707
     2014.10814         5.25627         5.64402
     2014.11088         5.97599         5.88060
     2014.11362         1.33571         5.69176
     2014.11635         8.24643         5.66524
     2014.11909         9.07816         5.71086
     2014.12183         8.41188         5.77133
     2014.12457        11.37660         5.70661
     2014.12731        12.99332         5.70661
     2014.13004        12.96304         5.71616
     2014.13278         7.81177         5.93047
     2014.13552        14.30049         6.16068
     2014.14099         2.73093         5.65039
     2014.14373         4.61665         5.70025
     2014.14647        10.65938         5.68646
     2014.14921         8.21310         5.68540
     2014.15195         7.45782         5.75117
     2014.15468         7.84554         5.72783
     2014.15742         8.82527         5.95274
     2014.16016         7.10099         6.02913
     2014.16290         3.35771         5.77876
     2014.16564         3.02343         5.64933
     2014.16837         5.24015         5.81483
     2014.17111         5.20188         5.82331
     2014.17385         4.83260         5.89652
     2014.17659        -0.35968         5.81164
     2014.17932         5.65704         5.95062
     2014.18206         0.14376         5.90713
     2014.18480         4.30149         5.69494
     2014.18754         4.20121         5.74905
     2014.19028         2.96293         5.72147
     2014.19301         6.58365         5.78618
     2014.19575         8.22137         5.68858
     2014.19849         3.01210         5.71298
     2014.20123         1.78882         5.72677
     2014.20397         1.74254         5.77133
     2014.20670         1.43526         5.67797
     2014.20944         2.94699         5.64614
     2014.21218         4.36971         5.69494
     2014.21492         0.90043         5.77770
     2014.21765         1.82615         5.72465
     2014.22039         0.50387         5.68115
     2014.22313         1.29160         5.68115
     2014.22587         4.62732         5.67903
     2014.22861         1.31004         5.68964
     2014.23134         9.25776         5.70343
     2014.23408         4.64448         5.72995
     2014.23682         4.04921         5.66630
     2014.23956         1.47993         5.77451
     2014.24230         0.52565         5.70025
     2014.24503        -2.95663         5.68434
     2014.24777         2.52209         5.99836
     2014.25051        -2.88618         5.68009
     2014.25325        -1.74346         5.60795
     2014.25598         2.79126         5.86681
     2014.25872         0.89298         5.68646
     2014.26146         2.54171         5.85090
     2014.26420        -3.44757         5.68115
     2014.26694         1.23115         5.68646
     2014.26967        -0.80213         5.63341
     2014.27241        -3.25141         5.80846
     2014.27515         2.03932         5.85408
     2014.27789        -4.24796         5.83074
     2014.28062        -1.43124         5.69282
     2014.28336        -0.99252         5.68858
     2014.28610         2.20020         5.76284
     2014.28884         0.06893         5.93153
     2014.29158        -5.47235         5.67160
     2014.29431        -1.26763         5.65251
     2014.29705         2.12909         5.67585
     2014.29979        -5.18519         5.67267
     2014.30253         1.05354         5.69601
     2014.30527        -1.44074         5.64084
     2014.30800         0.72998         5.64933
     2014.31074         3.65570         5.66736
     2014.31348        -0.15157         5.65357
     2014.31622         4.61315         5.70343
     2014.31895         4.58487         5.69601
     2014.32169        -3.46141         5.79043
     2014.32443        -6.25869         5.72783
     2014.32717       -11.16396         5.83817
     2014.32991        -0.20624         5.65993
     2014.33264        -3.82452         5.68646
     2014.33538        -0.45080         5.70874
     2014.33812        -1.09008         5.76496
     2014.34086         0.59065         5.64296
     2014.34360         3.61737         5.66100
     2014.34633         0.80909         5.69494
     2014.34907         0.25581         5.86893
     2014.35181         3.01353         5.86257
     2014.35455         5.85226         5.63341
     2014.35728        -0.75702         5.62068
     2014.36002        -2.65930         5.67054
     2014.36276        -0.61658         5.71404
     2014.36550        -0.56185         5.72465
     2014.36824        -2.87113         5.75860
     2014.37097         0.16959         5.63978
     2014.37371         2.38931         5.62599
     2014.37645         3.33403         5.64933
     2014.37919         5.19376         5.74587
     2014.38193        -2.63152         5.72359
     2014.38466         1.80420         5.77451
     2014.38740        -0.06208         5.70237
     2014.39014         0.21664         5.71828
     2014.39288         0.68837         5.73844
     2014.39561         3.66009         5.70980
     2014.39835         5.15581         5.68858
     2014.40109         1.35653         5.70449
     2014.40383         0.10225         5.70025
     2014.40657         0.52798         5.77451
     2014.40930         2.88670         5.72147
     2014.41204         0.89542         5.65993
     2014.41478         1.29814         5.67160
     2014.41752         5.28987         5.63023
     2014.42026         5.78859         5.65251
     2014.42299         6.54031         5.65145
     2014.42573         1.34003         5.62386
     2014.42847         4.34475         5.67373
     2014.43121         6.83648         5.67267
     2014.43394         5.80320         5.70555
     2014.43668         8.66892         5.64296
     2014.43942         6.26964         5.68009
     2014.44216         3.87336         5.65039
     2014.44490         4.13209         5.77239
     2014.44763         2.45681         5.72995
     2014.45037         6.72753         5.65993
     2014.45311         5.10325         5.68752
     2014.45585         6.00697         5.64614
     2014.45859         4.87170         5.71828
     2014.46132         2.30642         5.69388
     2014.46406         7.71114         5.68009
     2014.46680         3.95486         5.70980
     2014.46954         1.40259         5.68221
     2014.47227         6.03031         5.68964
     2014.47501         5.21103         5.68009
     2014.47775         1.88375         5.73526
     2014.48049         4.40347         5.63447
     2014.48323         6.45120         5.65357
     2014.48596        14.11592         5.68434
     2014.48870        11.66164         5.65463
     2014.49144        11.70036         5.60265
     2014.49418         8.60408         5.55809
     2014.49692         6.49881         5.60477
     2014.49965         7.44753         5.64190
     2014.50239        -1.21675         5.65993
     2014.50513         7.83097         5.66948
     2014.50787         5.46069         5.55491
     2014.51060         5.45542         5.57718
     2014.51334        11.61614         5.55597
     2014.51608         9.63986         5.59204
     2014.51882        10.52758         5.56127
     2014.52156         9.99631         5.64614
     2014.52429        10.84603         5.55278
     2014.52703        12.20775         5.59734
     2014.52977        10.62647         5.58779
     2014.53251         5.09119         5.59098
     2014.53525        14.16692         5.54854
     2014.53798        13.97564         5.58037
     2014.54072        10.68336         5.70555
     2014.54346         9.23508         5.58779
     2014.54620         9.17380         5.57188
     2014.54893        11.69153         5.54536
     2014.55167         7.64125         5.60477
     2014.55441         8.83597         5.55066
     2014.55715         3.92569         5.61432
     2014.55989         8.04341         5.60052
     2014.56262         9.29814         5.54005
     2014.56536         7.42486         5.52096
     2014.56810         9.20458         5.53263
     2014.57084         7.75330         5.59522
     2014.57357         2.18903         5.81589
     2014.57631         7.40075         5.50504
     2014.57905         8.34047         5.52202
     2014.58179         4.92119         5.58779
     2014.58453         4.05591         5.62386
     2014.58726         5.91764         5.82650
     2014.59000         9.91036         5.71086
     2014.59274        17.78408         5.87742
     2014.59548        11.73880         5.70661
     2014.59822        11.08552         5.71086
     2014.60095        11.51725         5.75860
     2014.60369        10.54797         5.68646
     2014.60643         2.20269         5.73314
     2014.60917        14.73941         5.63872
     2014.61190         9.58313         5.79467
     2014.61464        10.67086         5.66524
     2014.61738        12.83158         5.80528
     2014.62012         9.54230         5.75436
     2014.62286        13.10602         5.68964
     2014.62559         7.89875         5.63872
     2014.62833         8.90747         5.74375
     2014.63107        11.40819         5.71298
     2014.63381        12.58891         5.80952
     2014.63655        13.00063         5.62705
     2014.63928         3.29136         5.60795
     2014.64202        15.13908         5.72465
     2014.64476         8.96280         5.62705
     2014.64750        11.09952         5.67585
     2014.65023         6.79024         5.77451
     2014.65297         9.77397         5.82968
     2014.65520        10.18768         6.82163
     2014.66392        14.60185         5.63978
     2014.66666        15.05758         5.59522
     2014.66940        12.76930         5.60795
     2014.67214        11.03902         5.63129
     2014.67488         4.81674         5.63978
     2014.67761         8.27746         5.71192
     2014.68035        10.56619         5.63766
     2014.68309         6.71391         5.72995
     2014.68583        10.24063         5.67160
     2014.68856        10.40035         5.71298
     2014.69130         4.03408         5.78512
     2014.69404         4.38380         5.80740
     2014.69678         3.11052         5.69813
     2014.69952         9.50324         5.73314
     2014.70225         4.89496         5.61325
     2014.70499         8.03369         5.63978
     2014.70773        13.10141         5.77027
     2014.71047        11.83013         5.61113
     2014.71321        13.19985         5.65675
     2014.71594        10.74957         5.95274
     2014.71868         3.40830         5.61538
     2014.72142         9.56802         5.67797
     2014.72416         8.83774         5.71510
     2014.72689         7.36546         5.85726
     2014.72963         8.39518         5.74799
     2014.73237         8.42891         5.67585
     2014.73511         5.98563         5.55703
     2014.73785         5.63735         5.58461
     2014.74058        12.77307         5.77239
     2014.74332        10.82980         5.59946
     2014.74606         9.90952         5.61007
     2014.74880         9.31024         5.70343
     2014.75154         9.63096         5.77133
     2014.75427         6.15568         5.70025
     2014.75701        12.61841         5.73526
     2014.75975        -0.14787         5.74056
     2014.76249         9.99685         5.67267
     2014.76522         8.75157         5.61644
     2014.76796        10.80429         5.63023
     2014.77070         8.42602         5.68964
     2014.77344         7.12474         5.86363
     2014.77618        14.79846         5.69388
     2014.77891         8.63918         5.62811
     2014.78165        15.91290         5.72253
     2014.78439        13.42063         5.63872
     2014.78713        14.10035         5.59734
     2014.78987        12.87207         5.60795
     2014.79260        10.65179         5.58567
     2014.79534        13.46252         5.75436
     2014.79808        18.76824         5.73632
     2014.80082        11.64996         5.67585
     2014.80355         8.63468         5.77027
     2014.80629         3.59840         5.76178
     2014.80903        14.08813         5.78512
     2014.81177        12.85885         5.59628
     2014.81451        16.84457         5.57294
     2014.81724        18.54629         5.56445
     2014.81998        14.52101         5.66206
     2014.82272        14.00674         5.93259
     2014.82546        19.77346         5.59628
     2014.82820        14.46018         5.61538
     2014.83093        17.13290         5.73314
     2014.83367        11.52962         5.69070
     2014.83641        14.56335         5.73102
     2014.83915        12.66607         5.68646
     2014.84188        15.36579         6.00685
     2014.84462         8.11951         5.69813
     2014.84736        16.10724         5.72995
     2014.85010         9.46596         5.69707
     2014.85284        11.32668         5.68009
     2014.85557        11.25640         5.67585
     2014.85831         9.28112         5.84772
     2014.86105         4.67285         5.68327
     2014.86379         7.51057         5.66524
     2014.86653         8.70029         5.66842
     2014.86926         5.41701         5.70025
     2014.87200         8.06573         5.75966
     2014.87474         7.55846         5.64933
     2014.87748         6.85918         5.81058
     2014.88021         7.04190         5.74269
     2014.88295        12.54962         5.72677
     2014.88569         7.63234         5.82438
     2014.88843        17.74707         5.96548
     2014.89117        13.59779         5.89864
     2014.89390        10.27051         5.82650
     2014.89664        12.36523         5.86787
     2014.89938        11.53996         5.89440
     2014.90212         1.46868         5.79679
     2014.90485         1.66140         5.84665
     2014.90759         8.41312         5.64933
     2014.91033        11.08584         5.68327
     2014.91307         9.07357         5.69176
     2014.91581        10.23129         5.66418
     2014.91854         6.14501         5.62917
     2014.92128         7.14573         5.61750
     2014.92402         7.75545         5.67160
     2014.92676         3.57218         5.68009
     2014.92950         3.08290         5.70131
     2014.93223         2.56262         5.74905
     2014.93497         1.54234         5.89440
     2014.93771         7.51106         5.81907
     2014.94045         4.24679         5.76921
     2014.94318        11.00551         5.86681
     2014.94592         7.11523         5.71086
     2014.94866         1.62795         5.64190
     2014.95140         5.63668         5.61325
     2014.95414         5.18740         5.63766
     2014.95687         4.79312         5.71616
     2014.95961        10.36284         5.63447
     2014.96235         8.75056         5.58673
     2014.96509         7.72729         5.75223
     2014.96783        -1.44799         5.59098
     2014.97056         4.29473         5.71935
     2014.97330         1.88545         5.75542
     2014.97604        -1.19883         5.68009
     2014.97878         5.80190         5.69282
     2014.98151        13.12262         5.72465
     2014.98425         7.01134         5.61219
     2014.98699        12.91706         5.71828
     2014.98973         4.49178         5.57612
     2014.99247         2.30351         5.61113
     2014.99520        -2.17977         5.62917
     2014.99794         4.30395         5.63129
     2015.00342         1.93340         5.75117
     2015.00616         1.50612         5.61325
     2015.00889         6.38984         5.72571
     2015.01163         0.48556         5.72783
     2015.01437         3.98528         5.80952
     2015.01711        -0.19599         6.03550
     2015.01984         7.84273         5.67267
     2015.02258         5.07045         5.76709
     2015.02532         8.29417         5.61962
     2015.02806         4.84989         5.63553
     2015.03080         8.04562         5.62599
     2015.03353         1.38734         5.64720
     2015.03627         7.08006         5.65145
     2015.03901         8.01878         5.68221
     2015.04175        14.30750         5.61538
     2015.04449         1.10123         5.64933
     2015.04722        11.30795         5.64084
     2015.04996         7.28867         5.68327
     2015.05270         7.29139         5.61538
     2015.05544         0.19412         5.61219
     2015.05817         5.03284         5.63766
     2015.06091         8.49656         5.74162
     2015.06365        14.87928         5.82862
     2015.06639         5.96000         5.68540
     2015.06913         5.71073         5.68964
     2015.07186         3.56245         5.63872
     2015.07460         6.16317         5.65675
     2015.07734        -2.14111         5.65887
     2015.08008         2.55161         5.69813
     2015.08282         0.16334         5.66842
     2015.08555         5.54306         5.65463
     2015.08829         9.09578         5.73208
     2015.09103         6.98750         5.65887
     2015.09377         5.36822         5.67903
     2015.09650         6.03995         5.66524
     2015.09924         6.72667         5.82331
     2015.10198         5.95639         5.74799
     2015.10472         3.48911         5.63447
     2015.10746         2.91484         5.63978
     2015.11019        -0.37144         5.72041
     2015.11293         4.56528         5.71616
     2015.11567        -1.29800         5.63341
     2015.11841         3.60772         5.77027
     2015.12115         1.27145         5.60689
     2015.12388         3.71617         5.56551
     2015.12662         0.19689         5.61113
     2015.12936         2.07761         5.62811
     2015.13210        10.37833         5.76284
     2015.13483         1.94906         5.69601
     2015.13757         3.14378         5.70449
     2015.14031         0.47250         5.59628
     2015.14305        -0.05878         5.65039
     2015.14579         1.65994         5.64614
     2015.14852         6.88367         5.60583
     2015.15126         3.39739         5.66524
     2015.15400         5.27011         5.61856
     2015.15674         1.89983         5.61007
     2015.15948         8.05056         5.55703
     2015.16221         3.65028         5.64933
     2015.16495         5.48300         5.79785
     2015.16769         7.75772         5.63129
     2015.17043         8.65344         5.63978
     2015.17316         8.75317         5.72041
     2015.17590         5.78889         5.79679
     2015.17864         5.82961         5.63978
     2015.18138        10.83733         5.69176
     2015.18412         8.13905         5.68115
     2015.18685         7.84078         5.58567
     2015.18959         6.35950         5.67160
     2015.19233        10.90422         5.76072
     2015.19507        11.72294         5.68434
     2015.19780        10.63966         5.61325
     2015.20054         4.89639         5.61325
     2015.20328         7.07711         5.54324
     2015.20602         5.39983         6.30178
     2015.20876         3.91655         5.62174
     2015.21149         1.64228         5.60265
     2015.21423         5.06700         5.81377
     2015.21697         5.62372         5.54748
     2015.21971         6.54644         5.52732
     2015.22245         6.88516         5.52838
     2015.22518         6.48589         5.57506
     2015.22792         5.65761         5.68540
     2015.23066         5.74933         5.61219
     2015.23340         9.60105         5.74162
     2015.23613         7.22877         5.70874
     2015.23887         2.69150         5.91349
     2015.24161         5.56322         5.90394
     2015.24435         9.91694         5.88803
     2015.24709         9.15466         5.81377
     2015.24982         6.02138         5.56021
     2015.25256         6.26011         5.64402
     2015.25530         1.28483         5.83605
     2015.25804         3.03455         5.61432
     2015.26078         4.78727         5.58991
     2015.26351         3.49700         5.61962
     2015.26625         4.16172         5.58885
     2015.26899         5.48244         5.65145
     2015.27173        14.63716         5.89864
     2015.27446        10.38688         5.80740
     2015.27720         5.46161         5.59416
     2015.27994         3.48733         5.57718
     2015.28268         4.34705         5.67479
     2015.28542         3.33877         6.03231
     2015.28815         3.17749         5.86575
     2015.29089        -1.53978         5.62280
     2015.29363        -1.05606         5.61644
     2015.29637        -0.08134         5.61644
     2015.29911         6.50638         5.59946
     2015.30184        15.15910         5.74481
     2015.30458         4.18283         5.58779
     2015.30732         5.09555         5.51035
     2015.31006         0.55927         5.48595
     2015.31279         0.36499         5.50292
     2015.31553         1.57972         5.57825
     2015.31827         3.23244         5.51883
     2015.32101         0.10716         5.67691
     2015.32375        -3.60712         5.55491
     2015.32648         1.81860         5.63447
     2015.32922         6.32533         5.63659
     2015.33196         2.66405         5.46048
     2015.33470        -0.83423         5.51883
     2015.33744        -1.06851         5.52838
     2015.34017        -1.46179         5.53793
     2015.34291        -2.36706         5.57825
     2015.34565        -2.37734         5.53050
     2015.34839        -0.20162         5.54217
     2015.35112        -3.08290         5.58461
     2015.35386         5.86082         5.61962
     2015.35660        -2.46645         5.55384
     2015.35934        -1.55773         5.56870
     2015.36208         1.51799         5.62068
     2015.36481        -0.09829         5.50080
     2015.36755         2.58044         5.48595
     2015.37029         1.93816         5.55278
     2015.37303        -0.47412         5.57294
     2015.37577         0.90660         5.61432
     2015.37850        -4.42668         5.72359
     2015.38124         1.53905         5.50398
     2015.38398        -0.17923         5.53793
     2015.38672        -1.28351         5.58355
     2015.38945         0.17421         5.54536
     2015.39219         0.90993         5.50398
     2015.39493         3.70666         5.49337
     2015.39767         0.48938         5.54748
     2015.40041         0.60010         5.51247
     2015.40314         3.37682         5.62174
     2015.40588        -3.82046         5.49868
     2015.40862         1.23327         5.49549
     2015.41136         6.35599         5.53899
     2015.41410         2.81571         5.53793
     2015.41683         2.90143         5.56445
     2015.41957         5.25416         5.49762
     2015.42231         5.25288         5.55915
     2015.42505         4.94860         5.78830
     2015.42778         4.79232         5.53475
     2015.43052         5.49604         5.58673
     2015.43326         3.46077         5.57294
     2015.43600         4.50949         5.50292
     2015.43874         6.35121         5.53475
     2015.44147         4.94793         5.75329
     2015.44421         2.07365         5.57294
     2015.44695         4.77838         5.43502
     2015.44969         0.78310         5.48382
     2015.45243         7.23482         5.64614
     2015.45516         5.47554         5.50186
     2015.45790         3.23326         5.64720
     2015.46064         4.03799         5.62705
     2015.46338         8.38171         5.57931
     2015.46611         9.16243         5.44351
     2015.46885         8.43715         5.47215
     2015.47159         7.20488         5.55703
     2015.47433         2.28760         6.12886
     2015.47707         2.53932         5.61007
     2015.47980         3.62104         5.82862
     2015.48254         9.20876         5.60052
     2015.48528         3.78949         5.49125
     2015.48802         3.76821         5.48913
     2015.49076         5.05093         5.52202
     2015.49349         5.08565         5.59734
     2015.49623         9.68137         5.61962
     2015.49897        10.81910         5.77876
     2015.50171         5.93282         5.45836
     2015.50444         5.89554         5.42229
     2015.50718         1.39426         5.44351
     2015.50992         5.08598         5.45836
     2015.51266         4.80071         5.46473
     2015.51540         7.26243         5.50292
     2015.51813        10.10715         5.53050
     2015.52087        11.24087         5.51883
     2015.52361         8.21960         5.58143
     2015.52635         7.90532         5.49656
     2015.52908         7.61504         5.68327
     2015.53182        12.31676         5.48913
     2015.53456        13.32548         5.45624
     2015.53730         8.33321         5.48170
     2015.54004         7.32093         5.56127
     2015.54277         5.39465         5.52096
     2015.54551        12.62837         5.51353
     2015.54825        10.19209         5.66630
     2015.55099        13.74382         5.54324
     2015.55373        12.53754         5.53793
     2015.55646        14.46226         5.61325
     2015.55894        16.61648         5.97608
     2015.56816         7.79871         8.94768
     2015.57015        16.15587         5.85620
     2015.57289         7.92759         5.67903
     2015.57563        11.33732         5.54642
     2015.57837        14.81504         5.54536
     2015.58110         9.15876         5.59310
     2015.58384        12.05648         5.63553
     2015.58658        14.91220         5.55915
     2015.58932        12.23193         5.53263
     2015.59206         9.97065         5.53157
     2015.59479        12.82737         5.67479
     2015.59753        15.91509         5.61325
     2015.60027         7.95281         5.66630
     2015.60301        15.37654         5.61856
     2015.60574         6.59626         5.54111
     2015.60848        12.90198         5.59840
     2015.61122        12.25070         5.55278
     2015.61396        13.04242         5.56976
     2015.61943        10.30887         5.64933
     2015.62217        18.51459         5.46367
     2015.62491        17.20431         5.43821
     2015.62765        15.53504         5.47852
     2015.63039        19.05176         5.70131
     2015.63312        15.62148         5.51671
     2015.63586        15.03220         5.43396
     2015.63860        10.45292         5.56976
     2015.64134        14.33365         5.50716
     2015.64407        14.12337         5.45518
     2015.64681        13.76309         5.58673
     2015.64955        13.46981         5.46155
     2015.65229        11.28653         5.70874
     2015.65503        14.55026         5.93577
     2015.65776        13.85298         5.47109
     2015.66050        15.88170         5.52202
     2015.66324        18.35042         5.59098
     2015.66598        18.53014         5.51671
     2015.66872        16.69787         5.50080
     2015.67145        12.27959         5.47109
     2015.67419         9.99331         5.42441
     2015.67693         9.50403         5.45942
     2015.67967        14.48776         5.43502
     2015.68240        14.34648         5.47746
     2015.68514        10.95020         5.70555
     2015.68788        13.60692         5.86469
     2015.69062        18.99564         5.51035
     2015.69336        11.41337         5.85090
     2015.69609        16.55109         5.55172
     2015.69883        20.03181         5.43821
     2015.70157        16.38253         5.42335
     2015.70431        15.33725         5.42123
     2015.70705        13.60898         5.46897
     2015.70978        16.70070         5.42441
     2015.71252        12.20942         5.55172
     2015.71526        15.03214         5.46261
     2015.71800        11.57986         5.63872
     2015.72073        19.07459         5.46048
     2015.72347         8.96531         5.54642
     2015.72621        14.47903         5.47109
     2015.72895        12.44875         5.48701
     2015.73169        10.75148         5.46685
     2015.73442         6.56620         5.44988
     2015.73613        12.64590        10.98038
     2015.74914         1.90983        11.93838
     2015.75085        -2.22547         5.51565
     2015.75359         7.20225         5.50080
     2015.75633        12.59897         5.45942
     2015.75906        13.01870         5.47958
     2015.76180        11.99842         5.45836
     2015.76454        13.00214         5.70131
     2015.76728        10.31686         5.57825
     2015.77002         9.80058         5.55915
     2015.77275        15.87731         5.44033
     2015.77549        11.41803         5.49656
     2015.77823        15.53275         5.59416
     2015.78097        15.38947         5.46897
     2015.78371        12.84120         5.52520
     2015.78644        15.77992         5.57400
     2015.78918         9.48964         5.54217
     2015.79192        16.26636         5.67797
     2015.79466        14.31408         5.59098
     2015.79739        14.02081         5.59840
     2015.80013        10.03253         5.72041
     2015.80287        11.70125         5.55703
     2015.80561        11.37697         5.54217
     2015.80835         9.53169         5.47852
     2015.81108         8.76742         5.48807
     2015.81382         9.76114         5.52520
     2015.81656         6.60286         5.54536
     2015.81930         6.40158         5.53899
     2015.82203         8.28830         5.62068
     2015.82477         6.71703         5.54324
     2015.82751        13.58575         5.52732
     2015.83025        12.67147         5.49656
     2015.83299        13.65919         5.58885
     2015.83572         9.52392         5.52732
     2015.83846         8.13564         5.72465
     2015.84120         6.66236         5.62386
     2015.84394         9.11208         5.57931
     2015.84668         3.45780         5.69707
     2015.84941        11.62453         5.69176
     2015.85215         7.45725         5.56658
     2015.85489         9.74597         5.57400
     2015.85763         5.04669         5.55597
     2015.86036         8.80941         5.59840
     2015.86310        10.08914         5.63659
     2015.86584        16.47086         5.68434
     2015.86858         7.50258         5.63235
     2015.87132       -10.09370         5.61325
     2015.87405        -0.59298         5.60371
     2015.87679         6.03275         5.60052
     2015.87953         4.65147         5.58249
     2015.88227         3.62419         5.59628
     2015.88501        -1.58909         5.53050
     2015.88774         5.52764         5.61962
     2015.89048         3.50236         5.56339
     2015.89322         7.57308         5.57400
     2015.89596         9.62880         5.62599
     2015.89869         7.90952         5.57825
     2015.90143         1.09425         5.59734
     2015.90417         2.00297         5.60158
     2015.90691         4.96169         5.61856
     2015.90965         5.04141         5.62280
     2015.91238        10.12213         5.64614
     2015.91512         4.83486         5.61538
     2015.91786         6.17858         5.58143
     2015.92060         9.92730         5.64614
     2015.92334         8.12302         5.57931
     2015.92607         0.13374         5.58885
     2015.92881         0.15547         5.61219
     2015.93155         4.90519         5.69388
     2015.93429         9.42391         5.74056
     2015.93702         9.11963         5.68221
     2015.93976         8.26636         5.77663
     2015.94250         9.24408         5.72465
     2015.94524         7.74580         5.62068
     2015.94798        10.63052         5.65463
     2015.95071        12.62824         5.47746
     2015.95345         4.95897         5.53475
     2015.95619         7.05569         5.55278
     2015.95893         3.98541         5.68540
     2015.96167        11.21313         5.54005
     2015.96440         8.89585         5.45306
     2015.96714        10.19458         5.83180
     2015.96988         2.75330         5.70343
     2015.97262        16.72402         5.47003
     2015.97535        11.24674         5.50080
     2015.97809         7.16946         5.50186
     2015.98083         6.55119         5.47215
     2015.98357        -4.50909         5.51035
     2015.98631         2.12663         5.43184
     2015.98904         2.50435         5.47109
     2015.99178         1.22508         5.49231
     2015.99452         1.54280         5.47534
     2015.99726         5.17952         5.51777
     2016.00000         4.47324         5.54217
     2016.00188         4.27061         9.04210
     2016.00929         1.02132        12.29803
     2016.01095         7.43513         5.47215
     2016.01368         0.31985         5.49231
     2016.01642        -0.56543         5.54430
     2016.01916         3.94630         5.69813
     2016.02190         5.90702         5.68646
     2016.02464         8.99974         5.60795
     2016.02737         5.66746         5.55915
     2016.03011         1.17418         5.52202
     2016.03285         3.63791         5.56976
     2016.03559         4.82963         5.51883
     2016.03833         2.60135         5.75329
     2016.04106        10.32807         5.50610
     2016.04380        10.25580         5.48489
     2016.04654         4.71552         5.52732
     2016.04928         1.45424         5.51565
     2016.05201         2.93996         5.70874
     2016.05475         3.30568         5.49974
     2016.05749         0.82741         5.60477
     2016.06023         3.13813         5.44139
     2016.06297         6.01085         5.45624
     2016.06570         2.49657         5.79255
     2016.06844         4.94829         5.64296
     2016.07118         3.03202         5.71298
     2016.07392         5.55374         5.72889
     2016.07666         8.00946         5.82650
     2016.07939        11.27418         5.62705
     2016.08213         7.32090         5.66312
     2016.08487         3.85263         5.61113
     2016.08761         1.95535         5.63341
     2016.09034         2.26007         5.69919
     2016.09308         4.06179         5.64190
     2016.09582         0.83252         5.60265
     2016.09856        -4.50276         5.61856
     2016.10130        -3.51604         5.65145
     2016.10403        -4.59932         5.61856
     2016.10677        -4.95160         5.69813
     2016.10951        -0.11187         5.73526
     2016.11225         0.04685         5.65569
     2016.11498         0.65757         5.60583
     2016.11772        -2.64271         5.64402
     2016.12046        -3.73599         5.60901
     2016.12320         3.45974         5.66524
     2016.12594        -0.23454         5.69388
     2016.12867         5.46918         5.63129
     2016.13141         7.21390         5.64614
     2016.13415         8.85962         5.66206
     2016.13689         0.68735         5.66206
     2016.13963         3.55007         5.63553
     2016.14236        -7.11921         5.59522
     2016.14510        -4.39349         5.66524
     2016.14784        -0.75576         5.59946
     2016.15058         3.57796         5.54111
     2016.15331         0.68168         5.69176
     2016.15605         3.44540         5.57506
     2016.15879         1.69012         5.61538
     2016.16153        -1.22615         5.75223
     2016.16427         5.89757         5.69282
     2016.16700         6.80129         5.64084
     2016.16974         0.55001         5.61113
     2016.17248         1.23473         5.78724
     2016.17522        -1.13154         5.58567
     2016.17796         3.89318         5.68009
     2016.18057         5.28413         5.97927
     2016.18427        -1.48999         9.07924
     2016.18617         4.60034         5.64296
     2016.18879         7.21629         5.81271
     2016.19136         5.38934         6.44076
     2016.19438        10.56751         5.53687
     2016.19712         4.82523         5.59522
     2016.19986         6.67696         5.75860
     2016.20260         1.06468         5.76178
     2016.20533        -4.52260         5.87954
     2016.20807        -1.33088         5.76496
     2016.21081        -1.51016         5.77982
     2016.21355         4.62857         5.83074
     2016.21629         0.56929         5.53793
     2016.21902         0.96401         5.55703
     2016.22182         5.30062         5.57294
     2016.22450        -0.89855         5.74905
     2016.22724        -0.34182         5.54430
     2016.22992         0.85901         5.77876
     2016.23271         1.88962         5.51141
     2016.23545         2.65634         5.48489
     2016.23819         2.80406         5.56976
     2016.24093         6.63679         5.84135
     2016.24366         0.91351         6.01746
     2016.24640         3.91523         5.49019
     2016.24914         6.16095         5.51565
     2016.25188         3.45168         5.60901
     2016.25462         2.62640         5.47640
     2016.25735         5.08712         5.50716
     2016.26009         1.33784         5.49549
     2016.26283        -0.16244         5.47640
     2016.26557         6.03029         5.52096
     2016.26830         2.89001         5.66630
     2016.27104         1.68573         5.48170
     2016.27378         3.42645         5.50398
     2016.27652         0.43317         5.54960
     2016.27926         2.72190         5.60583
     2016.28199        -0.38338         5.55278
     2016.28473         2.79234         5.54217
     2016.28747         1.08906         5.55066
     2016.29021         3.69378         5.52414
     2016.29295        -1.46449         5.55384
     2016.29568         6.13223         5.55491
     2016.29842         5.79295         5.64190
     2016.30116         1.76767         5.67797
     2016.30390        -1.04960         5.54748
     2016.30663         4.63412         5.56339
     2016.30937         4.77284         5.48701
     2016.31211         3.11356         5.56870
     2016.31485         2.11928         5.53263
     2016.31759         2.68601         5.49974
     2016.32032         3.21473         5.55915
     2016.32306        -4.16455         5.55384
     2016.32580         2.89317         5.55278
     2016.32854        -2.95311         5.54430
     2016.33128        -3.28938         5.49549
     2016.33401        -0.81566         5.71510
     2016.33675         0.91906         5.63766
     2016.33949         2.66978         5.60371
     2016.34223         0.33050         5.67479
     2016.34496         2.84323         5.75223
     2016.34770         8.09995         5.63978
     2016.35044         4.81667         5.89758
     2016.35318        -1.15461         5.57400
     2016.35592        -5.20388         5.53369
     2016.35865        -4.65016         5.56976
     2016.36139         0.84156         5.60265
     2016.36413         5.14628         5.56658
     2016.36670         8.91833         6.04398
     2016.36963        13.85367         5.58143
     2016.37234        12.37045         5.54960
     2016.37508         4.41017         5.68327
     2016.37782        -1.04111         5.58037
     2016.38056         3.21361         5.58567
     2016.38329         3.90434         5.52414
     2016.38603         3.61506         5.62705
     2016.38877        14.06878         5.60901
     2016.39151         6.43950         5.62068
     2016.39425         5.19422         5.54324
     2016.39698        14.06695         5.62386
     2016.39972        20.16867         5.63659
     2016.40246         5.86339         5.66312
     2016.40520         4.12411         5.58567
     2016.40794         6.05884         5.57825
     2016.41067         2.61556         5.60265
     2016.41341         2.74328         5.58461
     2016.41615         0.22000         5.66206
     2016.41889         2.38372         5.51565
     2016.42162         3.21245         5.68221
     2016.42436         0.49517         5.61538
     2016.42710         5.64589         5.59734
     2016.42950         7.60327         6.43864
     2016.47364         2.40717         5.66630
     2016.47638         3.44089         5.63129
     2016.47912         5.31261         5.73844
     2016.48186         4.81233         5.64402
     2016.48459         4.68105         5.72571
     2016.48733         2.38878         5.60158
     2016.49007         7.33750         5.60158
     2016.49281         3.70322         5.66842
     2016.49555         5.54894         5.61538
     2016.49828         1.19866         5.67054
     2016.50102         1.77539         5.64826
     2016.50376        13.96811         5.73844
     2016.50650         7.80483         5.70661
     2016.50924         6.54255         5.72253
     2016.51197         7.35328         5.71510
     2016.51471         8.71300         5.62811
     2016.51745         9.98872         5.93895
     2016.52019         7.03544         5.64614
     2016.52292        11.12316         5.64720
     2016.52566         6.02689         5.79573
     2016.52840        14.03361         5.73526
     2016.53114         8.28433         5.77982
     2016.53388        11.37305         5.71935
     2016.53661        13.44077         5.76603
     2016.53935        13.21850         5.75329
     2016.54209        18.61322         5.77451
     2016.54483        17.31694         5.68646
     2016.54757        14.73866         5.71616
     2016.55030        20.97638         5.93895
     2016.55304        14.53511         5.79997
     2016.55578        13.81583         5.81164
     2016.55852        27.58855         6.01958
     2016.56125        21.78927         6.12355
     2016.56399        22.51700         5.87212
     2016.56673        11.75572         6.13628
     2016.56947        13.47344         5.93683
     2016.57221        15.76516         5.83817
     2016.57494        20.27888         5.94532
     2016.57768        27.08961         5.78406
     2016.58042        27.10533         5.72571
     2016.58316        22.70205         5.76496
     2016.58590        26.74677         5.74905
     2016.58863        24.42649         5.99412
     2016.59137        27.67922         5.81589
     2016.59411        37.30194         5.80952
     2016.59685        33.75766         5.83286
     2016.59958        24.32038         5.80104
     2016.60232        30.73610         5.82650
     2016.60506        22.60683         5.93789
     2016.60780        27.27655         5.86257
     2016.61054        29.14427         5.90925
     2016.61327        28.05699         5.85090
     2016.61601        21.48672         5.85196
     2016.61875        22.25444         5.97078
     2016.62149        12.18816         5.98988
     2016.62423        20.71688         6.02383
     2016.62696        22.52460         5.77876
     2016.62970        20.25333         5.89546
     2016.63244        24.97505         6.04186
     2016.63518        31.38577         5.88273
     2016.63791        34.12849         5.84559
     2016.64065        31.02721         5.89333
     2016.64339        21.60794         6.12143
     2016.64613        21.21366         5.84241
     2016.64887        21.83138         5.75966
     2016.65160        23.25610         6.21373
     2016.65434        24.57982         5.82013
     2016.65708        19.72855         5.78406
     2016.65982         6.48627         5.82544
     2016.66256        15.99599         5.85514
     2016.66529        18.77871         5.77557
     2016.66803        17.66044         5.78724
     2016.67077        13.41616         5.87530
     2016.67351        11.29388         5.74162
     2016.67624        15.52560         5.73208
     2016.67898        15.69732         5.74162
     2016.68172        21.47005         5.72889
     2016.68446        16.72077         6.13734
     2016.68720        22.01049         6.21161
     2016.68993        23.03821         6.26253
     2016.69267        26.07593         5.84984
     2016.69541        23.19366         5.66736
     2016.69815        28.05538         5.81164
     2016.70089        25.06110         5.94956
     2016.70636        23.33254         6.25404
     2016.70910        20.10827         6.10445
     2016.71184        15.24799         5.80952
     2016.71457        18.68971         5.69813
     2016.71731        19.44043         5.72677
     2016.72005        25.28516         5.68858
     2016.72279        25.08488         5.69813
     2016.72553        19.52760         5.98563
     2016.72826        24.84032         6.10127
     2016.73100        17.32204         5.72465
     2016.73374        24.93677         5.84135
     2016.73648        28.51149         6.00155
     2016.73921        18.01821         5.79679
     2016.74195        14.39193         5.73950
     2016.74469        16.94165         5.73526
     2016.74743        18.21738         5.75542
     2016.75017        24.85610         5.72253
     2016.75290        15.40482         5.70768
     2016.75564        16.07454         5.74481
     2016.75838        14.15226         5.69919
     2016.76112        13.62599         5.69601
     2016.76386        16.35371         5.72253
     2016.76659        20.44443         5.86469
     2016.76933        19.71215         5.78406
     2016.77207        13.19688         5.70661
     2016.77481        14.15860         5.65251
     2016.77754        11.08832         5.58673
     2016.78028        11.58304         5.67903
     2016.78302        11.20076         5.81695
     2016.78576         9.74349         5.67479
     2016.78850        16.08721         5.73420
     2016.79123        11.93693         5.65569
     2016.79397        20.90465         5.63341
     2016.79671        13.15737         5.71616
     2016.79939         6.25721         5.89970
     2016.80219         7.15082         5.65251
     2016.80492        13.14754         5.67479
     2016.80766        18.34326         5.66842
     2016.81040         6.81898         5.71722
     2016.81314        12.92371         5.67373
     2016.81587         7.39843         5.77557
     2016.81861         4.66515         5.69388
     2016.82135         6.47887         5.61750
     2016.82409         6.70960         5.63447
     2016.82956         7.37604         5.72147
     2016.83230        11.00376         5.75223
     2016.83504         7.59648         5.67691
     2016.83778         5.01921         5.68752
     2016.84052        15.75893         5.77876
     2016.84325         9.87865         5.76496
     2016.84599         7.86637         5.77663
     2016.84873         8.46709         5.68858
     2016.85147         4.44982         5.58143
     2016.85420         8.36954         5.65145
     2016.85694         5.86126         5.71722
     2016.85968         2.89398         5.93365
     2016.86242         3.78070         5.74056
     2016.86516         9.77443         5.65251
     2016.86789         5.58015         5.72889
     2016.87063        14.39987         5.66842
     2016.87337         4.73359         5.65569
     2016.87611         7.18432         5.66630
     2016.87885         7.75804         5.66842
     2016.88158         0.55776         5.67054
     2016.88432        -0.88352         5.67691
     2016.88706         5.30320         5.70343
     2016.88980         8.31793         5.63341
     2016.89253         7.34265         5.64402
     2016.89527         4.33437         5.66312
     2016.89801         7.80909         5.62811
     2016.90075         5.01781         5.80740
     2016.90349         9.30054         5.70980
     2016.90622         9.62926         5.70237
     2016.90896        11.37898         5.58143
     2016.91170         3.78570         5.62811
     2016.91444        11.57742         5.60371
     2016.91718         6.18415         5.78194
     2016.91991         4.72187         5.83074
     2016.92265         4.72059         5.69388
     2016.92539         3.52331         5.81377
     2016.92813         6.98604         5.64402
     2016.93086         7.61176         5.70131
     2016.93360         9.93648         5.67691
     2016.93634         7.42320         5.69176
     2016.93908         3.27392         5.83498
     2016.94182         1.14065         5.65039
     2016.94455        -5.07163         5.60583
     2016.94729        -3.14591         5.66418
     2016.95003        -4.58619         5.65887
     2016.95277        -6.82547         5.67160
     2016.95551        -8.31474         5.58249
     2016.95824        -3.72102         5.56127
     2016.96098        -1.77330         5.62492
     2016.96372         0.12642         5.61644
     2016.96646         9.24114         5.66418
     2016.96919        14.36487         5.64084
     2016.97193         7.06459         5.67479
     2016.97467         9.75231         5.60371
     2016.97741        12.78903         5.62492
     2016.98015         8.14876         5.59098
     2016.98288         5.21448         5.61432
     2016.98562         7.05920         5.62280
     2016.98836        17.58692         5.63553
     2016.99110         9.62264         5.67797
     2016.99384        14.79737         5.65251
     2016.99657        11.96009         5.66418
     2016.99931         7.98881         5.78724
     2017.00205        17.18353         5.64190
     2017.00479         7.01325         5.58991
     2017.00752         4.54798         5.61644
     2017.01026         2.27270         5.67267
     2017.01300         9.68142         5.56445
     2017.01574         5.72514         5.76603
     2017.01848        -4.49614         5.61644
     2017.02121        -1.76541         5.65039
     2017.02395         5.50431         5.61007
     2017.02669         9.03703         5.67054
     2017.02943         8.80475         5.58461
     2017.03216         6.18348         5.59204
     2017.03490        -0.96880         5.57294
     2017.03764        -1.70708         5.78937
     2017.04038         4.44564         5.68115
     2017.04312         4.22436         5.77451
     2017.04585        14.96309         5.81164
     2017.04859        19.67781         5.79785
     2017.05133        21.25553         5.64720
     2017.05407        18.65125         5.64508
     2017.05681        18.31697         5.67585
     2017.05954        12.78170         5.67373
     2017.06228        15.06342         5.60371
     2017.06502        10.53314         5.63978
     2017.06776         7.61686         5.80846
     2017.07049         4.09958         5.68115
     2017.07323        -4.46269         5.70343
     2017.07597         1.28803         5.66842
     2017.07871         6.50975         5.59628
     2017.08145        -0.44953         5.55491
     2017.08418        -4.26380         5.65887
     2017.08692        -0.50608         5.63341
     2017.08966        -2.78936         5.61219
     2017.09240         0.40436         5.53687
     2017.09514         7.13208         5.52096
     2017.09787         2.04881         5.58567
     2017.10061         7.12953         5.57294
     2017.10335        -0.91275         5.72253
     2017.10609         1.50697         5.69070
     2017.10882         9.25569         5.54960
     2017.11156         6.57442         5.55384
     2017.11430        -0.53486         5.63659
     2017.11704        -3.52514         5.63659
     2017.11978        -5.31142         5.61219
     2017.12251        -5.55470         5.77982
     2017.12525         4.24203         5.63766
     2017.12799         8.90575         5.68009
     2017.13073         6.25947         5.64614
     2017.13347         5.25319         5.64190
     2017.13620         7.52392         5.61325
     2017.13894         2.87164         5.61113
     2017.14168        -2.75264         5.63235
     2017.14442         1.42508         5.63341
     2017.14715        -2.66420         5.65569
     2017.14989        -2.55047         5.62492
     2017.15263         3.14325         5.63978
     2017.15537        13.04497         5.62917
     2017.15811         4.79969         5.76284
     2017.16084         5.98241         5.68646
     2017.16358        -1.85386         5.66206
     2017.16632         0.95086         5.62705
     2017.16906        -2.03242         5.62386
     2017.17180         4.26430         5.57400
     2017.17453         1.81502         5.65569
     2017.17727         6.81475         5.70449
     2017.18001         3.15547         5.58567
     2017.18275        -5.31381         5.64190
     2017.18548       -11.70109         5.69919
     2017.18822        -0.50136         5.59840
     2017.19096        -6.94264         5.62599
     2017.19370        -3.21992         5.64190
     2017.19644        -0.01920         5.65887
     2017.19917         2.70752         5.61644
     2017.20191         6.60625         6.11506
     2017.20465        -4.70803         5.68434
     2017.20739        -0.73331         5.69070
     2017.21013        -0.33059         5.62811
     2017.21286        -3.04487         5.64084
     2017.21560         5.31386         5.56870
     2017.21834         9.16358         5.63766
     2017.22108         7.23430         5.84029
     2017.22381         3.81902         5.81377
     2017.22655         4.27474         5.75011
     2017.22929        -2.11453         5.74269
     2017.23203         0.41219         7.31601
     2017.23477        -2.22909         5.73208
     2017.23750        -0.33637         5.58143
     2017.24024        -1.51864         5.63341
     2017.24298        -2.30492         5.60583
     2017.24572        -3.94120         5.71086
     2017.24846        -3.61748         5.68327
     2017.25119        -2.09376         5.58779
     2017.25393        -3.90503         6.81208
     2017.25667         1.26169         6.02064
     2017.25941        -2.08059         5.71298
     2017.26214        -4.84487         5.57825
     2017.26488         1.15085         5.57294
     2017.26762         0.28558         5.58567
     2017.27036        -2.32970         5.60583
     2017.27310        -5.19798         5.65887
     2017.27583        -8.71526         5.62599
     2017.27857       -10.79254         5.55809
     2017.28131        -3.94481         5.78300
     2017.28405        -7.34909         5.58673
     2017.28679        -5.16437         5.75223
     2017.28952        -0.46065         5.82650
     2017.29226        -4.16792         5.61750
     2017.29500        -7.20220         5.59628
     2017.29774        -6.23948         5.75648
     2017.30047        -7.00276         5.59840
     2017.30321        -1.22704         5.65357
     2017.30595        -8.32931         5.67054
     2017.30869        -6.26559         5.57506
     2017.31143        -3.52187         5.74375
     2017.31416        -2.39915         5.63341
     2017.31690        -0.53543         5.65781
     2017.31964        -4.25970         5.67797
     2017.32175        -1.27377         7.79766
     2017.33732       -33.28279        27.92305
     2017.33880        -5.80265         5.97608
     2017.34154        -1.57593         5.80104
     2017.34428        -3.77720         5.82438
     2017.34702        -4.56948         5.74799
     2017.34976        -8.95276         6.05990
     2017.35249        -5.17704         5.57612
     2017.35523        -7.28132         5.75860
     2017.35797        -3.34360         5.72571
     2017.36071        -6.91287         5.76921
     2017.36344        -6.90515         5.71722
     2017.36618        -7.84943         5.97927
     2017.36892        -4.90571         5.92622
     2017.37166        -2.92198         5.66736
     2017.37440        -1.81326         5.74905
     2017.37656         5.48756         7.43483
     2017.38010        -3.39426         6.25086
     2017.38261        -2.78110         5.76284
     2017.38535        -5.70037         5.78406
     2017.38809         1.52335         5.82862
     2017.39082         3.49707         7.03063
     2017.39356        -3.69321         5.88273
     2017.39630        -0.68448         5.90925
     2017.39904         0.22424         5.91774
     2017.40166        -1.84282         6.85239
     2017.40417        10.08534        10.42977
     2017.40999         2.23413        12.93775
     2017.41273        -3.61915         6.22115
     2017.41546        10.25457         6.21373
     2017.41820         8.45129         6.48638
     2017.42094        -0.97399         6.63491
     2017.42368         3.46974         6.83330
     2017.42642         4.19946         6.22009
     2017.42915         3.09118         6.02595
     2017.43189         6.06190         6.13734
     2017.43463        18.08062         6.18827
     2017.43737        18.73735         6.22858
     2017.44010        15.56507         6.06202
     2017.44284        17.82779         6.35165
     2017.44558        19.78051         6.26571
     2017.44832        15.90724         6.24343
     2017.45106        16.18496         6.42591
     2017.45379        23.14168         6.73251
     2017.45653        23.19740         6.49062
     2017.45927        30.39012         6.30072
     2017.46201        32.97285         6.29860
     2017.46475        33.17657         6.88846
     2017.46748        19.85829         6.47259
     2017.47022        21.76801         6.72933
     2017.47296        25.96573         6.32831
     2017.47570        24.33046         6.25086
     2017.47843        21.49618         6.64446
     2017.48117        28.23190         6.50548
     2017.48391        35.11462         6.66780
     2017.50308        41.66968         7.27570
     2017.50855        36.09012         6.90226
     2017.51129        37.99184         7.18340
     2017.53319        31.28762         7.18446
     2017.53570        45.26178         9.23201
     2017.55236        39.62268         7.32768
     2017.55509        29.72340         8.35145
     2017.56331        43.19856         7.80403
     2017.56605        19.48429         8.64426
     2017.57152        25.33273         7.10171
     2017.57426        39.45245         8.81719
     2017.57700        60.40417        10.87323
     2017.58247        22.01462         7.23008
     2017.58521        34.71634         7.30858
     2017.58795        43.75106         7.72021
     2017.59069        40.96778         7.76902
     2017.60164        44.31067         7.35314
     2017.61259        27.20656         7.62579
     2017.62080        10.24073         7.60564
     2017.62354        50.71645         9.39220
     2017.62628        40.10817        10.23032
     2017.62902        19.21389         8.56470
     2017.63175        -1.33438         7.60245
     2017.63449        26.42534         7.85707
     2017.63723        34.86806        10.64513
     2017.63997        49.81478        12.78710
     2017.64818        47.50595        10.41704
     2017.65092         5.53067         9.33704
     2017.65366        20.26639         7.51546
     2017.65639        31.54712         7.05821
     2017.65913        34.05884         6.90332
     2017.66461        38.18428         8.06925
     2017.66735        49.67700         9.38902
     2017.67008        28.88373         6.54579
     2017.67282         5.45745         5.83286
     2017.67556         4.38017         5.69388
     2017.67830         5.84089         5.58567
     2017.68104         6.40961         5.68540
     2017.68377         8.89134         5.96335
     2017.68651         9.37406         6.06626
     2017.68925        12.67978         5.69601
     2017.69199         9.01250         5.80210
     2017.69472        11.14822         5.60795
     2017.69746         6.23095         5.72571
     2017.70020         9.19767         5.83817
     2017.70294         9.53239         5.85090
     2017.70568        -1.22589         5.80422
     2017.70841         3.71984         5.62068
     2017.71115         5.88156         5.76709
     2017.71389         6.04728         5.58673
     2017.71663         7.03600         5.67479
     2017.71937         5.59072         5.59310
     2017.72210         2.14545         5.59098
     2017.72484         4.56517         5.62386
     2017.72758        10.25589         5.63659
     2017.73020         7.25983         7.53880
     2017.73305         9.18933         5.86575
     2017.73579        13.02406         5.74799
     2017.73853        11.15578         5.72995
     2017.74127         6.06150         6.77176
     2017.74401        11.36722         5.61007
     2017.74669         3.43505         5.78618
     2017.74971         0.98823         8.77263
     2017.75245        -0.22405        15.06699
     2017.75496         6.40611         8.20717
     2017.75770        -1.67317         5.76390
     2017.76043        11.97656        13.73131
     2017.76317        10.80728         5.75011
     2017.76591        14.74400         5.59310
     2017.76865         8.46872         5.65569
     2017.77138         2.56744         5.70237
     2017.77412         1.47817         5.59204
     2017.77686         2.61889         5.63023
     2017.77960         5.15661         5.77876
     2017.78234         2.97233         5.60265
     2017.78507         5.76105         5.61538
     2017.78781         6.70978         5.69919
     2017.79055         7.76250         5.67267
     2017.79329        11.78222         5.61432
     2017.79603         9.06894         5.69919
     2017.79876        15.58066         6.76009
     2017.80156        17.92728         7.14733
     2017.80424        10.61411         5.68115
     2017.80698        13.51783         5.71828
     2017.80971        12.04255         5.65569
     2017.81245         5.96527         5.70980
     2017.81519        10.90500         5.71828
     2017.81793        -2.81028         5.65569
     2017.82067         3.62844         5.81377
     2017.82340         9.78016         5.74587
     2017.82614         6.67889         5.63978
     2017.82888         3.39261         5.65993
     2017.83162        13.31733         5.76072
     2017.83436         3.10705         5.61750
     2017.83709         3.92377         6.19039
     2017.83983         1.41050         5.82225
     2017.84257         8.00122         5.65993
     2017.84531         6.59594         5.62280
     2017.84804         3.03166         5.63341
     2017.85078         5.53338         5.71935
     2017.85352        11.60911         5.61750
     2017.85626         5.61783         5.77770
     2017.85900         8.78455         5.80104
     2017.86173        14.03027         5.68327
     2017.86447         6.62799         5.65039
     2017.86721        12.44072         5.56976
     2017.86995         7.76444         5.58355
     2017.87269        13.41216         5.57825
     2017.87542        14.57588         5.59946
     2017.87816        15.36561         5.62068
     2017.88090        13.51933         5.60583
     2017.88364        12.80305         5.54960
     2017.88637        15.61877         5.56233
     2017.88911        15.93049         5.62280
     2017.89185         5.43822         5.66736
     2017.89459        11.83894         5.58885
     2017.89733         9.81366         5.63872
     2017.90006         8.04138         5.54430
     2017.90280         3.89010         5.63553
     2017.90554         6.26683         5.78300
     2017.90828        10.71455         5.61962
     2017.91102        13.36527         5.77027
     2017.91375         6.41199         5.67585
     2017.91649        -0.48529         5.55491
     2017.91923         6.98144         5.55915
     2017.92197         6.96416         5.56339
     2017.92463         6.05703         5.75329
     2017.93104        -5.54233         9.27020
     2017.93292        -2.16495         5.58673
     2017.93566         4.25577         5.66100
     2017.93839        -3.66851         5.81058
     2017.94113         4.15021         5.64508
     2017.94387         1.85894         5.70768
     2017.94661         6.39666         5.78300
     2017.94935         5.49338         5.60583
     2017.95208         6.80010         5.83498
     2017.95482         7.55182         5.62068
     2017.95756         6.89155         5.66206
     2017.96030        11.72427         5.68009
     2017.96303         5.75999         5.59310
     2017.96577         8.39871         5.65993
     2017.96851        11.06243         5.60689
     2017.97125         5.42116         5.59840
     2017.97399         7.23488         5.60795
     2017.97672         3.00960         5.60795
     2017.97946         2.17732         5.68434
     2017.98220         1.93405         5.61113
     2017.98494         1.13877         5.60158
     2017.98767        -5.09651         5.58885
     2017.99041         1.08121         5.54960
     2017.99315         0.45093         5.57400
     2017.99589         1.21466         5.59098
     2017.99863        -0.16462         5.58143
     2018.00136         0.45610         5.61219
     2018.00410        -1.97218         5.63447
     2018.00684         0.55454         5.60689
     2018.00958         7.99727         5.62811
     2018.01232        -4.42801         5.70980
     2018.01505        -0.53929         5.69707
     2018.01779         6.58143         5.59098
     2018.02053         8.33215         5.55384
     2018.02327         8.78188         5.60052
     2018.02600         6.33260         5.55809
     2018.02874         6.31232         5.62280
     2018.03148         3.03304         5.60477
     2018.03422        -0.54223         5.57294
     2018.03696        -3.44651         5.59416
     2018.03969         0.95721         5.66630
     2018.04243         1.36493         5.61856
     2018.04517        -2.72135         5.60477
     2018.04791         2.85938         5.75329
     2018.05065         4.39910         5.79043
     2018.05338         3.99482         5.62068
     2018.05612         6.92154         5.58779
     2018.05886        -0.13474         5.62280
     2018.06160         6.84599         5.55384
     2018.06433         6.03971         5.71404
     2018.06707         8.32143         5.68434
     2018.06981         5.24815         5.66948
     2018.07255         2.57887         5.71404
     2018.07529         1.50260         5.70131
     2018.07802         2.26232         5.67585
     2018.08076         3.05204         5.68327
     2018.08350         2.28176         5.67585
     2018.08624         2.68149         5.68009
     2018.08898         0.74221         5.79679
     2018.09171         2.04793         5.68858
     2018.09445        -0.06335         5.69282
     2018.09719       -12.57663         5.80422
     2018.09993         2.58410         5.75542
     2018.10266         1.37782         5.72041
     2018.10540         2.11954         5.80210
     2018.10814         3.01226         5.71192
     2018.11088         2.16698         5.74799
     2018.11362         2.09571         5.69919
     2018.11635        -0.10257         5.77663
     2018.11909        -1.91785         5.85514
     2018.12183         5.74187         5.83180
     2018.12457         5.93259         5.77451
     2018.12731        -3.01968         5.69919
     2018.13004         6.82004         5.68221
     2018.13278         5.30476         5.76496
     2018.13552         7.48348         5.79149
     2018.13826         4.07021         5.72571
     2018.14099         2.48893         5.71404
     2018.14373        -0.68735         5.67267
     2018.14647         9.63137         5.98882
     2018.14921         3.66009         5.84029
     2018.15195         8.72582         5.79679
     2018.15468         7.76754         5.68964
     2018.15742        11.30826         5.72571
     2018.16016         2.79698         5.70343
     2018.16290         6.65770         5.87318
     2018.16564         0.00843         6.08218
     2018.16837        -0.69185         5.67479
     2018.17111         4.98287         5.75966
     2018.17385         2.16859         8.55833
     2018.17647         2.05854         6.09597
     2018.18210         8.81069         5.90394
     2018.18480         7.75248         5.81271
     2018.18754         3.86820         5.72677
     2018.19028        -0.29007         5.69494
     2018.19301         4.24465         5.79255
     2018.19575         2.89137         5.82013
     2018.19849         5.77309         5.85726
     2018.20123        10.52281         5.83711
     2018.20397         5.92054         5.72465
     2018.20670         8.13126         5.73526
     2018.20944         1.71098         5.71935
     2018.21218         2.58170         5.75648
     2018.21492        -6.74958         5.80422
     2018.21765         3.24815         5.69282
     2018.22039         3.50987         5.59522
     2018.22313         2.96759         5.66630
     2018.22587        -3.70669         5.69388
     2018.22861        -5.97497         5.68964
     2018.23134         1.65076         5.65463
     2018.23408        -0.37652         5.69176
     2018.23682        -0.77780         5.63023
     2018.23956        -0.99808         5.66524
     2018.24230         0.38765         5.70449
     2018.24503        -2.00163         5.67691
     2018.24777         0.56109         5.63872
     2018.25051         1.73381         5.60795
     2018.25325         2.56453         5.62599
     2018.25598         2.86426         5.67691
     2018.25872         4.76098         5.88591
     2018.26146         0.32570         5.83923
     2018.26420         1.40542         5.65569
     2018.26694         1.51914         5.62705
     2018.26967        -4.19013         5.68115
     2018.27241        -2.99941         5.69282
     2018.27515         9.51131         5.66524
     2018.27789         5.14903         6.05671
     2018.28062         7.78875         5.96548
     2018.28336        -1.22352         5.66100
     2018.28610        -3.61380         5.68964
     2018.28884        -0.40708         5.65145
     2018.29158         5.59364         5.84665
     2018.29431        -1.07163         5.76072
     2018.29705         0.96209         5.63659
     2018.29979        -3.36419         5.85832
     2018.30253         0.19353         5.65569
     2018.30527        -2.43575         5.68434
     2018.30800        -3.27502         5.76390
     2018.31074        -0.60430         5.64614
     2018.31348        -0.10858         5.59840
     2018.31622        -0.91186         5.62811
     2018.31895         4.09386         5.80952
     2018.32169         6.95259         5.72889
     2018.32443         4.35631         5.62811
     2018.32717         0.36803         5.64826
     2018.32991         3.89675         5.81695
     2018.33264         4.76247         5.73420
     2018.33538         4.42920         5.85726
     2018.33812         3.43892         5.83498
     2018.34086         4.22864         5.60371
     2018.34360         2.90036         5.58673
     2018.34633         4.08009         5.58567
     2018.34907         8.23881         5.64296
     2018.35181         6.26953         5.70768
     2018.35455         7.81425         5.64190
     2018.35728         8.67897         5.63447
     2018.36002         9.61070         5.75966
     2018.36276        11.09742         5.77027
     2018.36550         7.80314         5.68221
     2018.36824         5.75086         5.62492
     2018.37097         8.35258         5.65569
     2018.37371         6.29331         5.58461
     2018.37645         5.05503         5.68327
     2018.37919         5.33175         5.61325
     2018.38199        12.89935         5.85196
     2018.38466        10.42419         5.64190
     2018.38740         8.00192         5.61007
     2018.39014         7.02264         5.56233
     2018.39288         8.75136         5.61856
     2018.39561         9.76508         5.61856
     2018.39835         8.97581         5.61750
     2018.40115         9.74342         5.66100
     2018.40383         9.73625         5.60901
     2018.40657         7.92097         5.62280
     2018.40930        17.24269         5.65993
     2018.41204         9.62042         5.58885
     2018.41478         5.43114         5.61325
     2018.41752         3.16886         5.59098
     2018.42026         7.45058         5.64296
     2018.42299         8.29530         5.59310
     2018.42573        12.15203         5.56233
     2018.42847         9.24875         5.58355
     2018.43121         4.82447         5.56764
     2018.43394         9.83119         5.59310
     2018.43668         6.99491         5.56764
     2018.43942         4.59064         5.60371
     2018.44216         8.37936         5.59734
     2018.44490         2.93408         5.61432
     2018.44763         8.82280         5.60477
     2018.45037         4.52353         5.59204
     2018.45311         5.70625         5.60158
     2018.45585         6.71697         5.61432
     2018.45859         4.33769         5.67797
     2018.46132         4.55641         5.65357
     2018.46406        10.30614         5.56551
     2018.46680         6.90686         5.67585
     2018.46954        12.22958         5.63553
     2018.47227        10.31630         5.72677
     2018.47501        10.33102         5.56870
     2018.47775         9.05975         5.71086
     2018.48049        10.80847         5.60583
     2018.48323        13.09119         5.66948
     2018.48596         4.41991         5.62599
     2018.48870         9.72363         5.62811
     2018.49144         5.30436         5.60477
     2018.49418        10.64208         5.63235
     2018.49692        10.39180         5.66524
     2018.49965         4.97252         5.63978
     2018.50239         4.31925         5.65993
     2018.50513         5.25397         5.63766
     2018.50787         9.77269         5.61962
     2018.51060         6.47741         5.60689
     2018.51334         1.69413         5.70449
     2018.51608         5.43586         5.67585
     2018.51882         5.37358         5.60052
     2018.52156         8.73230         5.58885
     2018.52429         8.36602         5.62705
     2018.52703         4.52774         5.57718
     2018.52977         3.70547         5.67373
     2018.53251         7.37919         5.58991
     2018.53525         9.52091         5.68434
     2018.53798         9.39963         5.59310
     2018.54072        13.08135         5.61007
     2018.54346         5.63508         5.62492
     2018.54620         8.51780         5.65357
     2018.54893         8.70052         5.58567
     2018.55167         7.04624         5.61432
     2018.55441        10.38897         5.65993
     2018.55715        10.36569         5.58779
     2018.55989         6.26341         5.86045
     2018.56262         9.64013         5.59628
     2018.56536         9.71885         5.68858
     2018.56810         9.69658         5.62705
     2018.57084         7.30830         5.65569
     2018.57357        11.96502         5.73208
     2018.57631         8.59274         5.74799
     2018.57905         6.81846         5.88803
     2018.58179        11.03419         5.67903
     2018.58453        13.88591         5.75542
     2018.58726        12.79463         5.66524
     2018.59000        10.89635         5.58673
     2018.59274         9.09207         5.62705
     2018.59548        11.05280         5.56551
     2018.59822         9.39752         5.62492
     2018.60095        14.97524         5.62174
     2018.60369         9.91796         5.62917
     2018.60643        10.01569         5.58143
     2018.60917         9.61141         5.62068
     2018.61190        10.34013         5.66206
     2018.61464        10.12485         5.61644
     2018.61738         7.37457         5.64190
     2018.62012        13.00030         5.53157
     2018.62286         4.60402         5.76284
     2018.62559         9.99274         5.82331
     2018.62833         8.07446         5.62174
     2018.63107        12.17118         5.65887
     2018.63381         8.93291         5.76496
     2018.63655         7.97163         5.55384
     2018.63928        14.72535         6.02383
     2018.64202        13.79407         5.94320
     2018.64476        16.49479         5.69601
     2018.64750        11.38452         5.65569
     2018.65023        17.66124         6.85345
     2018.65297        15.83196         5.74375
     2018.65571        13.50968         5.79149
     2018.65845        11.58641         5.68858
     2018.66119        12.59813         5.84772
     2018.66392        10.22985         5.72571
     2018.66666        11.88757         5.63553
     2018.66940         9.87329         5.71404
     2018.67214         7.62302         5.66630
     2018.67488         9.97374         5.65675
     2018.67761        13.86046         5.62386
     2018.68035         7.39818         5.73102
     2018.68309         0.76590         5.81271
     2018.68583        12.07363         5.70237
     2018.68856        10.77535         5.77133
     2018.69130         9.78307         5.69070
     2018.69404        11.33979         5.77770
     2018.69678         6.20151         5.65993
     2018.69952         4.76524         5.64614
     2018.70225         5.55496         5.68752
     2018.70499         6.66468         5.61962
     2018.70773         6.53840         5.59310
     2018.71047         4.19213         5.65463
     2018.71321         3.70285         5.65993
     2018.71594         5.91857         5.60052
     2018.71868         2.01529         5.63341
     2018.72142        10.07801         5.65251
     2018.72416         4.76674         5.59310
     2018.72689         5.08146         5.60689
     2018.72963         6.87618         5.69388
     2018.73237         2.68790         5.63447
     2018.73511         4.35762         5.62599
     2018.73785         9.02435         5.63659
     2018.74058         0.10407         5.94850
     2018.74332         7.42179         5.59734
     2018.74606         6.35251         5.54748
     2018.74880         7.23123         5.64720
     2018.75154         6.85596         5.65569
     2018.75427        12.07568         5.58779
     2018.75701         4.09540         5.77451
     2018.75975         7.94212         5.60901
     2018.76249         8.02485         5.59628
     2018.76522        10.63057         5.74056
     2018.76796        12.25629         5.64508
     2018.77070         6.61901         5.64190
     2018.77344         6.76473         5.60901
     2018.77618         4.16546         5.64084
     2018.77891        12.62918         5.70661
     2018.78165         2.48890         5.76496
     2018.78439         9.79662         5.79573
     2018.78713         5.21434         5.65781
     2018.78987        -1.21193         5.76603
     2018.79260         7.88079         5.69813
     2018.79534        20.35551         5.63766
     2018.79808         3.27723         5.93895
     2018.80082        11.64895         5.69176
     2018.80355         5.69168         5.63659
     2018.80629        10.11740         5.77557
     2018.80903        -0.15188         5.93683
     2018.81177         9.32184         5.92092
     2018.81451        15.99957         5.77027
     2018.81724        10.37729         5.66524
     2018.81998         9.02101         5.61113
     2018.82272        10.43073         5.66948
     2018.82546         7.94645         5.63659
     2018.82820        10.65318         5.68434
     2018.83093         9.36990         5.57718
     2018.83367         7.18162         5.67585
     2018.83641        13.74034         5.64402
     2018.83915         9.44406         5.63978
     2018.84188         8.00279         5.79785
     2018.84462        15.45651         5.63023
     2018.84736         8.61923         5.56233
     2018.85010         6.73195         5.58885
     2018.85284         3.19167         5.60477
     2018.85557         3.01740         5.67160
     2018.85831         5.74112         5.62492
     2018.86105         3.05984         5.61432
     2018.86379        -0.81644         5.72041
     2018.86653         9.60429         5.90713
     2018.86926         7.21201         5.65039
     2018.87200         8.22773         5.62917
     2018.87474         5.31345         5.70343
     2018.87748         2.57417         5.76284
     2018.88021        10.84090         5.68540
     2018.88295         3.92562         5.77557
     2018.88569         8.30234         5.69282
     2018.88843        12.98906         5.70555
     2018.89117         6.76378         5.76072
     2018.89390         4.05251         5.77345
     2018.89664         4.16023         5.74375
     2018.89938         3.45695         5.74587
     2018.90212         8.03967         5.74481
     2018.90485        12.64239         5.68009
     2018.90759        12.66812         5.66736
     2018.91033        12.26784         5.66524
     2018.91307        12.01456         5.84984
     2018.91581        14.26528         5.72677
     2018.91854        12.58901         5.73950
     2018.92128        11.72273         5.72677
     2018.92402         6.92545         5.75860
     2018.92676         8.23717         5.72359
     2018.92950        13.01889         5.70237
     2018.93223        10.10362         5.83180
     2018.93497         9.14934         5.73420
     2018.93771         4.21306         5.79785
     2018.94045        10.78778         5.73420
     2018.94318         8.45350         5.74269
     2018.94592        15.59123         5.68540
     2018.94866        18.39795         5.69070
     2018.95140        15.56867         5.70449
     2018.95414        19.46439         5.66100
     2018.95687         7.19211         5.66418
     2018.95961        11.91284         5.62068
     2018.96235        12.95156         5.71616
     2018.96509        12.86028         5.60265
     2018.96783         6.33800         5.74269
     2018.97056        12.88073         5.74587
     2018.97330        10.83245         5.68327
     2018.97604         5.50817         5.70555
     2018.97878        10.88689         5.64826
     2018.98151        -3.76139         5.69176
     2018.98425         7.69534         5.83286
     2018.98699         2.77206         5.83498
     2018.98973         6.29978         5.73208
     2018.99247        14.34150         5.74905
     2018.99520         4.99222         5.69707
     2018.99794        -0.55305         5.71935
     2018.99948       -11.68602        16.41859
     2019.00342        -0.28661         5.82225
     2019.00616         1.60411         5.71510
     2019.00889        10.49283        10.07224
     2019.01163         5.88356         5.70874
     2019.01437        11.75528         5.68858
     2019.01711        10.34100         5.70768
     2019.01984         5.11972         5.71404
     2019.02258         3.20145         5.70874
     2019.02532         2.94517         5.72465
     2019.02806         4.35089         5.70343
     2019.03005         1.89604         9.04635
     2019.03901         1.45878         5.66100
     2019.04061        -2.31230        14.09838
     2019.04722        -0.77206         5.76284
     2019.04945         4.71466         7.55790
     2019.05914        -8.41904        10.30670
     2019.06091         0.12455         5.71192
     2019.06365         1.64828         5.70555
     2019.06639         0.11600         5.85302
     2019.06913         3.63172         5.83392
     2019.07186        -1.27756         5.83605
     2019.07460        -2.64783         5.63023
     2019.07734        -1.22211         5.63553
     2019.08008         3.59461         5.66100
     2019.08282         5.40833         5.87636
     2019.08555         3.03005         5.64933
     2019.08829         2.76578         5.66524
     2019.09103         4.32550         5.64826
     2019.09377         5.02922         5.68009
     2019.09650         6.89094         5.63023
     2019.09924         2.69666         5.66948
     2019.10198        -3.12461         5.63978
     2019.10472         1.12511         5.61538
     2019.10746        -0.93617         5.66206
     2019.11019         2.61955         5.66948
     2019.11293         4.47827         5.77345
     2019.11567         6.83300         5.90288
     2019.11841        17.70172         5.65993
     2019.12115        17.93544         5.79255
     2019.12388        13.98516         5.77557
     2019.12662         9.52589         5.61644
     2019.12936         8.92561         5.58567
     2019.13210         8.84833         5.56551
     2019.13483         1.79805         5.61750
     2019.13757         3.26777         5.63447
     2019.14031         7.07650         5.71616
     2019.14305         3.32422         5.61962
     2019.14579        -0.01306         5.63447
     2019.14852         6.85366         5.63447
     2019.15126         8.12338         5.68327
     2019.15400         4.28611         5.67160
     2019.15674         4.34183         5.63129
     2019.15948         6.50155         5.64508
     2019.16221         1.21027         5.72889
     2019.16495         1.09399         5.65039
     2019.16769         2.90672         5.58355
     2019.17043         0.70844         5.63447
     2019.17316         2.93716         5.60795
     2019.17590         1.38188         5.59946
     2019.17864         4.87061         5.63023
     2019.18138         5.60933         5.63023
     2019.18412        -4.39095         5.59522
     2019.18685         1.03377         5.59416
     2019.18959         4.25149         5.60477
     2019.19233         2.99722         5.62599
     2019.19507        -1.64806         5.62280
     2019.19780        -2.67534         5.62917
     2019.20054        -0.11162         5.81271
     2019.20328        -2.85190         5.64720
     2019.20602        -4.03617         5.67797
     2019.20876        -5.85445         5.64614
     2019.21149        -7.30173         5.61750
     2019.21423        -0.64001         5.60158
     2019.21697        -0.77429         5.59946
     2019.21971         3.00544         5.88697
     2019.22245        -3.03484         5.65993
     2019.22518        -0.42912         5.59204
     2019.22792        -1.58440         5.56445
     2019.23066        -1.56667         5.58037
     2019.23340         0.49505         5.58991
     2019.23613         1.95977         5.63872
     2019.23887         2.33749         5.59946
     2019.24161        -0.75979         5.79043
     2019.24435         0.71294         5.68540
     2019.24709        -0.92234         5.63341
     2019.24982         3.41038         5.62068
     2019.25256         7.38610         5.74905
     2019.25530         3.40682         5.71086
     2019.25804         3.60255         5.58885
     2019.26078         5.18527         5.58991
     2019.26351         1.49899         5.69919
     2019.26625        -1.59729         5.64508
     2019.26899         0.26943         5.64190
     2019.27173         4.46816         5.84559
     2019.27446         1.95688         5.61325
     2019.27720        10.31460         5.69282
     2019.27994         6.88632         5.59946
     2019.28268         4.44005         5.62492
     2019.28542         8.62077         5.59416
     2019.28815         6.40749         5.60901
     2019.29089         8.26821         5.74162
     2019.29363         9.89893         5.61113
     2019.29637         6.66766         5.70980
     2019.29911         0.76538         5.58567
     2019.30184         6.65910         5.64084
     2019.30458         1.20382         5.65993
     2019.30732         4.49754         5.56551
     2019.31006         7.43927         5.70237
     2019.31279         3.03499         5.68327
     2019.31553         8.28371         5.60158
     2019.31827         8.54043         5.60583
     2019.32101         1.86915         5.60795
     2019.32375        -8.49012         5.57506
     2019.32648         0.65260         5.62811
     2019.32922         4.52132         5.62174
     2019.33196         5.09104         5.75117
     2019.33470         8.93677         5.73738
     2019.33744         2.06249         5.59416
     2019.34017         1.48521         5.57612
     2019.34291         3.37393         5.63023
     2019.34565         2.92165         5.69282
     2019.34839         2.23838         5.63341
     2019.35112        -0.40790         5.60371
     2019.35386        -0.12818         5.56021
     2019.35660         8.51054         5.66842
     2019.35934         3.62326         5.61538
     2019.36208         3.31699         5.61644
     2019.36481         5.43671         5.78406
     2019.36755         2.18143         5.61644
     2019.37029         5.43715         5.63341
     2019.37303         6.72787         5.64296
     2019.37577         8.80560         5.69707
     2019.37850         3.69032         5.55278
     2019.38124         5.05304         5.56127
     2019.38398         7.24076         5.57825
     2019.38672         6.66649         5.60371
     2019.38945        -0.33479         5.63447
     2019.39219         5.78893         5.58991
     2019.39493         7.31265         5.57294
     2019.39767         7.22537         5.58567
     2019.40041         3.48210         5.61113
     2019.40314         6.27082         5.69282
     2019.40588         9.01554         5.62068
     2019.40862         6.51026         5.75966
     2019.41136         8.00798         5.65145
     2019.41410        12.49471         5.63447
     2019.41683        10.58143         5.63129
     2019.41957         8.26015         5.60901
     2019.42231         7.24687         5.60158
     2019.42505         7.76259         5.63553
     2019.42778        10.18932         5.78618
     2019.43052        11.19204         5.59310
     2019.43326         6.03076         5.57294
     2019.43600         5.87448         5.63235
     2019.43874         1.15721         5.82544
     2019.44147         0.76593         5.74905
     2019.44421         5.16965         5.71298
     2019.44695         5.91837         5.72359
     2019.44969        10.58609         5.68540
     2019.45243         1.82982         5.69494
     2019.45516         5.26754         5.73102
     2019.45790         7.35626         5.69388
     2019.46064         5.47798         5.68221
     2019.46338         4.98170         5.82968
     2019.46611         6.84343         5.96760
     2019.46885         8.14715         5.84772
     2019.47159        11.23687         5.65993
     2019.47433         9.62859         5.63129
     2019.47707        11.51331         5.63978
     2019.47980         5.63204         5.67691
     2019.48254         4.35276         5.70449
     2019.48528         8.78548         5.70768
     2019.48802         4.76620         5.74481
     2019.49076         7.85893         5.63553
     2019.49349         7.47365         5.66524
     2019.49623         7.20237         5.72359
     2019.49897        10.03909         5.64508
     2019.50171         4.11581         5.66312
     2019.50444         4.94154         5.65039
     2019.50718         5.05026         5.65145
     2019.50992         5.32798         5.63872
     2019.51266         9.12470         5.72041
     2019.51540         8.90642         5.61856
     2019.51813         7.78715         5.63023
     2019.52087         6.45987         5.67585
     2019.52361         7.47159         5.63766
     2019.52635         8.71431         5.66100
     2019.52908         8.99803         5.81377
     2019.53182         7.08676         5.70343
     2019.53456         4.01748         5.69282
     2019.53730         6.68020         5.77451
     2019.54004         7.94392         5.82438
     2019.54277        14.01765         5.79149
     2019.54551         7.83337         5.86893
     2019.54825         9.65409         5.59734
     2019.55099         8.00081         5.68434
     2019.55373         7.82053         5.77557
     2019.55646         4.03226         5.79997
     2019.55920        -0.35302         5.87636
     2019.56194         8.77270         5.64826
     2019.56468         5.90042         5.74481
     2019.56741         7.36014         5.62174
     2019.57015         3.41687         5.70661
     2019.57289         5.29759         5.72783
     2019.57563         9.25431         5.55915
     2019.57837         6.75603         5.66736
     2019.58110        10.11675         5.62174
     2019.58384         7.68848         5.77345
     2019.58658         9.70120         5.58249
     2019.58932        15.09692         5.58673
     2019.59206        15.28164         5.73738
     2019.59479        13.40937         5.62599
     2019.59753        16.62709         5.90713
     2019.60027        13.72881         5.88379
     2019.60301         9.03853         5.62599
     2019.60574        15.58525         5.95062
     2019.60848        11.08298         5.87954
     2019.61122         9.41970         5.67373
     2019.61396         7.64642         5.72571
     2019.61670         3.42314         6.42060
     2019.61943         5.69386         5.73102
     2019.62217        15.11259         5.81164
     2019.62491        14.30231         5.62280
     2019.62765        14.35103         5.81377
     2019.63039        10.09375         5.65357
     2019.63312         7.34247         5.63023
     2019.63586        -4.15480         6.02383
     2019.63860        13.62192         5.63978
     2019.64134         8.41464         5.82331
     2019.64407         8.58236         5.64720
     2019.64681         5.88009         5.72041
     2019.64955         6.85481         5.66948
     2019.65229        14.72353         5.71086
     2019.65503         3.61525         5.70874
     2019.65776         5.05297         5.71510
     2019.66050         9.66970         5.77027
     2019.66324         3.16742         5.68009
     2019.66598         6.72914         5.66736
     2019.66872         9.12486         5.67691
     2019.67145         6.76058         5.74481
     2019.67419         5.47531         5.68540
     2019.67693         4.76803         5.77133
     2019.67967         4.72975         5.87848
     2019.68240         6.93047         5.58779
     2019.68514         4.95019         5.61113
     2019.68788         7.67592         5.66842
     2019.69062         7.41264         5.65993
     2019.69336         7.00836         5.59628
     2019.69609         8.10608         5.76284
     2019.69883         8.08781         5.61113
     2019.70157         9.55753         5.69494
     2019.70431         5.02325         5.57931
     2019.70705         3.11797         5.66736
     2019.70978         7.89469         5.60371
     2019.71252         1.31242         5.65781
     2019.71526         7.86214         5.69707
     2019.71800         8.25086         5.86575
     2019.72073        10.47458         6.12143
     2019.72347        11.28930         5.66842
     2019.72621         7.39403         5.68858
     2019.72895        11.13675         5.63553
     2019.73169         9.26347         5.75648
     2019.73442        16.78119         5.70661
     2019.73716        11.90691         5.67585
     2019.73990        11.47164         5.77133
     2019.74264         8.61636         5.77345
     2019.74538        10.04108         5.68964
     2019.74811        11.86380         5.85408
     2019.75085        12.27053         5.73738
     2019.75359        15.04525         5.93047
     2019.75633        10.89997         5.81801
     2019.75906        12.98669         5.68646
     2019.76180        11.98841         5.67267
     2019.76454        13.06514         5.71616
     2019.76728         8.32186         5.62386
     2019.77002         6.67958         5.71616
     2019.77275        11.55930         5.73526
     2019.77549        15.95102         5.70661
     2019.77823        12.60675         5.68434
     2019.78097        12.66647         5.66312
     2019.78371         9.32619         5.68540
     2019.78644        -0.62809         5.68327
     2019.78918         5.55963         5.68858
     2019.79192        15.57536         5.67479
     2019.79466        17.39908         5.59522
     2019.79739        15.03680         5.57931
     2019.80013        16.94152         5.64826
     2019.80287        13.78725         5.73314
     2019.80561        16.77997         5.77770
     2019.80835         8.72969         5.87318
     2019.81108         9.75941         5.76815
     2019.81382        10.19713         5.66206
     2019.81656        10.29286         5.61962
     2019.81930         9.30358         5.66948
     2019.82203         5.83530         5.67479
     2019.82477         7.20202         5.66630
     2019.82751         9.75474         5.62068
     2019.83025        12.89647         5.73632
     2019.83299         5.22219         5.78512
     2019.83572         5.96291         5.66206
     2019.83846        11.23663         5.67267
     2019.84120        14.95135         5.62280
     2019.84394         8.85908         5.79467
     2019.84668         7.36280         5.60795
     2019.84941        13.21552         5.68327
     2019.85215        -0.68276         5.74799
     2019.85489         3.82397         5.68964
     2019.85763         8.67469         5.64190
     2019.86036         8.08741         5.69707
     2019.86310         4.67313         5.68964
     2019.86584        17.28085         5.83605
     2019.86858        12.14158         5.73738
     2019.87132        11.57730         5.82544
     2019.87405        10.96202         5.73208
     2019.87679        13.80074         5.92516
     2019.87953        16.09046         5.71404
     2019.88227        17.48919         5.73102
     2019.88501        17.95491         5.73102
     2019.88774        14.95463         6.08218
     2019.89048        14.11135         5.75648
     2019.89322        22.83607         5.70237
     2019.89596        11.67080         5.74693
     2019.89869         1.19752         5.80210
     2019.90143        12.54324         5.69070
     2019.90417        10.32096         5.67054
     2019.90691         8.86569         5.64402
     2019.90965         8.88841         5.65039
     2019.91238        13.57113         5.64933
     2019.91512        10.28585         5.76072
     2019.91786        17.70357         5.64720
     2019.92060        18.17230         5.67479
     2019.92334         9.42802         5.79785
     2019.92607         7.72774         5.65039
     2019.92881         9.80146         5.67160
     2019.93155         7.93818         5.64720
     2019.93429        12.16791         5.62174
     2019.93702         7.73063         5.69707
     2019.93976        10.17235         5.75011
     2019.94250         7.47507         5.68009
     2019.94524         0.43579         5.73314
     2019.94798         8.63852         5.64402
     2019.95071         6.26124         5.86363
     2019.95345         6.28996         5.62917
     2019.95619        14.34768         5.71086
     2019.95893         7.61241         5.75117
     2019.96167         9.79713         5.70874
     2019.96440         6.24885         5.78724
     2019.96714         9.11857         5.74905
     2019.96988         3.66729         5.67903
     2019.97262         5.13302         5.69813
     2019.97535         4.14874         5.69388
     2019.97809         5.60346         5.70131
     2019.98083         4.05718         5.66100
     2019.98357         5.33290         5.68221
     2019.98631         9.78763         5.65463
     2019.98904         3.71535         5.86151
     2019.99178         5.24707         5.67267
     2019.99452         8.47179         5.63872
     2019.99726        19.05651         5.67054
     2020.03011         8.21918         5.65463
     2020.03285         2.40290         5.69282
     2020.03559         8.43162         5.57082
     2020.03833        14.15435         5.56976
     2020.04106        10.68707         5.79149
     2020.04380         6.38779         5.79997
     2020.04654         9.11151         5.60689
     2020.04928         1.97123         5.60371
     2020.05201         3.49496         5.61856
     2020.05475         1.28368         5.59522
     2020.05749         2.86940         5.58673
     2020.06023         0.51812         5.60689
     2020.06297         2.29585         5.61113
     2020.06570         9.26757         5.65251
     2020.06844         6.13329         5.60158
     2020.07118         9.67101         5.58673
     2020.07392         6.25073         5.61856
     2020.07666         3.35446         5.69707
     2020.07939         4.84318         5.70768
     2020.08213         6.99190         5.69176
     2020.08487        11.49062         5.58885
     2020.09034         5.61507         5.54536
     2020.09582         7.19351         5.61750
     2020.09856         6.83123         5.59734
     2020.10130         5.58795         5.58779
     2020.10951         2.01212         5.60477
     2020.11225        10.64384         5.65039
     2020.11498         5.67857         5.64826
     2020.11772         4.84029         5.74799
     2020.12046         4.69301         5.74056
     2020.12320         3.33873         5.58461
     2020.12594         7.96145         5.62917
     2020.12867         3.99818         5.62705
     2020.13141         3.84790         5.60158
     2020.13415         0.04462         5.61219
     2020.13689        -1.09766         5.67585
     2020.13963         1.65106         5.64933
     2020.14236         6.73179         5.58567
     2020.14510         7.33851         5.61750
     2020.14784         3.61123         5.60265
     2020.15058        -1.68405         5.62917
     2020.15331        -0.75133         5.59204
     2020.15605         5.43640         5.67373
     2020.15879         7.70112         5.62386
     2020.16153         4.79984         5.60265
     2020.16427         5.62256         5.61538
     2020.22176         1.47073         5.69601
     2020.22450         3.22245         5.68540
     2020.22724         2.60717         5.65145
     2020.22997         4.39389         5.68221
     2020.23271         6.75262         5.64084
     2020.23545         7.33234         5.64190
     2020.23819         5.14406         5.68434
     2020.24093         4.68178         5.64720
     2020.24366         6.83750         5.69494
     2020.24640         9.04123         5.67054
     2020.24914        -0.68605         5.62599
     2020.25188         2.24067         5.66630
     2020.25462         5.40339         5.65251
     2020.25735         7.22811         5.66524
     2020.26009         9.99584         5.67903
     2020.26283         5.25056         5.63235
     2020.26483         6.24971         8.51165
     2020.26922        -3.04176        10.51995
     2020.27104         2.89373         5.69707
     2020.27378         4.27545         5.68009
     2020.27652         3.59017         5.65357
     2020.27926         2.00489         5.76709
     2020.28199         5.15961         5.78194
     2020.28473        -4.54266         5.65357
     2020.28747         1.98606         5.74905
     2020.29021         4.92478         5.71828
     2020.29295        -1.00050         5.63766
     2020.29568         1.88922         5.64296
     2020.33675         2.71406         5.58779
     2020.33949         3.76478         5.58779
     2020.34223        -2.53150         5.61644
     2020.34496        -2.82778         5.57506
     2020.34770        -0.39806         5.57718
     2020.34919        13.91709        21.05475
     2020.49828         2.18066         5.58991
     2020.50102         5.47838         5.57612
     2020.50376         2.77810         5.59840
     2020.50650         2.91783         5.56658
     2020.50924        -0.96745         5.58567
     2020.51197         5.20927         5.57188
     2020.51471         4.58999         5.58779
     2020.51745         4.25771         5.58885
     2020.52019         9.51144         5.79573
     2020.52292         8.46116         5.65675
     2020.52566         4.89788         5.70768
     2020.52840         7.83460         5.65145
     2020.53039         9.35576         8.33024
     2020.53480         8.22327         9.93327
     2020.53661         2.72677         5.65993
     2020.53912         2.11493         6.34422
     2020.57880         9.71144        12.55158
     2020.58042        10.57432         5.69176
     2020.58316        10.12305         5.79149
     2020.58584        -9.24012         7.62685
     2020.58863        10.66549         6.38666
     2020.59137         7.93721         6.77495
     2020.59411        10.53293         5.72041
     2020.59685         9.83366         5.85514
     2020.59958         6.80038         5.97290
     2020.60232         9.60310         5.70131
     2020.60506         6.93682         5.90182
     2020.60780        10.33954         5.69813
     2020.61054        14.96027         5.64826
     2020.61327        14.78299         5.67479
     2020.61578         9.35615         6.41530
     2020.61932         7.94033         7.59927
     2020.62149         7.31015         5.68752
     2020.62423         7.19788         5.79361
     2020.62696         1.61560         6.00367
     2020.62970        13.44732         5.74056
     2020.63244        11.52004         5.67903
     2020.63518         6.64777         5.75966
     2020.63763         6.26604         6.66037
     2020.76220        11.54890        12.16435
     2020.76386        11.70970         5.60901
     2020.76659        12.54443         5.59310
     2020.76899        12.91781         6.66992
