# ================= DQRFIT RESULTS ================
# INPUT FILE: series/BCSM.rad
# OUTPUT: LDETRENDED
# FILTER FUNCTION: f(t)
# f(t)=+line(t)+annual(t)
# line(t)=+P 1+P 2*t
# annual(t)=+P 3*sin(2*pi*t+P 4)
# heav(t)=(t<0?0:1)
# TOTAL OBSERVATIONS MTOT= 3228
# INITIAL TIME INTERVAL= 2022.3205 - 2010.9541 = 11.3664
# TOTAL OBSERVATIONS AFTER PREFILTER M= 3172
# TIME-SPAN= 2022.3205 - 2010.9541 = 11.3664
# OBSERVATIONS: USED M=  3172 REJECTED MTOT-M=    56 %USED=   98.2652
# N=  4 PARAMETERS
# MAXSIG= 175.00000
# MAXRES=  40.29352
# SCALE FACTOR FOR LENGTHS: SCL=  10.00000
# SCALE FACTOR FOR SIGMAS: SCLSIG=   1.00000
# CHI^2=  29997.076 DOF=  3168 CHI^2/DOF=   9.46877
# RMS=     17.336 SDEV=     17.338 MEAN=   -0.15657
#  P #       PARAMETER +-    SIGMA %error PARAMETER NAME
# P 1 =     -6411.98687 +-  233.563   3.64 YZERO                              
# P 2 =         3.18554 +-    0.116   3.64 SLOPE                              
# P 3 =         9.37237 +-    0.449   4.79 ANNUAL AMPLITUDE                   
# P 4 =         2.89330 +-    0.066   2.27 ANNUAL PHASE                       
#       T            LDETRENDED       SIG_OBS
     2010.95414       -10.81490        19.99832
     2010.95687       -16.62962        19.80138
     2010.95961        -8.15234        20.81376
     2010.96235       -21.40706        20.14294
     2010.96509        -8.04679        19.95216
     2010.96783        -4.67751        19.99832
     2010.97056         0.01477        20.47527
     2010.97330       -13.59895        20.06601
     2010.97604       -16.89167        22.03846
     2010.97878        -5.21139        32.24224
     2010.98151       -11.39212        19.94908
     2010.98425         2.14316        20.33065
     2010.98699        -8.81856        19.95524
     2010.98973        -5.68428        20.28449
     2010.99247        -0.16700        21.12147
     2010.99520        -4.75572        20.44142
     2010.99794        -8.17244        19.95524
     2011.00068       -11.75417        19.85984
     2011.00342        -1.75189        20.49066
     2011.00616         1.25239        20.12140
     2011.00889         0.20967        20.71221
     2011.01163        -5.16405        19.75522
     2011.01437        -2.80577        20.25679
     2011.01711         1.77150        21.38303
     2011.01984        -2.06922        19.58598
     2011.02258        -2.40294        19.73368
     2011.02532        -4.88166        19.54598
     2011.02806        -6.37738        20.48758
     2011.03080         0.28590        28.04195
     2011.03353        -2.47882        19.94908
     2011.03627        -5.89055        20.21679
     2011.03901        -5.36527        19.89062
     2011.04175         2.00201        20.19217
     2011.04449        -7.99171        20.95838
     2011.04722        -8.65143        21.32148
     2011.04995        -4.47811        20.34295
     2011.05270        -2.61288        20.01986
     2011.05544       -11.46660        20.10294
     2011.05817        -5.44332        19.64137
     2011.06091        -5.92004        19.74907
     2011.06365        -3.51076        19.72445
     2011.06639        -3.88148        19.78599
     2011.06913        -5.14420        21.05070
     2011.07186        -3.10293        20.05986
     2011.07460        -3.68765        19.95524
     2011.07734        -4.28737        19.70291
     2011.08008        -4.62809        19.74907
     2011.08276        -6.44463        20.21679
     2011.08566        -7.26588        21.49996
     2011.08829        -2.30726        20.03832
     2011.09103        -5.51998        20.86299
     2011.09342        -4.84961        25.39561
     2011.10015       -12.26002        32.07608
     2011.10201        -5.67595        20.01678
     2011.10472        -1.09358        19.49982
     2011.10746        -3.95031        20.60143
     2011.11019        -8.59203        19.90908
     2011.11293        -1.65475        19.70599
     2011.11567        -0.77647        20.15525
     2011.11841         0.88481        19.61367
     2011.12115        -5.71891        20.15217
     2011.12388        -7.64264        21.06608
     2011.12662        -9.97336        20.77068
     2011.12936        -6.15808        20.13679
     2011.13210       -11.36080        19.83215
     2011.13483       -14.56652        21.21994
     2011.13757       -22.50224        19.60136
     2011.14031       -22.41396        19.62290
     2011.14305       -22.17069        20.25679
     2011.14579       -19.68641        20.23833
     2011.14852       -19.75113        19.50597
     2011.15126       -15.19785        19.65060
     2011.15400       -11.56857        19.64137
     2011.15674       -12.53729        19.62906
     2011.15948        -6.54102        19.94293
     2011.16221       -14.22974        21.22609
     2011.16495       -13.24946        20.04755
     2011.16769       -14.18918        20.07524
     2011.17043       -15.66090        19.64444
     2011.17316       -12.52362        19.77368
     2011.17590       -21.60434        19.54905
     2011.17864        -7.99207        19.81984
     2011.18138       -18.15179        20.36142
     2011.18412       -25.19351        20.01986
     2011.18685       -21.65523        20.50912
     2011.18959       -14.37695        19.76138
     2011.19233       -16.39367        19.43212
     2011.19507        -6.56240        19.73060
     2011.19780       -16.79612        20.30911
     2011.20054       -21.71784        19.83523
     2011.20328       -13.13356        19.69676
     2011.20602       -16.48728        21.17070
     2011.20876       -23.39200        20.25987
     2011.21149       -31.82772        19.91523
     2011.21423       -26.80145        19.79522
     2011.21697       -23.54117        19.69676
     2011.21971       -23.76689        20.04755
     2011.22245       -21.63461        20.74606
     2011.22518       -10.97733        21.29071
     2011.22745        -9.88354        27.59884
     2011.23694        -0.25879        26.78648
     2011.23887        -5.13994        20.02601
     2011.24161        -9.72366        20.22295
     2011.24435        -2.96138        20.08448
     2011.24709       -14.84710        19.96447
     2011.24982       -17.88583        20.33988
     2011.25256        -0.75455        19.70291
     2011.25530        -5.90127        20.26295
     2011.25804        -6.86999        20.92761
     2011.26078       -15.01371        20.77683
     2011.26337       -13.55396        21.30302
     2011.26702         0.42541        26.46338
     2011.26899         0.99312        20.11832
     2011.27173        -2.78660        20.43219
     2011.27446         0.07668        21.05685
     2011.27720        -9.40304        20.89684
     2011.27994        -6.06276        19.68752
     2011.28268        -6.41948        20.06601
     2011.28542       -15.23121        19.80446
     2011.28815       -16.81793        19.79215
     2011.29089        -1.86065        19.69368
     2011.29363        -8.65837        19.73060
     2011.29637        -3.79009        19.85677
     2011.29911        -4.16781        19.90600
     2011.30184        -5.83554        19.86908
     2011.30458        -4.53726        19.62906
     2011.30732        -4.35198        19.54905
     2011.31379        -5.42160        34.91935
     2011.31553        -7.44714        20.35834
     2011.31827        -9.03386        19.69676
     2011.32101       -11.53059        20.02601
     2011.32375       -12.81831        20.04447
     2011.32648        -7.40003        19.53982
     2011.32922       -11.43075        19.57059
     2011.33196        -2.60847        19.83830
     2011.33470       -15.10619        20.38296
     2011.33744       -13.51192        20.38296
     2011.34017        -6.76164        20.71837
     2011.34291        -6.73636        20.76145
     2011.34565        -6.87608        20.21371
     2011.34839       -14.76880        20.16140
     2011.35112       -12.75152        20.34911
     2011.35386       -18.47825        20.63221
     2011.35660       -10.80297        19.69060
     2011.35934       -12.87969        20.09678
     2011.36090       -20.60565        62.94284
     2011.36481       -20.11313        20.52451
     2011.36755       -24.48485        20.36142
     2011.37029       -12.68457        20.40142
     2011.37303        -9.22730        23.47856
     2011.37577        -7.77902        20.89069
     2011.37850       -18.27274        20.75221
     2011.38124       -16.82446        20.31526
     2011.38398       -25.37418        20.36757
     2011.38672       -12.86890        20.41065
     2011.38945       -12.80563        20.33680
     2011.39219       -19.70035        20.35834
     2011.39493       -12.13607        20.25372
     2011.39767       -11.36079        20.81068
     2011.40041       -12.64151        20.37065
     2011.40314       -20.64623        20.20141
     2011.40588       -16.36795        20.26910
     2011.40862        -8.96968        21.06916
     2011.41136       -16.19040        20.27526
     2011.41410       -14.32912        20.48758
     2011.41683       -11.56684        20.93377
     2011.41957       -11.93656        20.38296
     2011.42231       -14.48728        20.41988
     2011.42505       -13.49701        20.83222
     2011.42778       -14.50173        22.54003
     2011.43052       -13.12245        20.71529
     2011.43326       -16.12717        20.23833
     2011.43600       -15.44389        20.58913
     2011.43874       -13.49161        20.59528
     2011.44147       -12.03033        20.57989
     2011.44421       -16.29206        20.30295
     2011.44695       -14.07778        20.63836
     2011.44969       -19.60450        20.53681
     2011.45243       -14.04322        20.70298
     2011.45516       -20.27294        20.37680
     2011.45790       -12.45466        20.65990
     2011.46064       -11.36939        20.93069
     2011.46338       -18.36311        20.41373
     2011.46611        -9.09083        20.37065
     2011.46885        -6.93255        20.40450
     2011.47159       -10.64727        20.93992
     2011.47433       -19.64499        21.17686
     2011.47707        -9.91271        20.48143
     2011.47980        -7.97044        20.51220
     2011.48254       -16.70016        20.81991
     2011.48528        -9.94488        20.70913
     2011.48802        -7.21660        20.86299
     2011.49076        -4.36032        20.85991
     2011.49349        -7.28804        20.62605
     2011.49623        -5.92777        20.53374
     2011.49897        -5.28649        20.61990
     2011.50171        -8.81121        20.62913
     2011.50444       -10.52393        20.47835
     2011.50718        -9.51565        20.70298
     2011.50992        -3.01037        20.84453
     2011.51266        -5.35509        20.69990
     2011.51540       -14.19782        24.40785
     2011.51813        -2.63154        20.37065
     2011.52087        -3.93826        20.75221
     2011.52361        -3.70298        31.22064
     2011.52635        -4.57070        20.85068
     2011.52908        -8.07742        20.75529
     2011.53182        -9.08213        20.31218
     2011.53547       -11.76076        45.81550
     2011.53730       -18.56259        20.57066
     2011.54004        -7.11431        20.53989
     2011.54277       -20.39103        20.30603
     2011.54551       -10.37675        20.48758
     2011.54825        -9.11147        20.33680
     2011.55099       -10.38920        21.39226
     2011.55373        -6.66392        20.44142
     2011.55528       -29.16388       113.43867
     2011.56279        -3.95278        34.59933
     2011.56470        -9.37188        21.69074
     2011.56741       -11.06653        20.68452
     2011.57013        -1.01117        21.42611
     2011.57289       -15.86197        20.79837
     2011.57563        -5.01769        20.54912
     2011.57837         2.99059        20.97684
     2011.58110       -14.52813        20.26295
     2011.58384        -1.92585        20.94915
     2011.58658        -1.78358        26.71878
     2011.58932        -4.45830        20.38911
     2011.59206        -2.21502        20.47219
     2011.59479        -3.77074        20.28449
     2011.59645       -31.11003        73.49435
     2011.60102        -7.50256        30.89138
     2011.60301        -2.16791        20.43219
     2011.60574        -1.81963        20.85991
     2011.60848        -2.72035        21.38610
     2011.61122        -1.48607        21.77382
     2011.61396         6.22721        21.18609
     2011.61670        -4.28851        21.23532
     2011.61943       -11.95823        21.19840
     2011.62217        -0.87396        21.85998
     2011.62491        -2.02868        26.81417
     2011.62767        -2.04746        21.96153
     2011.63039        -0.13512        30.14979
     2011.63312        -4.85384        20.98915
     2011.63502         8.03210        33.16846
     2011.64134         4.08399        21.81998
     2011.64407       -10.11173        21.29687
     2011.64681        -2.78745        20.81683
     2011.64955        -0.91717        22.27847
     2011.65229        -4.41989        20.93992
     2011.65503        -4.01361        20.97992
     2011.65764        -7.55894        24.22015
     2011.68315        -1.47419        34.32547
     2011.68512         2.61051        21.15224
     2011.68788         1.30373        21.03223
     2011.69062        -2.24299        21.00146
     2011.69336         0.95328        21.20763
     2011.69609         4.17756        21.65074
     2011.69883        -2.48516        20.97992
     2011.70157         4.06512        21.45072
     2011.70431         0.75740        21.05685
     2011.70710        -8.04351        21.89075
     2011.70978         4.41895        20.80453
     2011.71252         6.33423        21.24148
     2011.71521         2.26466        21.14609
     2011.71878       -14.04871        38.15035
     2011.72073        18.34207        21.24763
     2011.72347         6.83635        21.87229
     2011.72621         5.41862        21.55227
     2011.72895         4.47790        20.83222
     2011.73169        18.29618        21.92460
     2011.73442        -2.69054        21.57996
     2011.73716        11.55074        21.93999
     2011.73990        -4.65498        21.77690
     2011.74236         8.15219        21.84767
     2011.74630       -13.20936        56.96397
     2011.74764         2.26035        24.38631
     2011.75181       -24.02493        58.80102
     2011.75359        -1.15159        21.98307
     2011.75633         3.48169        21.81690
     2011.75906         4.82397        21.79229
     2011.76180        -7.78476        21.46303
     2011.76454         8.97952        21.73074
     2011.76728        -8.74320        21.40764
     2011.77002         0.65708        21.42303
     2011.77275         7.65036        21.43534
     2011.77549        -1.12836        21.52765
     2011.77823        -3.98108        21.78921
     2011.78097       -15.02781        21.18609
     2011.78349         3.32915        22.50003
     2011.79267         2.18692        43.28609
     2011.79466         0.41559        21.43534
     2011.79739         8.31386        21.60458
     2011.80013         9.85714        23.28162
     2011.80287        13.92542        21.63535
     2011.80561        15.02770        21.28456
     2011.80835         6.37698        20.94300
     2011.81114         1.38908        21.69997
     2011.81382       -10.17146        22.43233
     2011.81652        12.03895        22.06307
     2011.82010       -12.43745        46.78172
     2011.82206        21.85330        25.75564
     2011.82477        11.02565        21.83229
     2011.82751         3.39493        21.77998
     2011.83025        10.39421        22.00461
     2011.83299        -0.06352        21.11839
     2011.83571         2.25281        22.78005
     2011.83846         7.53604        21.01992
     2011.84120         3.25732        21.13070
     2011.84394         7.94560        20.77683
     2011.84668        -0.15512        20.82607
     2011.84941         3.28716        22.46310
     2011.85215        -2.45957        25.86026
     2011.85489         3.68871        22.70312
     2011.85763        11.67399        22.94621
     2011.86036        20.86127        21.05685
     2011.86310        12.74155        20.88761
     2011.86584        12.47883        20.86607
     2011.86858        17.91910        21.08762
     2011.87110        14.03706        22.48157
     2011.87405         9.57166        21.01377
     2011.87679        10.01994        21.25071
     2011.87953         7.37922        21.40457
     2011.88227         4.06350        20.78299
     2011.88501         2.05978        20.73683
     2011.88774        -3.52595        21.10916
     2011.89048        -0.79567        21.01992
     2011.89322       -11.69439        20.84453
     2011.89596        -6.33911        20.76452
     2011.89869         4.22917        21.14301
     2011.90087       -10.42777        24.65402
     2011.90781        -9.57287        47.66486
     2011.90965        16.79728        20.81991
     2011.91238         1.78356        21.37380
     2011.91512         2.44384        20.85684
     2011.91786         5.02112        21.11532
     2011.92060         3.70140        20.77068
     2011.92334         0.81867        23.02314
     2011.92607         5.12195        21.50304
     2011.92881        10.44223        21.45072
     2011.93155         1.39051        21.29379
     2011.93429         4.13079        21.26917
     2011.93702         3.06407        21.47842
     2011.93976        12.04934        21.56150
     2011.94250        12.02062        21.25071
     2011.94524         8.69890        21.39534
     2011.94798        11.48218        21.49073
     2011.95071         7.77246        20.81683
     2011.95345         8.30374        21.08762
     2011.95619        11.13402        21.32456
     2011.95893         4.53429        20.55528
     2011.96167         6.60657        20.82299
     2011.96440         1.38685        20.42911
     2011.96714         8.15813        20.66913
     2011.96988         8.51941        20.27526
     2011.97262         9.47069        20.07832
     2011.97535         0.66496        20.19833
     2011.97809         1.90924        20.50297
     2011.98083         4.08652        20.33988
     2011.98357         6.08380        20.12756
     2011.98631         4.45508        20.19525
     2011.98904         6.40236        21.25071
     2011.99178         9.04664        20.37680
     2011.99452         3.56791        20.30295
     2011.99726         7.91519        19.87831
     2012.00000        -2.45753        20.03524
     2012.00273         6.80575        20.08140
     2012.00539         9.97530        21.90306
     2012.00825        -3.46683        20.77683
     2012.01095         2.22058        20.05370
     2012.01368        -1.44414        20.58913
     2012.01642        -0.18886        20.01062
     2012.01916         9.50342        20.26295
     2012.02190         9.06170        21.21071
     2012.02464         9.14098        20.22602
     2012.02737         4.05226        19.97985
     2012.03011         9.28253        19.99216
     2012.03285        13.46281        20.71529
     2012.03559         3.11909        20.02601
     2012.03833         1.37437        19.98293
     2012.04106         9.66665        19.92754
     2012.04380         6.77993        20.57374
     2012.04654        14.02220        21.28148
     2012.04928        -4.28052        20.38911
     2012.05201         1.62376        20.07832
     2012.05475        15.00204        20.11525
     2012.05706         8.74170        25.79872
     2012.06108         3.00989        34.92859
     2012.06297         5.09688        20.29987
     2012.06554         6.34767        22.06923
     2012.07118        -1.66129        20.01062
     2012.07392        -2.66201        19.96754
     2012.07666        -1.79473        20.03832
     2012.07939        11.66155        19.83830
     2012.08213         7.10982        20.27218
     2012.08487        -4.16190        19.83215
     2012.08758        -2.81754        20.36757
     2012.09034         2.79966        20.17987
     2012.09308        10.38394        19.90600
     2012.09582         7.92222        23.46933
     2012.09856         5.33149        20.80453
     2012.10147         9.08423        24.68172
     2012.10403         7.70905        26.30029
     2012.10757        -1.89921        31.26371
     2012.10951         4.92861        20.91838
     2012.11498        -1.13883        20.28449
     2012.11772        -7.56356        20.43835
     2012.12046        10.27572        20.28449
     2012.12320         2.62700        20.36757
     2012.12594        -0.77772        20.62605
     2012.12851         1.14907        23.87551
     2012.15331       -75.18194        16.34268
     2012.15605       -75.87766        16.75194
     2012.15879       -69.97738        16.85656
     2012.16153       -68.12110        16.81348
     2012.16427       -77.75282        16.60731
     2012.16700       -76.74854        17.07196
     2012.16974       -67.44527        16.63500
     2012.17248       -71.66499        16.53038
     2012.17517       -67.73957        17.00426
     2012.18071       -77.85021        18.29358
     2012.18343       -80.30287        17.01349
     2012.18617       -74.03559        16.70578
     2012.18891       -78.70132        16.30883
     2012.19164       -79.40904        16.49038
     2012.19438       -67.29376        16.93964
     2012.19712       -59.20748        17.07503
     2012.19986       -60.01820        17.07811
     2012.20260       -63.38592        17.40121
     2012.20533       -77.78965        16.64116
     2012.20807       -76.02037        16.26267
     2012.23271       -70.47486        18.40436
     2012.23545       -63.99358        17.26889
     2012.23817       -69.46726        16.68424
     2012.24093       -75.28703        17.92432
     2012.24366       -80.71375        16.90272
     2012.24640       -73.66047        16.18267
     2012.24914       -72.82819        16.30267
     2012.25462       -81.85463        16.48730
     2012.25809       -51.01872        46.60632
     2012.26009       -71.20208        16.65654
     2012.26283       -75.00680        16.23805
     2012.26557       -70.61552        17.72739
     2012.26830       -72.49324        16.39191
     2012.27104       -71.13896        17.05965
     2012.27378       -68.06068        16.53961
     2012.27654       -70.49248        16.47807
     2012.27926       -74.48313        17.06273
     2012.28199       -77.30485        16.41037
     2012.28473       -68.46857        16.38268
     2012.28747       -66.83329        16.41037
     2012.29021       -69.03801        16.64116
     2012.29295       -75.84173        16.54269
     2012.29568       -73.88646        16.41345
     2012.29842       -78.86118        16.73040
     2012.30116       -70.09490        16.53346
     2012.30390       -71.81762        16.33652
     2012.30663       -76.57434        16.33652
     2012.30937       -72.04606        16.61346
     2012.31211       -70.84279        17.35198
     2012.32032       -73.66495        16.88733
     2012.32580       -78.88539        16.27806
     2012.32854       -71.43911        16.81348
     2012.33128       -67.08984        17.09657
     2012.33401       -69.57056        16.71809
     2012.33675       -78.14528        16.38576
     2012.33949       -75.02100        16.85348
     2012.34770       -73.09117        16.72732
     2012.35044       -76.52889        16.78886
     2012.35318       -68.54261        16.47807
     2012.35592       -74.40333        16.20421
     2012.35865       -75.27305        16.72424
     2012.36141       -73.95783        16.44422
     2012.36413       -74.31049        16.23190
     2012.36687       -74.63022        16.26575
     2012.36961       -70.63394        16.57346
     2012.37234       -68.79766        16.42576
     2012.37508       -71.38338        16.35498
     2012.37782       -72.37010        16.98580
     2012.38056       -76.29482        16.71193
     2012.38329       -72.10855        16.87194
     2012.38603       -80.57527        16.73655
     2012.38877       -73.89399        16.74886
     2012.39151       -71.24071        16.81040
     2012.39425       -75.43943        16.69962
     2012.39698       -72.55915        16.65039
     2012.39972       -67.64987        16.51192
     2012.40246       -72.35260        16.34268
     2012.40520       -72.74332        16.38576
     2012.41065       -79.31770        16.42268
     2012.41257       -95.44082        28.43275
     2012.41651       -67.74535        18.85670
     2012.41889       -68.68693        16.68424
     2012.42162       -73.63565        16.40114
     2012.42436       -74.94737        16.53961
     2012.42710       -74.26509        16.39806
     2012.42984       -67.19181        17.30582
     2012.43258       -70.99153        16.36114
     2012.43531       -74.49825        16.52730
     2012.43805       -75.55798        16.53346
     2012.44353       -75.53942        16.45038
     2012.44626       -73.73714        16.39806
     2012.44900       -76.11686        16.49961
     2012.45174       -77.62258        16.67193
     2012.45722       -69.28703        16.65654
     2012.45995       -67.98975        16.68732
     2012.46269       -62.79947        16.60423
     2012.46543       -70.70319        16.61346
     2012.47091       -73.23063        16.39499
     2012.47364       -71.89936        16.63500
     2012.47638       -76.40708        16.40730
     2012.47912       -72.47280        16.36114
     2012.48186       -73.19852        16.46576
     2012.48459       -68.34224        16.36422
     2012.49007       -68.39369        16.93041
     2012.49281       -71.82841        16.44114
     2012.49509       -73.30068        20.69067
     2012.49739       -72.21099        30.41135
     2012.51274       -65.12891        25.30638
     2012.51471       -70.32318        16.22882
     2012.51745       -68.23590        16.29960
     2012.52019       -69.40162        16.64731
     2012.52292       -70.66534        16.44422
     2012.52566       -68.74307        16.79809
     2012.52840       -68.63979        16.42576
     2012.53114       -68.89851        16.97657
     2012.53388       -66.07923        16.61962
     2012.53661       -67.67995        16.71501
     2012.54209       -66.95140        16.53038
     2012.54483       -66.75512        16.38883
     2012.55030       -60.51356        16.50576
     2012.55304       -62.89428        16.43807
     2012.55852       -69.15672        16.30575
     2012.56125       -62.67845        16.36729
     2012.56399       -67.92817        16.67193
     2012.56675       -66.83196        16.41345
     2012.56947       -62.41661        16.95195
     2012.57768       -62.23178        16.51192
     2012.58042       -58.37650        16.50269
     2012.58590       -64.05094        16.52423
     2012.58863       -58.77566        16.94580
     2012.59137       -62.47238        16.63808
     2012.59411       -62.35710        16.38883
     2012.59685       -61.25683        16.38268
     2012.59958       -65.33555        16.81348
     2012.60232       -64.29927        17.32428
     2012.60780       -63.64271        17.33044
     2012.61054       -53.33443        16.87194
     2012.61327       -57.65116        16.30883
     2012.61601       -63.74588        16.92733
     2012.65982        17.49858        17.02272
     2012.66256        16.79586        16.73040
     2012.66529        20.67114        16.51500
     2012.66803        18.62141        16.33037
     2012.67077        21.97069        16.44114
     2012.67351        18.66197        16.45653
     2012.67624        18.96525        16.43191
     2012.67898        23.25153        16.95195
     2012.68172        24.07781        16.71193
     2012.68446        20.79608        16.68732
     2012.68720        23.90436        17.61353
     2012.68993        23.85864        16.53346
     2012.69267        11.64992        18.22588
     2012.69541        14.54720        17.40429
     2012.69815        20.22148        17.74585
     2012.70089        13.80876        17.17966
     2012.70362        13.13303        17.20427
     2012.70636        19.33731        16.57962
     2012.70910        19.88359        16.56423
     2012.71184        19.65987        16.65962
     2012.71457        24.10115        16.85964
     2012.71731        25.56943        16.63500
     2012.72005        25.65170        16.49346
     2012.72279        24.31598        16.23498
     2012.72553        24.10926        16.65962
     2012.72826        19.18954        16.51807
     2012.73100        21.34482        17.46583
     2012.73374        15.40110        16.92426
     2012.73648        22.90438        16.36422
     2012.73921        27.41465        16.87810
     2012.74195        26.70593        16.94887
     2012.74469        19.22921        16.80732
     2012.74743        24.71449        16.57346
     2012.75017        20.58477        16.99503
     2012.75290        26.45605        16.71193
     2012.75564        17.82532        16.61039
     2012.75838        21.11160        16.64731
     2012.76112        20.61288        16.33344
     2012.76386        20.53016        16.37345
     2012.76659        27.70644        16.61962
     2012.76933        23.96172        16.67808
     2012.77207        22.98300        16.87194
     2012.77481        20.29127        16.73347
     2012.77754        20.25955        16.57038
     2012.78028        24.45083        17.43814
     2012.78302        28.91512        17.33044
     2012.78576        15.13939        17.30274
     2012.78850        25.11267        16.85040
     2012.79199        17.93654        26.85110
     2012.79397        25.81622        17.02580
     2012.79671        20.58550        16.69655
     2012.79945        22.00278        17.21043
     2012.80219        20.66806        16.79809
     2012.80492        18.67534        16.67501
     2012.80766        17.13762        16.71501
     2012.81040        18.14489        16.83502
     2012.81314        14.53217        16.69962
     2012.81587         9.31645        16.72732
     2012.81861        10.08773        17.01657
     2012.82135        12.01201        16.81963
     2012.82409        27.50729        17.61661
     2012.82683        17.69856        16.87810
     2012.82956        15.17084        16.86579
     2012.83230        13.92212        16.63808
     2012.83504        13.16740        16.85964
     2012.83778        16.63068        16.95810
     2012.84052        15.71696        16.92118
     2012.84273        18.48292        21.34610
     2012.84685        17.01379        28.70046
     2012.84873        13.05379        17.43506
     2012.85147        17.19407        16.94580
     2012.85420        12.26135        17.10888
     2012.85694        14.79163        17.78278
     2012.85968        15.11891        17.01965
     2012.86242        14.05118        16.73040
     2012.86516        30.05546        16.93656
     2012.86789        10.30774        17.89355
     2012.87063         4.32802        16.73040
     2012.87337         3.41230        16.91195
     2012.87611        14.24858        16.67808
     2012.87885        15.82685        16.72424
     2012.88158        17.80413        16.44730
     2012.88432        12.15141        17.21658
     2012.88706        12.40669        17.82586
     2012.88980        17.29397        17.09657
     2012.89253        11.62425        16.57038
     2012.89527        11.28653        17.61353
     2012.89801        11.79980        16.54884
     2012.90075        11.96008        16.49038
     2012.90349        12.14736        16.68732
     2012.90622        19.14864        16.83810
     2012.90896        18.59892        16.94272
     2012.91172        12.94114        17.05349
     2012.91444         9.18347        16.64424
     2012.91718        16.56475        16.79194
     2012.91991        21.23803        16.68116
     2012.92265        11.81931        16.58269
     2012.92539         9.78559        16.45038
     2012.92813        13.18587        16.91502
     2012.93086         8.77615        16.99811
     2012.93360        11.22742        16.92426
     2012.93634        10.40770        17.30890
     2012.93908         3.89498        16.77963
     2012.94182         8.38326        16.38268
     2012.94456        23.30552        17.22274
     2012.94729        12.76282        17.19504
     2012.95002        10.66213        16.84425
     2012.95277        12.44137        16.54269
     2012.95551        16.58365        16.35191
     2012.95824        14.96993        16.37652
     2012.96098        16.49021        17.22274
     2012.96372        16.12649        17.23812
     2012.96646        15.74177        16.53038
     2012.96919        12.51304        17.04426
     2012.97193         9.04232        17.16427
     2012.97467        13.37960        16.67501
     2012.97741        14.01488        16.67501
     2012.98015         5.94416        16.35806
     2012.98290        13.70839        16.45653
     2012.98562        21.79171        16.68116
     2012.98836        23.00099        16.77963
     2012.99110        15.29627        16.53654
     2012.99384        14.23655        16.62577
     2012.99657        10.63683        16.55500
     2012.99931         8.03511        16.46576
     2013.00205        12.22139        16.49346
     2013.00479        11.94766        16.95810
     2013.00752         6.10594        16.37037
     2013.01026        12.94922        16.59192
     2013.01300         8.54950        16.73963
     2013.01574        13.66278        17.15812
     2013.01848        17.42306        16.99811
     2013.02121        16.00333        17.10581
     2013.02395         6.79161        17.48429
     2013.02669         6.32489        17.49045
     2013.02943         4.20617        16.87194
     2013.03216         3.31845        16.87502
     2013.03490         2.95573        16.58577
     2013.03764        -0.34799        16.70270
     2013.04038        -5.71972        16.61039
     2013.04313         1.02952        16.93349
     2013.04585         6.86884        17.00426
     2013.04859         8.63912        17.26889
     2013.05133         6.15240        16.59808
     2013.05407         7.80868        16.60423
     2013.05681        10.37095        16.76117
     2013.05954        11.19023        17.00118
     2013.06228         4.99351        17.95202
     2013.06502         9.66879        17.68431
     2013.06776         8.38707        16.93349
     2013.07049         8.31335        16.82886
     2013.07323        10.26863        16.77655
     2013.07597        11.57190        17.06580
     2013.07871        12.00818        17.01657
     2013.08145        12.01046        17.45045
     2013.08418        16.04274        17.13042
     2013.08692        -4.98097        16.63193
     2013.08967         3.97927        16.61654
     2013.09240         7.81357        16.51500
     2013.09512        17.75491        21.59843
     2013.09787        22.94113        29.54667
     2013.10061        17.46841        17.77047
     2013.10335        11.86969        17.54276
     2013.10609         4.93297        17.47814
     2013.10882         7.85725        16.94887
     2013.11156        -1.15148        16.69962
     2013.11430         6.40280        16.72116
     2013.11701         0.05916        16.89348
     2013.11977         9.54137        17.62892
     2013.12251         3.07064        16.72424
     2013.12525        -5.84708        17.40429
     2013.12799         8.99019        16.54577
     2013.13073         4.61447        16.63500
     2013.13347         7.01675        17.04734
     2013.13622        22.76697        21.87537
     2013.13894        23.50831        24.72480
     2013.14168        23.10059        24.36477
     2013.14442        25.87287        23.08161
     2013.14717         8.03008        27.15881
     2013.14909        -5.53003        37.67647
     2013.15351        11.36391        27.51268
     2013.15537        -8.89002        16.95195
     2013.15811        -3.43574        17.17043
     2013.16083        -3.69143        16.63500
     2013.16358        -0.42719        17.52737
     2013.16632        -1.96691        16.42576
     2013.16906         5.56337        16.57346
     2013.17180         7.85265        17.36121
     2013.17453         7.49593        16.87502
     2013.17727         3.62421        17.08427
     2013.18001        -1.17451        16.89348
     2013.18274         2.05978        16.53346
     2013.18548         1.06204        16.46268
     2013.18822         0.49532        16.59192
     2013.19096         2.65860        16.54577
     2013.19370         7.27288        16.62577
     2013.19643         7.82419        17.85663
     2013.19917         3.59043        17.43814
     2013.20191         6.78571        17.17043
     2013.20465        12.20299        16.77348
     2013.20739        11.27427        17.38275
     2013.21013         8.50455        16.91502
     2013.21287         5.70181        16.66578
     2013.21560         1.19811        17.80124
     2013.21834        17.02438        22.55849
     2013.22108         4.87366        16.66578
     2013.22381         5.30194        16.58577
     2013.22655         4.90622        16.97041
     2013.22929         4.75750        17.01965
     2013.23203         3.63078        16.42576
     2013.23475         6.68510        16.53654
     2013.23750         5.91333        17.20120
     2013.24024        -4.07739        17.27813
     2013.24298         6.04389        16.74270
     2013.24572        13.14117        16.62577
     2013.24846        14.39345        16.71193
     2013.25119         8.60672        16.98888
     2013.25393         4.60300        17.42275
     2013.25667         4.81028        17.96740
     2013.25939        11.58761        17.25966
     2013.26214        11.41784        16.74886
     2013.26488        13.34312        16.74270
     2013.26762         8.25040        16.79809
     2013.27036         4.18267        16.95195
     2013.27310         7.56895        17.71816
     2013.27585         5.21917        17.33044
     2013.27857        11.28151        17.75508
     2013.28131        11.85079        17.01042
     2013.28405        13.03907        16.71809
     2013.28679         7.13534        17.33044
     2013.28952         2.78062        16.62577
     2013.29226         7.52790        17.32428
     2013.29500         4.10718        17.65354
     2013.29776         3.22440        17.31197
     2013.30047        11.54874        17.38583
     2013.30321        -2.67998        16.81963
     2013.30595         2.60229        16.89041
     2013.30869         2.99757        17.19197
     2013.31143         2.70685        16.81040
     2013.31416        12.61513        16.78271
     2013.31690         6.84441        17.35505
     2013.31964         9.30369        16.97964
     2013.32238         3.87096        16.86271
     2013.32512         8.56424        17.78278
     2013.32785         6.16352        16.77655
     2013.33059         2.33680        16.65039
     2013.33880         9.89564        16.63193
     2013.34154        12.83491        17.29659
     2013.34428         9.75419        16.70270
     2013.34702        10.90247        16.73347
     2013.34976         8.39975        16.68116
     2013.35249         4.45903        16.53961
     2013.35523         6.55831        17.49968
     2013.35797         4.70858        16.61654
     2013.36071         8.36386        17.01965
     2013.36344        15.07714        17.03811
     2013.36618         6.85742        16.83502
     2013.36892        10.15670        16.81963
     2013.37166         2.08898        16.90272
     2013.37441         3.61921        16.98888
     2013.37713         3.90353        17.03811
     2013.37987         0.93281        16.98580
     2013.38261         4.39109        17.89048
     2013.38533         5.05741        16.91195
     2013.38809         1.87265        17.81355
     2013.39082         6.05093        17.31197
     2013.39356        10.56520        16.80425
     2013.39630         9.38548        16.79809
     2013.39904         9.40776        16.62577
     2013.40177         9.27804        17.00734
     2013.40451         3.79732        50.33273
     2013.40725         7.86760        16.71501
     2013.40999        10.94788        16.82271
     2013.41273         7.26315        16.58885
     2013.41546         5.81643        17.34275
     2013.41820         5.01171        16.57962
     2013.42093        12.96803        17.11811
     2013.42368         7.15127        17.37352
     2013.42642        17.22255        17.03503
     2013.42915        13.88782        16.95195
     2013.43189         6.27610        17.27505
     2013.43463        14.38638        16.92733
     2013.43737         6.35166        16.95810
     2013.44010        11.75594        16.98272
     2013.44284        10.44322        17.00118
     2013.44559         9.18247        17.16735
     2013.44832         1.54777        16.82271
     2013.45105         5.06007        17.77662
     2013.45379         8.95733        17.02888
     2013.45653        10.33061        16.72116
     2013.45927        10.00589        17.12427
     2013.46201        11.67717        17.05657
     2013.46475         8.70044        17.55199
     2013.46748         7.46072        16.82886
     2013.47022         7.78300        16.94887
     2013.47296        11.17428        16.69347
     2013.47570        10.65956        16.59500
     2013.47843         8.29384        16.57038
     2013.48117         9.96512        16.74578
     2013.48391        10.23639        16.67193
     2013.48665         5.24867        16.84733
     2013.48939         7.03395        16.55192
     2013.49212        16.57123        17.01042
     2013.49486        11.38851        16.66270
     2013.49760        19.14479        16.84117
     2013.50034        20.20806        17.33967
     2013.50308        14.51434        17.26582
     2013.50581        14.87762        16.92426
     2013.50855        11.59190        16.49961
     2013.51129        14.88518        16.53346
     2013.51403        17.27346        16.96118
     2013.51676        14.15074        16.69962
     2013.51950        15.55801        17.09965
     2013.52224        24.64729        17.37352
     2013.52498        14.53457        16.97657
     2013.52772        12.68885        16.54884
     2013.53045         9.35613        17.00426
     2013.53319        12.91141        16.98580
     2013.53593        20.28068        16.81656
     2013.53867        12.53196        16.68116
     2013.54141        18.29124        17.01042
     2013.54414        10.81552        16.77655
     2013.54688         7.45180        16.52423
     2013.54962        18.79608        16.87502
     2013.55236        16.29336        16.56731
     2013.55509        12.33963        17.54584
     2013.55783        15.21391        16.76117
     2013.56057        14.13719        16.96734
     2013.56331        15.31547        17.09042
     2013.56605        12.70375        16.75501
     2013.56878        18.43903        16.75809
     2013.57152        18.46130        16.57038
     2013.57424        18.84464        16.66885
     2013.57700        15.77286        17.17658
     2013.57974        14.83114        16.94580
     2013.58247        20.66942        16.63500
     2013.58521        18.05870        16.59500
     2013.58795        12.51298        16.86887
     2013.59069        15.23925        16.62270
     2013.59342        19.45353        16.61039
     2013.59616        19.63181        16.82271
     2013.59890        13.88609        17.48737
     2013.60163        18.69338        16.65347
     2013.60438        17.74265        17.04734
     2013.60711        21.96192        17.24735
     2013.60985        20.54820        16.73347
     2013.61259        15.74248        16.58269
     2013.61533        15.99576        17.49660
     2013.61807        21.30804        17.73354
     2013.62081        21.88429        17.19197
     2013.62354        18.96060        16.59192
     2013.62628        19.26387        16.74886
     2013.62902        12.73615        16.53654
     2013.63175        21.66943        16.94272
     2013.63449        16.56471        17.07503
     2013.63723        20.44699        16.86271
     2013.63997        25.87527        17.15504
     2013.64272        22.22551        16.85656
     2013.64545        21.42079        16.77655
     2013.64818        18.43510        16.61039
     2013.65092        19.29138        16.86271
     2013.65366        26.15566        17.01657
     2013.65639        24.14094        17.17043
     2013.65913        22.02621        18.38282
     2013.66187        31.27749        17.74893
     2013.66461        10.66777        16.63808
     2013.66735        26.22805        16.85964
     2013.67007        23.36136        16.96734
     2013.67282        20.12261        17.54584
     2013.67556        20.12289        17.75508
     2013.67830        19.59916        17.29043
     2013.68104        20.91044        16.81963
     2013.68377        15.42772        17.37659
     2013.68651        18.43800        16.56115
     2013.68925        18.81428        16.97964
     2013.69199        17.98356        16.85656
     2013.69472        21.07083        17.37044
     2013.69746        15.41811        16.45653
     2013.70016        22.39651        17.06273
     2013.70916        13.33685        26.23567
     2013.71115        20.26751        17.14581
     2013.71389        11.03778        16.96734
     2013.71663        21.97706        17.12119
     2013.71938        26.68731        17.46891
     2013.72210        24.13462        16.62577
     2013.72484        23.59790        16.84117
     2013.72757        27.11921        17.64123
     2013.73032        19.05145        16.86271
     2013.73305        19.51973        16.74886
     2013.73579        17.92801        17.49045
     2013.73853        19.57829        16.62270
     2013.74127        19.19157        16.67808
     2013.74401        20.61185        17.57969
     2013.74674        23.75413        17.98587
     2013.74948        19.70440        17.22581
     2013.75222        12.37968        16.67808
     2013.75496        12.97496        16.73347
     2013.75770         7.41024        16.64116
     2013.76043        12.47652        16.65039
     2013.76317        14.26180        16.94272
     2013.76591        24.75507        17.50891
     2013.76865        18.92535        17.26889
     2013.77139        13.57560        17.45660
     2013.77412        18.61391        17.07196
     2013.77686        10.87519        17.28120
     2013.77960        13.64747        16.94580
     2013.78234        10.05375        16.57962
     2013.78507        11.40802        16.65654
     2013.78781         6.61330        17.06580
     2013.79055        12.99858        17.19197
     2013.79329        11.93684        16.58269
     2013.79603        16.11414        16.65654
     2013.79876        13.82942        16.63193
     2013.80150        18.04469        16.91810
     2013.80410        15.92443        19.79215
     2013.80782        14.75457       180.16947
     2013.81519         4.82509        31.36218
     2013.81793         9.39435        16.73347
     2013.82067        17.35864        17.10273
     2013.82340        18.99392        17.65969
     2013.82613        17.58325        17.05657
     2013.82888        21.62748        16.88425
     2013.83162        15.95576        17.20120
     2013.83436        15.89304        17.16735
     2013.83709        14.91031        16.94887
     2013.83983        15.89459        16.88733
     2013.84258        13.50483        16.97349
     2013.84530        13.22017        17.47199
     2013.84804         6.81743        16.67501
     2013.85078         9.86472        16.99503
     2013.85352        24.32199        16.63808
     2013.85626        12.13026        16.80425
     2013.85900        11.51154        16.74578
     2013.86173        14.05382        17.13658
     2013.86447        10.02110        17.05965
     2013.86721        13.34638        17.15196
     2013.86995        13.26066        17.35198
     2013.87269        14.24693        16.88425
     2013.87542        14.00621        17.09965
     2013.87816        15.68449        17.34890
     2013.88090        18.56677        17.44429
     2013.88364        20.82305        17.67508
     2013.88637        13.82233        16.83502
     2013.88911         8.50961        17.69662
     2013.89185         4.91587        16.72732
     2013.89459         8.67716        16.84733
     2013.89733        14.99444        17.06888
     2013.90006        14.08972        17.50276
     2013.90280        11.42700        17.06888
     2013.90554        14.23628        17.09042
     2013.90828        15.64555        17.23197
     2013.91102         7.98983        16.77655
     2013.91375         6.23111        16.59192
     2013.91649        13.93039        16.75501
     2013.91923        14.94067        16.91502
     2013.92197         9.64195        17.45968
     2013.92470        10.10023        16.58577
     2013.92744        11.44450        17.17043
     2013.93018        13.55178        17.25966
     2013.93292        11.74906        16.51500
     2013.93566         9.33934        16.53654
     2013.93839         8.96062        17.77355
     2013.94112         7.24394        17.39198
     2013.94387        11.32717        17.24120
     2013.94661        15.27645        17.51507
     2013.94935        14.13873        16.63808
     2013.95208        13.49401        16.83194
     2013.95481        11.88533        17.03503
     2013.95756        14.21357        16.85656
     2013.96030        15.84985        17.66892
     2013.96303         8.42012        16.92426
     2013.96577        10.38640        16.60423
     2013.96851        12.48168        16.97657
     2013.97125        16.76796        17.48429
     2013.97399        14.74224        16.65039
     2013.97672         5.45852        17.45352
     2013.97946         5.12179        16.89964
     2013.98219         9.39809        17.22581
     2013.98494         7.63735        16.79809
     2013.98769         2.22358        16.91195
     2013.99041         2.87591        16.84117
     2013.99315         4.77119        16.92118
     2013.99589         6.29747        16.72116
     2013.99863         4.96374        16.87194
     2014.00136        -4.86198        17.47506
     2014.00410         5.04232        17.20735
     2014.00684        10.67858        17.70585
     2014.00958        11.85186        16.69039
     2014.01232         7.51514        17.12735
     2014.01505        12.79641        17.08119
     2014.01779         9.41269        17.69046
     2014.02053         9.32097        17.15812
     2014.02327        14.06225        17.96740
     2014.02600        14.26353        16.88118
     2014.02874        15.00581        17.00734
     2014.03148        13.88108        17.08734
     2014.03421        12.34638        17.35813
     2014.03695        12.08766        16.86579
     2014.03969         7.93692        16.40422
     2014.04243         9.79020        17.50583
     2014.04517        14.84848        17.61969
     2014.04791        15.94276        16.92426
     2014.05065         6.48003        16.65039
     2014.05338        10.00331        16.54577
     2014.05612        10.14659        16.78578
     2014.05886         4.74987        17.00118
     2014.06160        14.88315        16.98272
     2014.06433        15.46943        17.13042
     2014.06707        12.01070        17.15812
     2014.06981        12.35198        17.86278
     2014.07255        11.81126        16.68732
     2014.07529        13.52354        16.84425
     2014.07802        14.57782        17.22889
     2014.08076        13.70911        16.84117
     2014.08350        11.31038        16.84117
     2014.08624         7.71765        17.06273
     2014.08899         7.04089        17.23505
     2014.09171         6.88421        17.54891
     2014.09445         7.83449        16.69655
     2014.09719        10.16577        18.81669
     2014.09992        15.56508        17.83201
     2014.10266        12.25432        17.21351
     2014.10540        16.98260        17.25966
     2014.10814        12.42588        16.84733
     2014.11088        19.54516        17.45660
     2014.11361        18.09747        17.09042
     2014.11635        17.93272        17.44737
     2014.11905        17.83713        17.49660
     2014.12196        17.90185        19.85677
     2014.12455        11.51160        16.77348
     2014.12731        17.51183        17.01657
     2014.13004        17.78311        17.04734
     2014.13278        10.81739        18.45975
     2014.13552        12.89567        17.54891
     2014.14099         7.21722        16.74578
     2014.14373         7.73450        16.83502
     2014.14647         6.44778        16.74270
     2014.14921        12.03206        16.82886
     2014.15195         8.99534        17.30890
     2014.15468        11.31362        17.75508
     2014.15742        13.41889        16.99195
     2014.16016        14.03217        17.69662
     2014.16290        10.00345        16.99503
     2014.16563         2.21474        16.63808
     2014.16838         5.35099        17.28120
     2014.17111         9.94929        18.12126
     2014.17385        17.10356        17.70585
     2014.17659        13.53184        18.02279
     2014.17932        13.64912        17.70893
     2014.18206         7.63240        17.42891
     2014.18479        12.84572        16.92733
     2014.18754         5.48896        16.99811
     2014.19028         9.53824        19.22288
     2014.19301        11.98851        17.10888
     2014.19575        11.80279        17.24428
     2014.19849        11.93407        17.33044
     2014.20123         9.12535        17.22889
     2014.20397         7.12063        17.01965
     2014.20670         9.72891        16.98888
     2014.20944        10.71018        17.19812
     2014.21218         7.41246        17.42891
     2014.21492        11.97874        17.69046
     2014.21765         9.59802        16.90272
     2014.22039         9.14130        16.95810
     2014.22313         7.19958        16.98272
     2014.22587        10.34486        16.82886
     2014.22861        12.65313        16.93964
     2014.23134        12.51641        16.90887
     2014.23408         9.98869        16.73040
     2014.23682         9.54797        17.35505
     2014.23956         6.27925        17.17043
     2014.24229         8.80354        16.69039
     2014.24503         5.32380        16.75194
     2014.24760         8.22363        20.13986
     2014.25051         7.72736        18.09664
     2014.25325         3.35164        16.91810
     2014.25598        12.19192        17.14889
     2014.25872         7.45920        17.11504
     2014.26146         7.90948        17.31813
     2014.26420         1.85175        16.95810
     2014.26694        16.50303        17.91509
     2014.26967         0.40731        16.92733
     2014.27241         2.15659        17.57353
     2014.27515         5.65387        18.13357
     2014.27789        10.10615        17.50276
     2014.28062         9.79242        17.96433
     2014.28336         8.21770        16.94272
     2014.28610        13.16698        17.55507
     2014.28884         8.12526        18.45975
     2014.29158        -0.64646        17.08427
     2014.29431        10.53582        16.87810
     2014.29705         9.63110        17.35505
     2014.29978         2.14442        16.83810
     2014.30253         3.00065        16.75501
     2014.30527         7.86593        16.89348
     2014.30800         7.10621        18.21358
     2014.31074         3.83249        16.99195
     2014.31348         8.75277        16.92426
     2014.31624         4.40598        16.80117
     2014.31895         6.57732        16.68424
     2014.32169        -4.69940        17.46891
     2014.32443         0.85288        17.82278
     2014.32717         0.98816        16.98580
     2014.32991         5.59044        17.06273
     2014.33264         8.35572        17.34275
     2014.33538         6.57899        16.90887
     2014.33812         4.74327        17.25966
     2014.34086         3.07355        17.50276
     2014.34360         6.66783        17.51814
     2014.34633         0.15111        18.49975
     2014.34907         3.85439        17.86894
     2014.35181         4.53266        17.93048
     2014.35455         2.81694        16.86579
     2014.35728         0.39722        16.70578
     2014.36002        -0.34350        17.04734
     2014.36276         3.49078        17.15504
     2014.36550         7.39306        17.01657
     2014.36824         4.14534        17.26582
     2014.37097         6.34961        17.50276
     2014.37371         7.78089        16.66578
     2014.37645         5.76517        16.68732
     2014.37919        10.44045        17.21658
     2014.38193        -1.07527        17.61969
     2014.38466         3.26101        17.34890
     2014.38740         9.51828        17.28120
     2014.39014         9.76756        17.55507
     2014.39288         4.13384        16.92426
     2014.39561         6.14412        17.02272
     2014.39835        11.39440        17.60738
     2014.40109         2.33768        17.11504
     2014.40383         4.53695        17.05042
     2014.40657         4.70123        17.56738
     2014.40930         5.51951        17.01657
     2014.41204         7.25679        16.77040
     2014.41478         3.09907        17.54584
     2014.41752         9.62335        17.81355
     2014.42026        11.26163        16.77348
     2014.42299         2.46790        16.69962
     2014.42573         0.50618        17.04119
     2014.42847         6.65846        17.45352
     2014.43121         4.39874        16.93964
     2014.43394        12.68902        16.99195
     2014.43668         3.11630        19.48443
     2014.43942         9.68357        17.23812
     2014.44216         6.27085        16.83502
     2014.44490        16.47113        17.33967
     2014.44763         8.85441        17.57661
     2014.45037         8.31469        16.84425
     2014.45311         6.55597        17.20735
     2014.45585         7.43525        16.99503
     2014.45859         4.90052        16.73963
     2014.46132        10.78980        16.77655
     2014.46406         4.54808        17.09965
     2014.46680         6.81134        17.85663
     2014.46954         7.47364        16.73040
     2014.47227        10.90792        16.74270
     2014.47501         9.91119        16.96734
     2014.47775         9.77947        16.98272
     2014.48049        12.85675        17.53353
     2014.48323        13.08703        16.98272
     2014.48596        12.17931        17.25043
     2014.48870        19.73759        17.24120
     2014.49144        13.99787        16.43499
     2014.49418         5.54814        16.62270
     2014.49692        11.17042        16.45345
     2014.49965        10.78970        17.44121
     2014.50239         3.68098        16.68732
     2014.50513         7.02526        17.13658
     2014.50787        14.03854        16.81040
     2014.51060         2.49781        16.98272
     2014.51334        12.62409        16.69655
     2014.51608        19.83237        16.64116
     2014.51882        10.69665        20.18294
     2014.52156        16.91093        26.99573
     2014.52429        17.72521        17.17350
     2014.52703        14.88649        16.71501
     2014.52977        12.37676        16.81348
     2014.53251        16.95904        17.12427
     2014.53525        13.21532        16.57962
     2014.53798        18.26760        16.66885
     2014.54072        15.80488        16.97349
     2014.54346        16.71416        16.46268
     2014.54620        28.61743        17.87509
     2014.54893        13.97271        16.48422
     2014.55167        15.94999        16.87810
     2014.55441         9.23527        17.18581
     2014.55715         9.24355        17.61046
     2014.55989        10.12783        17.20427
     2014.56261         8.47415        17.58276
     2014.56536         9.90138        16.80732
     2014.56810        12.02066        16.69962
     2014.57084        10.70294        16.87810
     2014.57358        11.10220        16.78271
     2014.57631        11.83450        16.98888
     2014.57905         8.94278        16.99811
     2014.58179        13.33205        16.82579
     2014.58453         7.77033        17.33659
     2014.58726        11.30461        17.38275
     2014.59000        18.78989        17.37044
     2014.59274        19.53317        17.38583
     2014.59548        16.07145        17.41660
     2014.59822        14.58973        18.11818
     2014.60095        13.13500        17.80124
     2014.60369        18.58028        17.08427
     2014.60643         7.71756        16.99503
     2014.60917        12.92784        17.01965
     2014.61190        18.95712        17.35505
     2014.61464        14.64340        17.40429
     2014.61738        16.21867        17.84740
     2014.62012        14.20495        18.00125
     2014.62286        16.80123        16.94272
     2014.62559        14.45451        17.02272
     2014.62833        14.66379        16.95810
     2014.63107        20.49007        17.30274
     2014.63383        16.22228        17.60738
     2014.63655        17.24462        17.26582
     2014.63928        10.58190        17.24735
     2014.64202        13.78118        16.80732
     2014.64476        11.72746        17.09350
     2014.64752        15.30368        17.33351
     2014.65025        13.46696        17.07811
     2014.65297        16.64629        17.82893
     2014.65571        18.76257        19.19826
     2014.65845        18.71785        17.05965
     2014.66119        16.60013        16.88118
     2014.66392        18.24241        16.59808
     2014.66666        17.42369        16.84425
     2014.66940        18.93297        18.33666
     2014.67214        19.01924        17.38583
     2014.67480         8.71775        21.96768
     2014.67766        18.88265        23.25085
     2014.68035        21.06608        17.44121
     2014.68309         9.39236        17.55507
     2014.68583        17.02164        19.28750
     2014.68856        12.09891        19.54290
     2014.69130        16.54619        18.21050
     2014.69404        15.28547        17.94586
     2014.69678         9.21175        17.42275
     2014.69952        18.80703        17.17043
     2014.70225        15.85431        16.90272
     2014.70499        18.67759        16.90887
     2014.70773        18.66586        17.93663
     2014.71047        19.41414        17.71508
     2014.71321        17.32239        17.26889
     2014.71594        13.13670        17.58892
     2014.71868        15.56898        16.73040
     2014.72142        18.21626        16.91502
     2014.72416        20.02553        17.32428
     2014.72689        14.11681        17.26889
     2014.72963        19.84409        18.18280
     2014.73237        20.35937        18.50283
     2014.73512        10.00460        17.32121
     2014.73785        11.84693        16.86887
     2014.74058        14.58521        16.91195
     2014.74307        29.73030        20.43527
     2014.74613        28.15555        17.49968
     2014.74880        12.04704        16.96118
     2014.75154        16.66232        17.71508
     2014.75427        13.67260        17.12119
     2014.75701        26.50088        17.54584
     2014.75977        19.52408        17.02580
     2014.76249        17.47943        17.57353
     2014.76522        13.54471        17.66892
     2014.76798        15.66293        17.55199
     2014.77070         9.95427        16.78271
     2014.77344        15.36355        17.74585
     2014.77618        28.42283        18.55514
     2014.77891        20.16510        16.88118
     2014.78165        22.53538        17.20120
     2014.78439        17.22366        16.92426
     2014.78713        20.88894        16.87194
     2014.78987        16.66322        17.02580
     2014.79260        17.43950        17.53661
     2014.80141        17.72845        25.46023
     2014.80355        14.29861        20.44142
     2014.80629        12.66989        19.61675
     2014.80900        18.61427        19.48136
     2014.81193        18.75691        18.32743
     2014.81451        16.24372        17.63815
     2014.81724        17.47400        19.08748
     2014.81998        12.87428        19.55521
     2014.82272        26.94956        19.84754
     2014.82546        16.86484        22.47541
     2014.82820        14.61312        24.97712
     2014.83094        24.81538        47.63716
     2014.83367        12.85667        30.32211
     2014.83641         8.64795        18.28127
     2014.83915        13.50823        22.01692
     2014.84188         8.42551        26.87879
     2014.84462        13.62479        17.79509
     2014.84738       -10.11200        35.52555
     2014.85010        10.69534        19.83830
     2014.85284        11.95262        17.02272
     2014.85557        13.59490        17.41967
     2014.85831        16.83818        17.77047
     2014.86105         3.94446        18.00741
     2014.86379         5.55574        19.82907
     2014.86653         7.38201        17.16119
     2014.86926         9.04729        17.82893
     2014.87200         8.99557        17.00118
     2014.87474         3.49785        18.66591
     2014.87748         5.65813        17.93356
     2014.88021         8.73541        19.49674
     2014.88295        13.49668        18.42590
     2014.88571        10.10590        17.63815
     2014.88845        16.45518        19.13979
     2014.89117        13.87252        18.23512
     2014.89390        12.20780        18.22281
     2014.89664        10.28308        18.24127
     2014.89938         5.83336        18.21665
     2014.90212         1.76463        18.28435
     2014.90485         4.35091        18.17050
     2014.90752        43.36142        39.48890
     2014.91033         5.72247        30.29442
     2014.91307        12.28675        17.36429
     2014.91581         9.84703        17.34582
     2014.91854        11.41730        17.15196
     2014.92128         9.43258        18.41667
     2014.92402         8.59286        17.47506
     2014.92676        13.56514        17.32736
     2014.92949         3.19443        16.91810
     2014.93223         2.81070        17.48122
     2014.93497         6.10298        17.75201
     2014.93771        -9.30175        19.80446
     2014.94045        -2.40847        18.97055
     2014.94318         7.04781        18.15819
     2014.94592         5.14209        18.49360
     2014.94866        -4.32363        17.19812
     2014.95140         5.52065        16.82271
     2014.95414         5.73992        17.82893
     2014.95686        10.64023        17.45968
     2014.95955         8.80266        17.63507
     2014.96235        12.47376        20.62297
     2014.96509         9.91304        18.08126
     2014.96783         3.66432        17.41044
     2014.97057         8.29958        17.34275
     2014.97330         2.01687        16.73347
     2014.97604        -2.77785        18.71207
     2014.97878         6.05643        17.11811
     2014.98151         9.11071        17.51814
     2014.98425         3.18899        16.98272
     2014.98699        13.24527        16.81963
     2014.98973         3.16854        17.08734
     2014.99247        -1.60418        22.60157
     2014.99520         0.91210        16.73655
     2014.99794        11.53838        18.04433
     2015.00342         8.36294        17.72739
     2015.00616         0.38922        17.89048
     2015.00889         6.20749        17.20427
     2015.01163         7.23777        18.47206
     2015.01437         2.99205        17.56122
     2015.01710         2.77534        17.80124
     2015.01984        14.06061        22.54619
     2015.02258        10.43589        18.68130
     2015.02532        10.64916        17.14273
     2015.02806         7.36044        17.73047
     2015.03080         5.84072        17.20120
     2015.03355        -1.36105        17.38275
     2015.03627         8.69728        19.35212
     2015.03901        16.44756        17.48429
     2015.04175        18.31584        19.14287
     2015.04449         4.24511        16.74578
     2015.04722         7.87239        17.57353
     2015.04996         4.45267        16.63500
     2015.05270        -2.63705        19.47520
     2015.05544         2.06823        17.82586
     2015.05817         9.15451        16.93656
     2015.06092         3.80375        16.86579
     2015.06365        13.54706        17.52122
     2015.06639        10.61334        16.66885
     2015.06913        11.78062        16.93964
     2015.07186         4.79490        18.87516
     2015.07460         2.51118        16.64731
     2015.07734        -1.39554        16.57346
     2015.08008         1.42673        17.04119
     2015.08282         8.77901        16.42576
     2015.08555         9.60329        16.72732
     2015.08829         9.40557        16.67501
     2015.09102         4.09286        20.04755
     2015.09377         0.78713        31.30372
     2015.09652         2.11236        19.24749
     2015.09919         4.17883        26.27568
     2015.10198        13.44195        16.93349
     2015.10472         8.84124        17.58584
     2015.10746         9.20152        16.53961
     2015.11019         1.60580        16.95503
     2015.11293         7.33508        17.57661
     2015.11567         5.41135        17.51507
     2015.11841         2.74763        17.02580
     2015.12115         2.80391        16.86271
     2015.12388         5.99119        16.55192
     2015.12662         6.87147        17.13042
     2015.12936         8.31275        16.73347
     2015.13210        11.27402        17.24735
     2015.13483         5.17030        17.47506
     2015.13757         6.40358        17.11811
     2015.14031         3.63686        16.71809
     2015.14305         6.17814        16.70578
     2015.14579         4.19642        16.46884
     2015.14852         5.71170        16.66885
     2015.15126         1.20697        17.07196
     2015.15400         5.23525        16.62270
     2015.15674         7.29253        16.57654
     2015.15948        10.66681        16.90272
     2015.16223        11.00004        17.00734
     2015.16495         7.59637        16.44114
     2015.16769         6.69463        16.45345
     2015.17043         6.52692        16.77963
     2015.17316         6.21420        17.16119
     2015.17590         2.21248        17.97971
     2015.17864         5.79976        16.46576
     2015.18136        10.39610        16.61654
     2015.18412        13.57331        16.45038
     2015.18685        13.62359        16.58885
     2015.18959        17.16087        16.87502
     2015.19233        10.12515        17.64738
     2015.19505         9.14047        17.15504
     2015.19780         9.30471        17.43198
     2015.20054         6.77199        16.45961
     2015.20328         2.78126        16.44422
     2015.20602         5.51954        17.57045
     2015.20876         3.84182        17.45968
     2015.21149         1.56310        16.82886
     2015.21423         3.37938        17.84124
     2015.21697         8.97466        16.65654
     2015.21971         3.58493        17.37967
     2015.22245         4.45921        17.16119
     2015.22518        10.64149        16.93041
     2015.22792         4.26177        16.81040
     2015.23066         4.82205        18.63514
     2015.23340         2.18033        17.97971
     2015.23613         9.68361        17.69662
     2015.23887        -4.68712        17.55815
     2015.24161         5.40516        18.58283
     2015.24436         4.39141        17.68739
     2015.24709         7.90972        17.49968
     2015.24983         0.42798        16.61039
     2015.25256         7.70028        16.71193
     2015.25530         5.47255        17.30274
     2015.25804         5.19383        16.86579
     2015.26078        11.60311        16.64424
     2015.26351         7.63539        17.01042
     2015.26625         8.23967        16.75194
     2015.26899         5.26095        17.18889
     2015.27173        10.98623        16.96426
     2015.27446        11.20550        18.62899
     2015.27720         9.63378        17.05657
     2015.27994         4.16406        18.16434
     2015.28268         7.25432        16.97349
     2015.28542         1.62962        17.14581
     2015.28815         3.03090        17.19504
     2015.29089         3.76317        16.61039
     2015.29363         7.13545        16.62577
     2015.29637         6.69673        17.42275
     2015.29911        10.20101        17.37967
     2015.30184        14.24529        17.17350
     2015.30457         9.25760        16.97657
     2015.30732         6.14785        16.21344
     2015.31006         7.47612        17.08119
     2015.31279         2.29840        16.23805
     2015.31553        -0.48032        16.33037
     2015.31827         3.29196        16.59192
     2015.32100         3.55727        17.89355
     2015.32375        -0.85948        18.00125
     2015.32648         4.68979        17.14273
     2015.32922         0.15507        16.71193
     2015.33196         4.99635        16.28113
     2015.33470         5.28163        16.22267
     2015.33744         6.25491        16.60116
     2015.34017         4.27219        16.39499
     2015.34291        -1.94753        16.50269
     2015.34565         5.94574        16.46884
     2015.34839         6.33302        19.09364
     2015.35112         2.26430        16.76117
     2015.35352         9.59767        19.40135
     2015.35740        -0.17669        25.01097
     2015.35936         0.90808        16.59808
     2015.36208         3.64441        16.44730
     2015.36482         3.24268        16.25652
     2015.36755         7.27997        16.56423
     2015.37029         4.47325        16.08112
     2015.37303         2.59253        16.91810
     2015.37577         7.03881        16.45961
     2015.37850        -4.29691        17.29351
     2015.38124         5.86836        16.04419
     2015.38398         0.40264        16.32729
     2015.38672         2.61492        16.51500
     2015.38945         2.66620        16.32729
     2015.39221         5.60643        17.27813
     2015.39493         7.09676        21.43534
     2015.39767        -2.58497        16.82271
     2015.40041         6.58131        18.37974
     2015.40314         3.67959        16.54884
     2015.40588         4.80287        16.45345
     2015.40862         5.95315        16.39806
     2015.41136         7.67443        15.95803
     2015.41410         6.01971        16.63193
     2015.41683         6.50898        16.56115
     2015.41957         5.62726        16.39499
     2015.42231         5.12254        16.33652
     2015.42505         6.49782        17.06273
     2015.42778        13.13510        16.48115
     2015.43052        11.10838        17.04734
     2015.43326         9.13665        16.67808
     2015.43600         6.97393        16.97657
     2015.43874        11.55121        17.16735
     2015.44148        13.40247        17.67815
     2015.44422         4.55275        17.33351
     2015.44695        10.10705        16.84425
     2015.44969         8.58333        16.24421
     2015.45243        11.53460        17.10888
     2015.45516        10.45588        17.39198
     2015.45790        10.65316        17.58584
     2015.46064         9.56444        22.51541
     2015.46338        11.82672        16.86887
     2015.46611        12.58000        16.78271
     2015.46887        16.00923        16.38268
     2015.47159        13.20755        16.81348
     2015.47434        12.03479        18.51514
     2015.47707         5.44011        18.01972
     2015.47980        15.02739        16.59192
     2015.48254        13.78667        16.46884
     2015.48528         8.34995        16.35498
     2015.48802        13.44022        16.60116
     2015.49076         9.85150        17.01042
     2015.49350        10.69877        16.88425
     2015.49623        10.08706        16.74578
     2015.49897         7.32634        17.38890
     2015.50171        15.55362        17.15196
     2015.50444        18.36489        16.93964
     2015.50718         4.03217        16.20728
     2015.50992        15.26644        16.87810
     2015.51266        11.93573        17.33967
     2015.51540        11.05601        16.67501
     2015.51813        13.02529        16.29344
     2015.52087        17.02957        17.30890
     2015.52360        11.05386        17.16735
     2015.52635        10.70212        16.59808
     2015.52908        21.92840        16.86579
     2015.53182        17.15568        16.37345
     2015.53456        12.20296        16.56115
     2015.53730         6.04324        16.65347
     2015.54004        16.02151        16.65347
     2015.54277        12.26579        16.79194
     2015.54551        15.42007        17.11811
     2015.54825        18.75935        17.73662
     2015.55099        15.39263        16.90579
     2015.55373        14.80791        16.89656
     2015.55646        19.46918        16.65654
     2015.55886        24.30555        19.15826
     2015.56293         8.27759        37.01796
     2015.56456        15.50138        19.98601
     2015.56747         1.09512        38.50422
     2015.57015        18.28158        17.52737
     2015.57289        19.21186        17.71508
     2015.57563        19.63613        17.05965
     2015.57837         6.35041        29.81746
     2015.58112        16.23663        17.01657
     2015.58384        16.67397        16.65654
     2015.58658        20.46025        17.54891
     2015.58932        21.58353        17.14273
     2015.59206        15.72280        17.13042
     2015.59479        16.01208        16.62270
     2015.59753        19.11136        16.73040
     2015.60027        18.39964        16.95503
     2015.60301        22.89992        17.97971
     2015.60574        18.27220        16.82579
     2015.60848        19.86848        17.41660
     2015.61122        16.46975        17.74277
     2015.61395        21.36005        17.05657
     2015.61943        16.49259        16.64731
     2015.62217        16.83787        16.41345
     2015.62491        23.10615        16.59192
     2015.62765        12.86042        17.86278
     2015.63039        25.58170        26.90649
     2015.63312        19.75998        16.94272
     2015.63586        17.83826        16.82579
     2015.63860        19.07854        16.13343
     2015.64134        16.29282        16.29036
     2015.64407        16.72810        16.45345
     2015.64681        13.71337        16.76732
     2015.64955        16.75565        16.63500
     2015.65229        12.04493        16.89964
     2015.65503        22.54821        16.59192
     2015.65776        17.91649        18.23819
     2015.66050        20.46077        17.04734
     2015.66324         5.16304        17.13350
     2015.66598        19.83532        17.28428
     2015.66872        20.34359        17.96125
     2015.67145         9.81588        16.18574
     2015.67419        12.31416        16.13651
     2015.67693        13.61544        15.97650
     2015.67967        15.43772        16.21344
     2015.68240        14.45699        16.29652
     2015.68514         8.01927        17.05042
     2015.68788         9.11455        16.76424
     2015.69062        10.64983        16.51192
     2015.69336        12.33611        17.49353
     2015.69609        16.55239        16.79809
     2015.69883        17.86166        17.37044
     2015.70157        18.40694        16.63193
     2015.70431        10.38522        16.89348
     2015.70705        13.29550        16.44730
     2015.70978        14.13478        16.25036
     2015.71252        14.69806        16.36422
     2015.71526        12.83734        16.11189
     2015.71800        28.81261        17.31505
     2015.72075        15.40683        16.82271
     2015.72347        12.30717        17.00118
     2015.72621         7.76545        16.80425
     2015.72895         9.19173        16.94580
     2015.73169        11.15401        17.56738
     2015.73442         6.94628        16.57654
     2015.73716        13.77356        16.43191
     2015.73990        16.31184        16.89041
     2015.74264        17.85012        17.10581
     2015.74538        17.07940        17.42275
     2015.74811        14.94468        17.09657
     2015.75085         5.98096        16.48730
     2015.75359        10.09323        16.77348
     2015.75633        13.06151        16.34883
     2015.75906        13.54379        16.15497
     2015.76180        16.95507        16.30883
     2015.76454        17.31335        24.25092
     2015.76728        12.66663        16.76424
     2015.77002        25.13190        18.06280
     2015.77275        19.94018        17.13658
     2015.77549        17.34346        16.45961
     2015.77823        18.29274        16.74886
     2015.78097         9.92302        16.62577
     2015.78372        10.46624        16.70270
     2015.78644        13.29158        16.95810
     2015.78918        13.61985        16.27498
     2015.79192        16.13613        16.63500
     2015.79468        14.54632        17.11811
     2015.79739        11.98069        16.69655
     2015.80013         9.28797        16.93964
     2015.80287        16.39225        17.60123
     2015.80561        12.55552        16.45345
     2015.80835        12.45180        16.33960
     2015.81108        12.53208        16.59192
     2015.81382        13.20436        16.64731
     2015.81656        13.16464        17.09042
     2015.81931        11.30187        16.70886
     2015.82203        13.71420        17.16427
     2015.82477        16.07047        16.95503
     2015.82752        17.03972        17.03503
     2015.82928        23.67812        33.64850
     2015.83682        20.21809        35.71326
     2015.83846         7.66687        17.77970
     2015.84120         2.49114        17.43814
     2015.84394         4.84142        16.93656
     2015.84668         4.84370        17.21658
     2015.84941         8.17198        21.01377
     2015.85215         8.80326        20.54297
     2015.85489        15.43054        18.93978
     2015.85797        -1.66829        19.64137
     2015.86036         8.90709        25.85411
     2015.86309         5.62242        17.76124
     2015.86584        11.28465        24.62325
     2015.86858         7.21893        19.33365
     2015.87132         8.40221        29.81438
     2015.87405         6.68849        21.16763
     2015.87673         5.06695        39.14426
     2015.87963         0.08872        17.92432
     2015.88227         6.70032        16.63808
     2015.88501        -2.16340        23.25700
     2015.88775        -2.07014        18.29050
     2015.89048         7.64216        16.56115
     2015.89322         9.80444        17.14889
     2015.89598        14.76265        18.52744
     2015.89869         6.43899        17.09350
     2015.90143        -0.85273        18.45359
     2015.90418         2.05053        17.10888
     2015.90691         5.77183        17.78278
     2015.90868         7.09518        32.41149
     2015.91323         6.71369        28.40198
     2015.91512         7.64466        16.57654
     2015.91786         7.26994        17.57045
     2015.92060         6.13322        17.93048
     2015.92334         6.82750        20.32449
     2015.92607        -2.65822        18.23512
     2015.92881        -2.58295        17.21966
     2015.93156         9.21930        18.81362
     2015.93429        14.92561        21.45688
     2015.93702         8.80589        17.36121
     2015.93976        10.97817        19.78907
     2015.94250         9.82245        18.11818
     2015.94524         6.63173        22.12154
     2015.94799         6.24897        17.10581
     2015.95071         7.77928        16.58885
     2015.95346         4.86255        17.21966
     2015.95620         6.13679        17.53045
     2015.95893         0.88212        17.80432
     2015.96167         4.95038        17.47199
     2015.96441         3.53866        17.39198
     2015.96716        12.24889        17.25351
     2015.96988        15.21623        17.55507
     2015.97262        24.15851        17.06888
     2015.97535        26.49879        17.37967
     2015.97809        15.61007        16.94580
     2015.98083        -1.09065        16.56731
     2015.98357        -4.81738        16.47192
     2015.98631        -3.39310        17.85663
     2015.98904         1.25918        17.96433
     2015.99178        -1.71654        17.87509
     2015.99452         2.28774        17.33659
     2015.99709         5.45556        17.94279
     2015.99982         2.58484        17.98279
     2016.00275         3.67151        17.27505
     2016.00548         1.06384        17.66277
     2016.00821         2.16213        17.13350
     2016.01095        11.92841        17.82893
     2016.01368         5.46069        17.76431
     2016.01642         1.40297        18.41974
     2016.01916         1.92824        18.12126
     2016.02190        -0.77548        17.93356
     2016.02464         3.47480        17.60738
     2016.02737        -0.27092        17.50583
     2016.03011         2.05536        17.26889
     2016.03285         7.70664        17.49353
     2016.03559        11.90191        17.71816
     2016.03833         2.75719        17.16735
     2016.04089         7.34702        18.59206
     2016.04733        12.32952        24.05398
     2016.04928         5.30731        18.96747
     2016.05201         3.00759        17.06273
     2016.05475         5.03686        17.98587
     2016.05749         1.99614        16.60116
     2016.06023        10.00041        18.44744
     2016.06297         4.58770        17.47199
     2016.06570         0.65298        17.11196
     2016.06844        -0.43274        19.22903
     2016.07118         2.09553        17.90894
     2016.07392        -0.69619        17.06888
     2016.07666         9.09709        17.34582
     2016.07939        13.02537        17.57661
     2016.08213         5.21265        19.36135
     2016.08487        -1.80307        21.66920
     2016.08761        -5.79979        16.89348
     2016.09041        -1.53371        17.22889
     2016.09308        13.45276        17.43814
     2016.09582        -4.07296        17.46891
     2016.09856         1.10330        17.27813
     2016.10130        -4.18940        17.22889
     2016.10403        -3.04212        18.45052
     2016.10677         2.30515        17.61969
     2016.10951        -0.66057        17.47814
     2016.11225        -3.39430        17.15504
     2016.11498         1.45799        17.51814
     2016.11772        -2.20173        17.04734
     2016.12046         3.55355        16.82579
     2016.12320        -0.70217        16.61039
     2016.12575        -2.53331        18.30281
     2016.12873         7.90020        17.79201
     2016.13141        10.73766        19.21672
     2016.13415         7.75994        17.78585
     2016.13689         3.74522        17.41044
     2016.13963         0.18550        17.68123
     2016.14236        -9.39823        16.84733
     2016.14511        -0.52196        17.81355
     2016.14784        -1.10467        16.85656
     2016.15058         2.54961        16.98888
     2016.15332        -1.34713        20.65682
     2016.15605         6.65717        17.93048
     2016.15880         0.10043        17.83201
     2016.16153         8.45872        18.09664
     2016.16427         3.19599        17.36121
     2016.16700        10.68728        17.06580
     2016.16976         4.24250        16.94580
     2016.17248        -3.19816        18.03202
     2016.17523         5.26907        17.91817
     2016.17796         9.82639        17.71508
     2016.18069         0.83467        17.50891
     2016.18343         1.24395        18.69361
     2016.18617        10.81423        16.95810
     2016.18891         1.95051        16.86579
     2016.19164         8.58679        16.85040
     2016.19438        10.25107        16.73347
     2016.19712        -4.15466        20.53989
     2016.22837         3.10979        42.03985
     2016.22997         2.88669        17.13658
     2016.23271         1.54796        23.61703
     2016.23545        10.79524        17.09042
     2016.23819         6.65052        17.05349
     2016.24093         4.05580        16.56731
     2016.24366         3.77008        20.15525
     2016.24640         6.99036        16.39191
     2016.24914         5.59463        17.07196
     2016.25188         9.88991        16.38268
     2016.25462         6.98919        17.38275
     2016.25735         2.01447        16.66578
     2016.26009         2.76375        16.96734
     2016.26283         4.30003        16.48115
     2016.26557         6.18731        16.69655
     2016.26830         5.52558        16.50269
     2016.27104         7.03186        16.37960
     2016.27378         5.84614        16.47807
     2016.27652        -0.21958        17.33351
     2016.27928         7.78964        16.76117
     2016.28199         5.50298        16.47192
     2016.28473         6.54325        16.74578
     2016.28747        -3.56947        16.60731
     2016.29021        -2.48419        16.59808
     2016.29295         1.84109        17.21966
     2016.29568         7.39737        16.78578
     2016.29842         6.86265        16.76424
     2016.30116         5.63291        16.87810
     2016.30390        -1.81680        17.49353
     2016.30663         4.86148        17.52430
     2016.30937         1.37476        16.33344
     2016.31211         4.86304        16.99811
     2016.31485         3.09632        16.53654
     2016.31759         6.46560        16.77348
     2016.32032         0.55787        16.97041
     2016.32306        -4.00585        16.63193
     2016.32580        -0.79557        16.54884
     2016.32854         7.81371        16.67193
     2016.33128         4.76399        16.81963
     2016.33401         6.67027        16.82271
     2016.33675         5.14754        16.99195
     2016.33949         5.54982        17.05657
     2016.34223         8.21610        16.91502
     2016.34496         5.67938        16.67193
     2016.34770         8.39766        17.12735
     2016.35044         8.02694        16.95195
     2016.35318         3.52822        16.53654
     2016.35592        -0.16651        16.38576
     2016.35865         2.68277        16.62577
     2016.36141         3.77701        16.48422
     2016.36413        11.86133        16.62270
     2016.36687         9.13861        16.64116
     2016.36961        11.50089        16.40730
     2016.37234        17.03316        16.69655
     2016.37508        10.59844        16.60116
     2016.37782         1.16072        16.53654
     2016.38055         4.97503        16.77348
     2016.38329         6.66828        16.59192
     2016.38603         7.88756        16.26267
     2016.38877        15.34984        16.66885
     2016.39152         5.89007        16.46268
     2016.39425         4.39039        16.71809
     2016.39698        13.45167        16.45653
     2016.39972        13.14195        16.98272
     2016.40246         5.13123        17.00734
     2016.40520         5.71151        16.47192
     2016.40794         2.92778        16.61962
     2016.41067         4.41106        17.08734
     2016.41341         2.30634        16.45653
     2016.41615         7.12462        17.27505
     2016.41889         3.13990        17.38890
     2016.42162        11.23918        16.95810
     2016.42436         4.64946        16.54884
     2016.42710         9.70073        16.50576
     2016.42984         7.62401        16.59808
     2016.43258        11.70929        16.57654
     2016.43531        15.53057        16.73347
     2016.43805         9.74385        16.61962
     2016.44079         8.94813        16.46268
     2016.44353         5.54140        16.87810
     2016.44626         3.73068        16.71193
     2016.44900        11.71196        16.82271
     2016.45174        15.35724        16.66885
     2016.45448         8.15652        16.72424
     2016.45722         6.65780        16.89964
     2016.45995        11.07108        16.31498
     2016.46269         9.77735        16.61654
     2016.46543         7.80763        16.31806
     2016.46817        11.00991        16.69347
     2016.47091         7.83919        16.37037
     2016.47364        10.31747        16.35191
     2016.47638        16.38575        16.47807
     2016.47912         9.39702        17.02272
     2016.48186        10.10930        16.81040
     2016.48457         5.53366        17.06580
     2016.48733         9.89686        16.64116
     2016.49007        16.58114        16.51807
     2016.49281         7.96142        16.46884
     2016.49555        10.17870        16.69039
     2016.49738        -4.69613        54.80382
     2016.50752       -13.73445        36.84564
     2016.50924         5.83809        16.35806
     2016.51197         5.53037        16.24728
     2016.51471        12.76364        16.68732
     2016.51745        12.66392        16.83194
     2016.52019         9.09820        16.66270
     2016.52292        10.51648        16.33344
     2016.52566         8.89776        16.25652
     2016.52840         9.64104        16.26882
     2016.53114         5.67432        16.06266
     2016.53388         9.65959        16.35498
     2016.53661        10.89087        16.25344
     2016.53935        10.36915        16.13651
     2016.54112        11.10752        27.69731
     2016.54571        16.73291        31.29449
     2016.54757        11.32199        16.25344
     2016.55030        18.13926        17.16427
     2016.55304        18.26254        16.76732
     2016.55572        12.63000        17.26274
     2016.55830        12.53880        18.01048
     2016.56486         2.77089        36.43946
     2016.56673        15.11695        17.14581
     2016.56947        14.36921        16.93656
     2016.57221        15.63149        16.91810
     2016.57494        14.78677        16.85348
     2016.57768        16.37805        16.34883
     2016.58019        14.82705        17.72431
     2016.58357         4.56630        19.78599
     2016.58590         9.06788        16.93041
     2016.58863        14.95516        16.46884
     2016.59137         9.22744        16.52730
     2016.59411        21.54672        16.65039
     2016.59685        18.72600        16.69039
     2016.59958        10.35528        16.38576
     2016.60232        12.74656        16.41345
     2016.60506        11.61383        16.73963
     2016.60780        17.46511        16.28113
     2016.61054         8.53539        16.34575
     2016.61327        17.97167        16.34575
     2016.61601        10.92895        16.33652
     2016.61875        15.03523        16.37652
     2016.62149         7.45350        16.38268
     2016.62423        12.71878        16.94580
     2016.62696        17.76406        16.35806
     2016.62970        13.58834        16.41960
     2016.63244        12.45762        17.36121
     2016.63518        14.13590        16.42576
     2016.63791        25.89418        16.51500
     2016.64065        19.17245        16.40422
     2016.64339        13.13673        16.89656
     2016.64613        10.87901        16.63808
     2016.64887        12.31929        16.81040
     2016.65052        38.55002        37.17182
     2016.66086        11.95007        33.42694
     2016.66256         7.85868        16.37652
     2016.66529        25.16896        17.78278
     2016.66803        19.64224        17.16427
     2016.67077        15.85352        16.55500
     2016.67351        14.07280        16.70270
     2016.67624        16.13007        16.49346
     2016.67898        14.03235        16.35191
     2016.68172        18.55263        16.40422
     2016.68446        16.28491        18.33974
     2016.68720        15.59719        17.15504
     2016.68993        12.20747        16.82886
     2016.69267        18.28274        16.69347
     2016.69541        14.06802        16.31498
     2016.69763        18.40094        21.09378
     2016.70183        19.14757        29.46051
     2016.70635        11.34218        17.62277
     2016.70910         8.52441        17.52122
     2016.71184        22.80369        16.38883
     2016.71457        20.46897        16.50576
     2016.71731        16.03025        18.79208
     2016.72005        17.92453        18.17665
     2016.72279        13.29381        16.72732
     2016.72553        14.64609        17.53045
     2016.72821        15.08955        17.21351
     2016.73101        14.26763        16.25959
     2016.73374        13.07292        16.21344
     2016.73648        18.02320        16.46884
     2016.73921        15.35448        17.09657
     2016.74195        12.65676        16.06573
     2016.74469        13.13503        16.41037
     2016.74743        11.42731        16.36729
     2016.75017        18.00658        16.30883
     2016.75290        16.86087        16.18882
     2016.75563        13.57319        16.26267
     2016.75838        22.08243        16.23190
     2016.76112        17.73171        16.19805
     2016.76386        15.28498        16.21651
     2016.76659        16.17026        16.31498
     2016.76933        17.59254        16.61346
     2016.77207         6.76382        16.20728
     2016.77481         9.25210        16.18267
     2016.77754        10.31738        16.21036
     2016.78028        12.07065        16.51807
     2016.78302        11.87193        16.50576
     2016.78576        12.21221        17.17966
     2016.78850         8.33549        16.71501
     2016.79123        12.69377        16.62577
     2016.79397        13.55405        16.51807
     2016.79671         9.65833        16.27806
     2016.79939         8.98579        16.78271
     2016.80219        11.70088        26.16182
     2016.80492         2.27916        16.24113
     2016.80766        14.53744        16.57346
     2016.81040         5.99072        16.23805
     2016.81314         3.68600        16.52423
     2016.81587         3.80227        16.53038
     2016.81861         1.03955        16.20728
     2016.82135         6.30983        16.66270
     2016.82409         7.09611        16.21959
     2016.82962         7.76549        16.57346
     2016.83230        14.31995        17.29659
     2016.83504         4.44022        16.36729
     2016.83778        -0.99050        16.43807
     2016.84052         0.17878        17.20120
     2016.84326         5.08504        17.13965
     2016.84599         0.72834        16.53346
     2016.84873         7.30562        17.40121
     2016.85147         2.81589        17.17350
     2016.85420         0.39517        16.53654
     2016.85694         6.37845        17.13042
     2016.85968         5.29073        16.88425
     2016.86242        10.08101        17.08119
     2016.86516        10.43429        17.33659
     2016.86789         1.60657        16.71809
     2016.87064         8.01183        17.99510
     2016.87337        13.22012        16.30267
     2016.87611         9.11540        16.96426
     2016.87885         7.40868        17.51814
     2016.88158         3.18796        17.17350
     2016.88432         4.04724        16.79194
     2016.88706         4.80551        18.63822
     2016.88980        10.92879        18.63514
     2016.89253         5.12707        17.06580
     2016.89527         7.07335        16.54269
     2016.89801         5.02863        18.15819
     2016.90075        -1.46209        17.48122
     2016.90349         3.29619        17.35505
     2016.90622        10.03546        17.28428
     2016.90896         8.65074        16.92733
     2016.91170         0.72302        17.21658
     2016.91444         2.32330        21.61074
     2016.91718        -3.17942        28.09734
     2016.91991        -1.64014        17.92432
     2016.92265        -0.41687        18.97978
     2016.92539         4.06741        17.60738
     2016.92813        -1.14731        18.51206
     2016.93086        -3.18103        16.73347
     2016.93360         6.26325        18.24742
     2016.93634         3.77053        19.83830
     2016.93908         0.92181        17.76124
     2016.94155         7.88293        19.01363
     2016.95003        -1.18608        17.46891
     2016.95277         9.76020        40.36896
     2016.95469        -6.87693        31.17756
     2016.96786         6.21911       468.30645
     2016.99557        13.36386        45.32623
     2016.99913         5.09452        27.57730
     2017.01471        11.84689        58.36406
     2017.02368         1.20530        36.83026
     2017.02559        -5.91079        47.78794
     2017.03482         3.69682        51.87438
     2017.03748        -5.63766        28.87278
     2017.06137       -42.49276       199.11540
     2017.09489         7.15746        20.28757
     2017.10061        -0.62377        16.57038
     2017.10335        -2.19249        17.66892
     2017.10609        -3.07221        17.24735
     2017.10840        -1.14457        23.69396
     2017.11846       -21.90862       247.10951
     2017.13490         2.69700       101.35783
     2017.15442         4.14582        36.09790
     2017.15815         2.29395        24.08168
     2017.16084         5.24936        16.28113
     2017.16358         1.53164        16.41960
     2017.16527        -6.92875        36.62717
     2017.17735        -2.61621        20.99531
     2017.18001        -5.26569        16.33960
     2017.18275        -3.17241        17.08734
     2017.18548        -6.17013        16.51500
     2017.18721         2.38139        38.62730
     2017.19917        -5.98574        25.22637
     2017.20233         5.39920        21.42611
     2017.20465        -6.97818        22.22309
     2017.20739         3.10908        17.07503
     2017.21007         9.18855        17.94894
     2017.21253         1.10271        19.81369
     2017.21834         3.50621        21.56766
     2017.22060        -1.77800        23.15546
     2017.22387        -2.99040        21.49996
     2017.22655         1.80004        19.29057
     2017.22929       -13.64668        19.18287
     2017.23203        -9.03240        38.74116
     2017.23477         0.03786        17.00426
     2017.23800         4.62558        21.82921
     2017.24024        -0.09856        17.73047
     2017.24297         1.69574        18.37359
     2017.25308       -13.43545        34.96551
     2017.26214        -0.99834        19.80446
     2017.26488         4.95994        19.37981
     2017.26762         3.10620        18.20434
     2017.27036        -4.26450        20.69683
     2017.27310        -5.91922        22.25386
     2017.27583        -5.57394        17.16427
     2017.27858        -6.03468        18.32743
     2017.28130        -4.81037        18.04741
     2017.28402        -4.85602        17.46275
     2017.29497        -6.03589        19.06594
     2017.30048       -12.16645        24.96789
     2017.30321        -5.53216        19.11210
     2017.30595        -7.37588        18.06280
     2017.30869        -3.88360        17.91817
     2017.31143         0.75168        17.91817
     2017.31346        -2.91782        26.61416
     2017.35523       -12.00387        36.03635
     2017.36329        -6.43953        18.02587
     2017.36892        -4.28848        17.01657
     2017.37166        -6.48120        18.77361
     2017.38057       -14.75757        41.48289
     2017.40440        -4.04851        42.97530
     2017.41820        -1.86846        19.86908
     2017.42094       -10.34720        22.77082
     2017.42368        -9.04391        18.55514
     2017.42632        -6.57331        19.96447
     2017.42916        -1.40837        18.90901
     2017.43189        -0.60707        26.65416
     2017.43463        -4.57481        23.31239
     2017.43739         0.55142        19.04440
     2017.44011         1.48773        18.09664
     2017.44276        -4.37270        18.45667
     2017.44832        -2.95040        17.59199
     2017.45106        -1.75312        17.54276
     2017.45379        -1.72485        23.69088
     2017.45604        -4.58799        23.63549
     2017.45927        -5.07529        17.16735
     2017.46201        -7.87001        18.69669
     2017.46458        -1.86320        17.89048
     2017.47219        -1.20844        24.54017
     2017.47827        -7.79682        22.70927
     2017.48272       -20.54798        62.74898
     2017.48815        -7.25929        56.32084
     2017.49540        -2.70339        27.22343
     2017.49760        -4.57540        18.93670
     2017.50034         3.10287        24.81096
     2017.50302         7.77935        21.50611
     2017.50581        -0.18155        17.02888
     2017.50854         2.32675        19.36750
     2017.51366        -2.92854        21.72767
     2017.51951        -4.30018        20.09063
     2017.52224         8.62112        18.27820
     2017.52457         1.36768        19.64444
     2017.52896         5.55872        63.89676
     2017.53045        -4.28005        17.54276
     2017.53319        -4.21477        17.61969
     2017.53490         6.53578        32.25148
     2017.54234        -1.09990        32.30379
     2017.54414         3.40534        16.70886
     2017.54671        -1.19085        17.74893
     2017.55241         3.48301        19.32135
     2017.55509         3.43946        17.77970
     2017.55783        -2.72726        17.77047
     2017.56607         8.00950        19.99216
     2017.56878         8.01185        18.66591
     2017.57152         1.22913        20.59220
     2017.57420        -1.41641        18.95209
     2017.57700        -0.12931        19.01363
     2017.57949         4.38875        18.37359
     2017.58248        -0.93179        21.05377
     2017.58554        -5.95554        26.02335
     2017.58775        -3.47058        18.65976
     2017.59030        -1.47170        22.19539
     2017.60438        -3.66953        18.53052
     2017.60711        -0.26225        18.84747
     2017.60985        14.05203        32.86075
     2017.61259         1.07831        18.24127
     2017.61533         8.69358        20.75221
     2017.61807         2.92086        18.97363
     2017.62080        -0.97086        16.62885
     2017.62354        11.47142        17.14581
     2017.62628         3.69570        17.16735
     2017.62902        -2.84102        17.85663
     2017.63177         3.14719        18.72746
     2017.63449         1.01953        16.86887
     2017.63723         2.28581        16.85656
     2017.63990         4.21630        24.27554
     2017.64273         4.59729        18.88747
     2017.64544         0.89465        16.61039
     2017.64818         9.32193        25.27868
     2017.65092         1.58520        16.36729
     2017.65263         7.65775        34.78396
     2017.65748         2.31631        38.31036
     2017.65916         6.60296        16.75501
     2017.66187         0.69532        19.68137
     2017.66461        12.52760        17.50583
     2017.66735         4.54587        16.89656
     2017.67008        10.10215        16.25959
     2017.67282         5.29143        16.80732
     2017.67556         5.63871        17.14581
     2017.67830         7.23597        16.77655
     2017.68104         5.77327        16.23805
     2017.68337         6.17483        20.59220
     2017.69472         8.31966        19.77061
     2017.69748         5.34088        17.49660
     2017.70020         5.89622        16.74886
     2017.70294         8.99549        18.15203
     2017.70568         0.95477        16.69655
     2017.70841         5.20405        16.57654
     2017.71115         5.34633        17.24120
     2017.71389        -0.12439        17.75816
     2017.71663        10.27189        16.38576
     2017.71937         4.94017        16.18882
     2017.72210         1.89344        16.16113
     2017.72484        -1.09328        18.06895
     2017.72758         0.74500        19.62906
     2017.73020         5.05864        27.97118
     2017.73312         8.55936        18.30281
     2017.73579         3.57184        16.57654
     2017.73853         2.08611        17.89355
     2017.74401        11.83167        17.59507
     2017.74669        -0.35587        17.05349
     2017.75233       -20.92986       116.51580
     2017.75886        20.05334        43.31994
     2017.76043        10.08134        38.19343
     2017.76317         7.49762        16.48422
     2017.76591         8.57990        16.73040
     2017.76739        26.40017        69.38329
     2017.77508         7.75169        28.47275
     2017.77686        -0.47799        16.43499
     2017.77960        -1.88671        16.62270
     2017.78234        -5.44243        16.03804
     2017.78507         0.64585        16.63808
     2017.78781         0.12013        16.25036
     2017.79055        11.63541        16.32729
     2017.79329         3.08668        16.44422
     2017.79603         0.42096        16.80425
     2017.79871         3.79642        19.64752
     2017.80150         6.36052        22.27847
     2017.80424         4.89880        16.60116
     2017.80698         4.92208        18.16126
     2017.80971        -3.45465        16.77655
     2017.81245        -3.13937        16.22267
     2017.81519         5.80491        17.01349
     2017.81793        -4.62081        16.40730
     2017.82067        -1.32453        16.91810
     2017.82340         2.18175        16.80117
     2017.82512         0.83430        33.30693
     2017.82998         7.76381        36.98719
     2017.83162         7.88258        17.40737
     2017.83436        -1.15514        18.53668
     2017.83709        -5.72686        17.43198
     2017.83983        -6.11758        23.82320
     2017.84257        -6.42930        16.37652
     2017.84531        -6.16503        16.36114
     2017.84804       -12.96675        16.46268
     2017.85078        -2.33247        16.25652
     2017.85352         2.20281        16.28421
     2017.85626         4.15409        16.75501
     2017.85900         1.08837        17.42275
     2017.86173        -0.08236        17.68431
     2017.86447        -2.55608        18.24127
     2017.86645         2.45062        25.47870
     2017.87097        -3.90879        31.69451
     2017.87269         3.30276        17.17043
     2017.87542         9.08604        16.20421
     2017.87816         2.05832        16.61346
     2017.88090        -1.35941        16.61039
     2017.88364        -1.80713        16.96734
     2017.88638        -0.23786        17.36121
     2017.88911        -5.01857        16.72424
     2017.89185        -0.20929        17.21351
     2017.89459         2.92999        16.60731
     2017.89733        -1.60774        16.43807
     2017.90006        -5.78646        17.61969
     2017.90280        -3.97718        17.15812
     2017.90554        16.59010        25.66025
     2017.90828         7.09538        17.79816
     2017.91102        -3.35734        17.79816
     2017.91375         0.02094        16.97964
     2017.91649        -0.07379        16.39191
     2017.91923         3.87849        16.24728
     2017.92197        -6.42323        16.59808
     2017.92463        -7.46772        16.94272
     2017.92744       -12.10667        18.67207
     2017.93018        -6.03239        17.15812
     2017.93292        -5.85012        16.51192
     2017.93566        -2.29484        16.40730
     2017.93839        -1.01056        16.26267
     2017.94113        -1.21128        16.43807
     2017.94387         3.13500        16.45038
     2017.94661         4.25328        17.49968
     2017.94935        -0.61544        16.69655
     2017.95208        -2.01017        16.70270
     2017.95482         0.01211        16.25652
     2017.95756        -6.57661        16.30883
     2017.96030         0.01767        16.51192
     2017.96303        -0.55605        16.37652
     2017.96577         0.82923        17.45968
     2017.96851        -3.21248        16.63808
     2017.97125        -5.53922        16.68424
     2017.97400        -5.67398        16.16113
     2017.97672        -8.14366        16.01342
     2017.97946        -4.62138        16.13035
     2017.98220        -4.81710        16.04112
     2017.98494        -7.48482        16.09343
     2017.98767       -13.04955        16.67808
     2017.99041       -12.18127        16.25652
     2017.99316        -2.67302        16.26267
     2017.99589        10.66729        16.73040
     2017.99766        -2.58434        30.69752
     2018.00457       -17.18337        21.84460
     2018.00684       -10.32660        16.26882
     2018.00958        -5.34332        16.65962
     2018.01232        -7.99004        17.08119
     2018.01505        -5.85876        16.35806
     2018.01779        -5.40848        16.77963
     2018.02053        -0.91520        17.09657
     2018.02327        -0.19193        16.53346
     2018.02600        -2.82365        16.21651
     2018.02874        -4.77537        16.19805
     2018.03148        -3.17509        16.41037
     2018.03422        -7.67681        16.84425
     2018.03696       -11.49053        16.45961
     2018.03969        -9.08126        16.20421
     2018.04243       -10.33598        16.82886
     2018.04517       -16.97270        16.40730
     2018.04791        -7.92042        19.10595
     2018.05065        -5.52514        16.40730
     2018.05338        -3.72986        16.95503
     2018.05612        -7.94758        17.34890
     2018.05886        -8.17831        17.23505
     2018.06160        -8.28403        16.57038
     2018.06433       -12.00175        16.79194
     2018.06707        -0.17547        17.06273
     2018.06981        -8.68519        16.50576
     2018.07255        -4.20191        16.52730
     2018.07529       -20.72064        16.73963
     2018.07802       -20.78336        17.00118
     2018.08076        -8.70808        16.67193
     2018.08350       -10.71780        16.49653
     2018.08624       -12.18952        16.49038
     2018.08898       -10.18724        17.36736
     2018.09171        -5.99096        17.77047
     2018.09445        -5.04569        17.31505
     2018.09719        -3.62841        29.01433
     2018.09993       -11.48013        16.72732
     2018.10266       -10.32185        17.19812
     2018.10540        -7.51157        17.87509
     2018.10814        -8.63629        17.10888
     2018.11088        -9.93602        16.87502
     2018.11362       -10.53074        16.73040
     2018.11635       -11.79646        17.99202
     2018.11909       -11.16618        17.34582
     2018.12183        -6.12490        17.52430
     2018.12457        -9.31062        16.81963
     2018.12731        -8.32434        17.15196
     2018.13004        -3.03507        17.76431
     2018.13278       -10.45279        17.28428
     2018.13552        -6.93651        17.77662
     2018.13826        -7.39423        16.77348
     2018.14099        -9.01295        17.37044
     2018.14373       -13.25267        17.43814
     2018.14647        -9.71240        17.84124
     2018.14921        -7.64312        17.33351
     2018.15195        -3.94684        17.16119
     2018.15468        -7.52256        17.04734
     2018.15742        -5.19728        17.10273
     2018.16016       -10.19700        17.49353
     2018.16290       -11.86972        17.09350
     2018.16564       -14.87245        17.36429
     2018.16837       -14.82917        16.99503
     2018.17111       -12.06989        16.81040
     2018.17385       -17.90461        17.18889
     2018.17659       -15.06633        17.06580
     2018.17932       -13.94105        17.12427
     2018.18205        -6.01375        17.33659
     2018.18480        -6.63850        17.37044
     2018.18754       -10.20422        16.92733
     2018.19028       -10.15494        16.83502
     2018.19301        -2.04366        16.79502
     2018.19575        -5.10138        17.13042
     2018.19849        -4.32211        17.63200
     2018.20122        -4.90781        20.01062
     2018.20397         0.87445        19.25980
     2018.20670        -2.72827        17.12735
     2018.20944        -5.46699        17.50583
     2018.21218        -7.50671        21.27840
     2018.21492       -20.77043        16.55500
     2018.21765       -11.94916        16.58269
     2018.22039        -6.99688        16.99195
     2018.22313        -9.49860        16.74578
     2018.22587       -12.61632        16.60116
     2018.22861       -15.47304        16.85040
     2018.23134        -9.98676        16.24421
     2018.23408       -13.57649        16.80732
     2018.23682       -11.73021        16.67808
     2018.23956       -12.36693        16.56731
     2018.24230        -6.37165        19.16441
     2018.24504       -15.23339        17.54276
     2018.24777        -5.24309        16.53961
     2018.25051        -7.41681        16.74886
     2018.25324       -13.91851        22.43233
     2018.25598       -13.10326        19.16133
     2018.25872       -10.78298        17.27505
     2018.26146        -6.51369        17.08427
     2018.26420       -10.99142        20.12756
     2018.26695       -13.53119        16.31190
     2018.26967       -17.06087        16.41653
     2018.31443       -20.09345        30.53751
     2018.31622        -7.91213        16.39191
     2018.31895        -3.89685        16.51192
     2018.32169        -9.55557        16.71809
     2018.32443       -10.85630        16.66578
     2018.32717       -11.28802        16.40114
     2018.32991        -8.51174        16.95195
     2018.33264        -6.47846        16.33960
     2018.33538       -10.36418        16.67808
     2018.33692        -1.87409        56.43470
     2018.34095       -12.47491        16.76117
     2018.34360        -3.42135        16.43807
     2018.34633        -6.27107        16.34883
     2018.34907        -7.05979        16.32729
     2018.35181         2.06049        16.90272
     2018.35455        -1.87723        16.38576
     2018.35728        -8.45895        16.80425
     2018.36002        -2.03366        17.92432
     2018.36276        -2.43240        18.07818
     2018.36550        -2.00712        16.60116
     2018.36824        -4.41286        18.97978
     2018.37097        -6.18656        16.33344
     2018.37371        -6.17528        16.30575
     2018.37645        -9.91101        16.51192
     2018.37919        -4.65973        16.35498
     2018.38193        -6.08045        16.71193
     2018.38466        -5.97417        16.08727
     2018.38740        -1.19489        16.50576
     2018.39014         3.04339        16.30575
     2018.39288        -3.37333        16.60731
     2018.39561        -4.64106        17.28736
     2018.39835        -5.03678        17.29659
     2018.40109         1.10850        17.69662
     2018.40383         4.29376        25.52793
     2018.40657        -1.02494        16.47192
     2018.40930         3.44134        16.78886
     2018.41205         5.69560        19.18287
     2018.41478        -8.09212        18.15819
     2018.41752        -1.67284        20.24141
     2018.42026        -0.27257        17.21351
     2018.42299        -4.99327        16.45038
     2018.42573         2.38601        16.62885
     2018.42847        -1.91071        16.37652
     2018.43121        -2.40544        16.45961
     2018.43394        -4.83116        16.25344
     2018.43668        -1.18788        16.04112
     2018.43942        -3.99860        16.14882
     2018.44216        -6.15132        16.33652
     2018.44490        -4.26004        16.42884
     2018.44763         4.06823        16.69347
     2018.45037        -3.94849        16.21959
     2018.45311        -4.97321        22.66004
     2018.45585         0.16107        16.55192
     2018.45859         1.00735        16.41653
     2018.46132        -1.57137        19.93985
     2018.46406         1.00891        16.32421
     2018.46682        -0.32088        17.37967
     2018.46954         2.08646        16.72424
     2018.47229         3.00368        17.14889
     2018.47501         2.24202        16.64116
     2018.47775        -1.82070        16.46576
     2018.48049         1.72958        16.55808
     2018.48323        -0.96815        16.43807
     2018.48596        -2.00187        16.68732
     2018.48864        -2.18438        18.22281
     2018.49145       -13.12034        29.35897
     2018.49418         5.21997        16.58269
     2018.49692         7.83025        16.56423
     2018.49965         4.87253        16.56423
     2018.50239        -4.08820        16.39806
     2018.50513        -5.39792        16.94887
     2018.50787         0.74836        16.80732
     2018.51060         5.84764        16.86887
     2018.51334        -0.10708        16.53961
     2018.51608         0.42020        16.72424
     2018.51883        -1.13257        16.37652
     2018.52156        -0.54525        16.24113
     2018.52429        -1.89197        16.58885
     2018.52703         1.64331        17.58584
     2018.52977         2.95159        20.53374
     2018.53251         2.97787        16.62270
     2018.53525         2.12815        16.40730
     2018.53798         5.41042        25.86026
     2018.54072         7.06070        16.52115
     2018.54346         7.58498        17.30582
     2018.54620         2.21826        16.77963
     2018.54893         1.83954        16.57038
     2018.55167         2.19982        16.38576
     2018.55441         1.28209        15.99804
     2018.55715         9.11337        17.18581
     2018.55989         2.09665        16.85656
     2018.56262         6.23093        22.21078
     2018.56536         2.02121        16.77655
     2018.56810         8.99449        16.45038
     2018.57085         6.34573        16.20113
     2018.57357         8.01404        17.13042
     2018.57631         1.15632        17.20120
     2018.57905         5.29360        17.30274
     2018.58179         5.04988        18.09664
     2018.58453         9.40016        17.10581
     2018.58726         1.99044        16.61346
     2018.59000         6.44871        16.39806
     2018.59274         6.74499        16.57346
     2018.59549        11.89024        16.41037
     2018.59822         6.00055        16.62885
     2018.60095         7.91483        16.57346
     2018.60369         9.95711        16.66270
     2018.60643         8.47638        16.36729
     2018.60917         5.00266        16.18574
     2018.61190         6.60794        17.15812
     2018.61464         4.73022        16.19497
     2018.61738         7.33450        16.65962
     2018.62012        10.27778        16.62577
     2018.62287         4.05803        17.04734
     2018.62559        -2.59167        22.40156
     2018.62833         1.63461        16.53038
     2018.63107         6.62689        16.34575
     2018.63381         6.21217        17.18581
     2018.63655         3.33045        16.07804
     2018.63928         7.10173        17.21351
     2018.64202        14.23100        17.56738
     2018.64476         5.78528        16.41345
     2018.64750         3.48156        16.31806
     2018.65023         9.80084        16.57962
     2018.65297         6.38512        16.35806
     2018.65571         8.33940        17.01965
     2018.65845        10.48168        16.83194
     2018.66119        -0.43105        17.18581
     2018.66392         2.47623        16.38883
     2018.66666         0.72851        16.92426
     2018.66940         3.14379        16.94887
     2018.67214         0.64107        16.50269
     2018.67488         6.80435        20.07524
     2018.67761         3.54262        17.84432
     2018.68035         1.66390        16.98580
     2018.68309         4.46818        17.17350
     2018.68583         7.40646        16.61962
     2018.68856         4.24574        16.41653
     2018.69130         7.78902        17.30890
     2018.69383         6.74696        18.17357
     2018.69952        -1.00615        17.54891
     2018.70225        -7.23687        20.68759
     2018.70499         0.33641        16.37037
     2018.70773         0.78669        16.62577
     2018.71047         2.32297        16.80425
     2018.71321        -2.67876        17.09350
     2018.71594        -1.13248        16.61962
     2018.71868        -7.43020        16.40422
     2018.72142        -4.98692        16.72116
     2018.72416        11.67636        16.79809
     2018.72689         2.16364        16.33652
     2018.72963        -2.30508        16.34268
     2018.73237        -4.42681        16.18882
     2018.73511         0.85447        16.80117
     2018.73785       -11.53625        28.75893
     2018.74058        -0.46397        25.43869
     2018.74332        -0.62369        16.74578
     2018.74606        -1.26441        17.46583
     2018.74880        -4.41814        16.98272
     2018.75154         1.82314        16.79502
     2018.75427         2.09642        16.41960
     2018.75701        -0.64430        17.57045
     2018.75975        -0.23102        16.49346
     2018.76249         4.94226        16.60731
     2018.76522        -4.97246        16.73655
     2018.76796         3.53481        16.63808
     2018.77070         6.42109        17.01042
     2018.77344         4.31237        20.86607
     2018.77617        -0.59934        16.49038
     2018.77891         1.98193        16.38883
     2018.78165        -0.06879        16.57038
     2018.78439        -0.89652        17.42275
     2018.78713        -1.36824        16.24113
     2018.78987       -10.18296        16.66270
     2018.79260        -3.96668        16.18882
     2018.79534         6.39060        19.62906
     2018.79812         2.53276        17.38583
     2018.80082         2.79916        16.70578
     2018.80354         2.17948        16.45653
     2018.80629         5.90771        16.74270
     2018.80903         0.68399        17.05965
     2018.81145         2.06027        20.71529
     2018.81506        -0.56821        35.11014
     2018.81727         8.30575        16.90887
     2018.81998         2.66610        16.26575
     2018.82272         2.64438        16.41653
     2018.82545        -1.27832        19.95831
     2018.82820         0.91091        17.29967
     2018.83093        -2.03978        16.17036
     2018.83367         0.75850        16.31806
     2018.83641        15.49778        17.22581
     2018.83915         4.53405        16.17343
     2018.84188        -1.93467        16.20728
     2018.84462         5.05461        16.31498
     2018.84736        -5.51011        16.13035
     2018.85010        -6.90683        16.04419
     2018.85284        -6.67255        16.38268
     2018.85557        -7.52828        16.58885
     2018.85831        -6.47500        16.01650
     2018.86105        -8.50072        16.22574
     2018.86379        -2.54244        16.45345
     2018.86653         5.09584        16.83810
     2018.86926        -5.44188        16.42268
     2018.87200        -1.58860        16.11189
     2018.87474        -3.40733        16.57038
     2018.87748        -1.88505        16.40730
     2018.88010         0.71258        17.29659
     2018.94592         1.26891        16.66270
     2018.94866        -2.43781        16.33960
     2018.95140         7.63047        17.05965
     2018.95414         9.19075        16.35498
     2018.95687        -1.60597        16.21344
     2018.95961        -1.69969        16.19190
     2018.96235         1.64158        16.39806
     2018.96509         2.37486        16.62885
     2018.96783        -6.59486        16.86579
     2018.97056         2.21742        16.29036
     2018.97330        -9.07730        16.23190
     2018.97604        -4.95002        16.33960
     2018.97878        -2.63475        16.50269
     2018.98151       -21.35247        20.86607
     2018.98425        -5.31519        16.67808
     2018.98699       -14.94291        16.41345
     2018.98973        -7.88563        16.25652
     2018.99247       -11.65135        16.62577
     2018.99520        -6.41007        16.70578
     2018.99794       -13.92780        16.31190
     2019.00068       -11.77652        16.40114
     2019.00342       -13.08024        16.36422
     2019.00616       -16.34996        16.23190
     2019.00889        -6.92368        17.07196
     2019.01163        -9.87640        16.33344
     2019.01437         1.60287        16.55192
     2019.01711         1.68515        16.15805
     2019.01984       -11.93657        16.18574
     2019.02258       -12.51829        16.87502
     2019.02532       -11.10701        16.47807
     2019.02806        -8.38673        16.67501
     2019.03005       -11.19109        25.94950
     2019.03901        -5.03963        16.17651
     2019.04061       -12.16671        39.43967
     2019.04819       -10.99187        33.30386
     2019.04945       -15.00787        21.34610
     2019.05914       -17.54976        32.46380
     2019.06091        -7.50239        16.41960
     2019.06365        -8.02611        16.40730
     2019.06639        -7.32783        16.52730
     2019.06912       -13.49354        16.49961
     2019.07186       -10.75428        16.60423
     2019.07460        -9.34700        16.04727
     2019.07734        -7.94672        16.02265
     2019.08008        -5.96444        16.28729
     2019.08282        -5.95416        16.78578
     2019.08555       -14.57389        16.09343
     2019.08829        -5.63661        16.09958
     2019.09103        -1.76333        16.09958
     2019.09377        -5.27505        16.03804
     2019.09650        -4.93977        16.20728
     2019.09924        -8.02549        16.15805
     2019.10198       -10.47520        16.07189
     2019.10472        -4.64094        16.43499
     2019.10746       -11.39366        16.38883
     2019.11019        -6.16438        16.07497
     2019.11293        -2.94310        16.32114
     2019.11567        -7.00082        16.80732
     2019.11841         0.21346        16.31190
     2019.12115         7.87473        16.54269
     2019.12388         0.48701        16.90887
     2019.12662       -10.88871        16.07804
     2019.12937        -8.36846        16.17036
     2019.13210       -12.40715        16.13035
     2019.13483       -12.56887        16.27806
     2019.13757       -12.43859        16.19805
     2019.14031        -8.92032        16.19190
     2019.14305        -8.28904        16.44114
     2019.14579       -13.03876        16.06266
     2019.14852       -12.59948        16.46268
     2019.15126       -13.96320        16.05343
     2019.15400       -14.40592        16.00419
     2019.15674       -16.69565        16.09343
     2019.15948       -15.36537        16.36729
     2019.16221       -17.38309        16.69962
     2019.16495       -16.06181        15.94265
     2019.16769       -16.36753        16.22267
     2019.17043       -15.61625        16.04727
     2019.17316       -12.59797        16.06266
     2019.17590        -7.77670        16.16728
     2019.17864       -10.09342        16.13343
     2019.18138       -12.28214        15.93342
     2019.18412       -20.23686        15.93342
     2019.18685       -12.58458        16.59500
     2019.18959       -11.39530        16.18882
     2019.19233       -13.33903        16.15497
     2019.19507       -14.81075        16.02881
     2019.19780       -13.12947        16.09343
     2019.20054       -10.26419        16.56423
     2019.20328       -15.96791        16.15189
     2019.20602       -16.07163        16.12112
     2019.20876       -15.71435        16.25344
     2019.21149       -14.85508        16.01958
     2019.21423       -11.05880        16.03189
     2019.21697        -9.16752        15.94880
     2019.21971        -8.94624        16.76117
     2019.22245       -12.15296        15.94880
     2019.22518       -16.95668        15.97342
     2019.22792        -9.07341        15.96727
     2019.23066       -13.12913        16.05650
     2019.23340       -11.57385        16.10266
     2019.23613       -13.87357        16.19497
     2019.23887        -9.31229        16.17959
     2019.24161       -13.41201        16.46268
     2019.24435        -8.91273        16.41037
     2019.24709        -8.30346        16.45653
     2019.24982        -8.78818        16.85040
     2019.25256        -8.51690        18.52129
     2019.25493       -10.85646        19.25057
     2019.25812        -7.40662        16.95810
     2019.26078        -8.21706        15.97342
     2019.26351        -9.20379        16.37037
     2019.26625       -16.13651        16.02881
     2019.26899       -13.20223        16.29344
     2019.27173        -6.33195        16.85040
     2019.27446       -11.45667        16.05343
     2019.27720        -8.71039        16.48422
     2019.27994        -1.57111        16.28113
     2019.28268        -5.57184        16.03496
     2019.28542        -3.45156        16.05343
     2019.28815        -5.32828        16.24113
     2019.29089        -7.05200        16.53654
     2019.29363        -6.62872        16.29960
     2019.29637        -5.12644        16.46884
     2019.29911        -6.95217        15.98881
     2019.30184        -7.66789        16.03804
     2019.30458        -8.32561        16.20113
     2019.30732        -8.87033        16.12112
     2019.31006        -9.33005        16.18267
     2019.31279       -10.07077        16.22574
     2019.31553        -3.27949        16.09035
     2019.31827        -6.86622        16.06573
     2019.32101        -7.15594        16.12728
     2019.32375       -18.45066        15.95803
     2019.32648        -7.73138        45.15084
     2019.32922        -9.81510        16.05958
     2019.33196       -12.87782        16.48115
     2019.33470       -10.96355        16.39191
     2019.33744        -7.64127        16.04112
     2019.34017        -8.49599        16.06266
     2019.34291        -7.27271        16.28729
     2019.34565        -5.73343        16.28421
     2019.34839        -8.33215        16.31806
     2019.35112        -7.29088        17.49353
     2019.35386        -6.99660        16.09035
     2019.35660        -5.96332        16.23498
     2019.35934        -4.36204        16.17959
     2019.36208        -6.00976        16.10881
     2019.36481        -6.09448        16.55192
     2019.36755        -6.65320        16.23805
     2019.37029        -8.04593        16.14882
     2019.37303         3.18335        16.24113
     2019.37577        -4.09637        16.57962
     2019.37850        -2.09009        16.17036
     2019.38124        -3.53081        16.03496
     2019.38398        -1.98453        16.43499
     2019.38672        -6.01226        21.65689
     2019.38945        -6.21698        19.29365
     2019.39219        -5.02770        16.27190
     2019.39493        -7.28742        15.99496
     2019.39767        -5.33314        16.11805
     2019.40041        -2.12386        16.16420
     2019.40314        -4.73758        16.55808
     2019.40588        -1.89331        16.12728
     2019.40862        -3.41003        16.04419
     2019.41136         2.21825        16.22574
     2019.41410         1.23953        16.36114
     2019.41683        -2.73419        16.20728
     2019.41957         6.51609        16.62270
     2019.42231        -4.24564        16.27190
     2019.42505         0.58264        16.21959
     2019.42778        -2.45808        16.60423
     2019.43052        -1.91880        16.15805
     2019.43326        -5.11052        16.15189
     2019.43600        -8.16024        16.26267
     2019.43874        -7.04296        16.59500
     2019.44147       -11.48569        16.46268
     2019.44421        -3.36041        16.50269
     2019.44695         0.08087        16.97349
     2019.44969        -4.28885        16.49346
     2019.45243        -5.81557        16.26267
     2019.45516        -1.22229        16.36729
     2019.45790        -8.01202        16.43807
     2019.46064       -10.69274        16.78886
     2019.46338        -7.10946        17.27197
     2019.46611         4.85282        17.24428
     2019.46885         0.50610        17.26274
     2019.47159        -4.96362        16.33652
     2019.47433       -10.72934        16.49346
     2019.47707        -4.48807        16.54884
     2019.47980         0.62321        16.52423
     2019.48254        -4.51551        16.49346
     2019.48528        -5.87123        16.52730
     2019.48802       -12.11495        16.42268
     2019.49076       -11.59367        16.15805
     2019.49348        -7.20637        16.16113
     2019.49623        -2.26512        16.32729
     2019.49897        -3.62884        16.38883
     2019.50171        -4.65756        15.96727
     2019.50444        -8.83428        16.24113
     2019.50718        -6.10600        16.29344
     2019.50992        -8.22272        16.12728
     2019.51266       -10.49145        16.03189
     2019.51540        -4.96317        16.07497
     2019.51813        -3.19689        16.17036
     2019.52087        -4.56761        16.51500
     2019.52361       -12.13133        17.75201
     2019.52635       -10.06905        16.51192
     2019.52908         1.01922        16.76732
     2019.53182       -12.39650        16.81348
     2019.53456        -6.06022        16.55192
     2019.53730        -8.00894        16.73963
     2019.54004         2.31934        23.49394
     2019.54277        -8.92238        16.63193
     2019.54551        -5.25310        16.99503
     2019.54825        -5.43583        16.10881
     2019.55099        -2.70555        16.39806
     2019.55373         3.46273        17.12427
     2019.55646        -2.62999        16.41960
     2019.55920        -7.42771        17.05349
     2019.56194        -4.81143        16.07497
     2019.56468        -8.22716        16.54884
     2019.56741        -9.22088        16.49346
     2019.57015        -6.54760        16.22882
     2019.57289        -5.89432        16.96118
     2019.57563        -3.30704        16.21344
     2019.57837        -5.75376        16.53038
     2019.58110        -3.07848        16.16728
     2019.58384         3.82079        17.45352
     2019.58658        -4.48293        16.04419
     2019.58898        -0.48856        18.29050
     2019.59294         4.08281        29.02356
     2019.59479        -1.35609        16.27498
     2019.59753         1.96419        16.62577
     2019.60027        -1.75554        16.74578
     2019.60301        -4.90826        16.22574
     2019.60574        -3.69798        16.77963
     2019.60848        -3.54570        17.06888
     2019.61122        -3.15642        16.21036
     2019.61396        -0.80114        16.90887
     2019.61670        -1.48586        16.77040
     2019.61943        -3.26359        16.45345
     2019.62217        -0.00831        16.49653
     2019.62491         1.75397        16.06266
     2019.62765        -2.49175        17.85970
     2019.62925         9.69815        38.63038
     2019.63435        22.81490        51.48666
     2019.63586        14.79508        17.96740
     2019.63860         0.11236        16.29036
     2019.64134         6.65364        17.12119
     2019.64407         1.02492        16.37960
     2019.64681        -3.93280        16.28113
     2019.64955        -2.39252        16.23805
     2019.65229         2.40776        16.33037
     2019.65503        -1.13397        16.41653
     2019.65776        -4.47469        16.90579
     2019.66050         2.22959        16.93656
     2019.66324         0.39787        16.83502
     2019.66598        -3.97885        16.22574
     2019.66872        -1.56957        16.10574
     2019.67145       -11.02530        16.81040
     2019.67419        -2.53902        16.50576
     2019.67693        -1.57274        16.81963
     2019.67967        -1.46046        16.67808
     2019.68240        -3.64918        16.20113
     2019.68514        -2.23290        16.25652
     2019.68788         2.49538        16.30575
     2019.69062        -0.28235        16.48422
     2019.69336        -6.65607        16.51807
     2019.69609        -2.69479        16.45961
     2019.69883         7.77149        16.64116
     2019.70157        -4.28523        16.32114
     2019.70431         3.96105        16.75194
     2019.70705        -6.76168        16.07189
     2019.70978         2.11860        16.66885
     2019.71252        -7.06812        16.26882
     2019.71526        -4.96084        16.05343
     2019.71800        -3.38956        16.83502
     2019.72073        -7.24428        16.81963
     2019.72347         3.90799        17.44737
     2019.72621        -2.61973        17.40429
     2019.72895         3.42455        16.33037
     2019.73169         1.59083        16.23498
     2019.73442         7.21411        16.76732
     2019.73716         1.76639        16.53346
     2019.73990        -2.32533        16.73040
     2019.74264        -3.91706        16.37037
     2019.74538        -2.97078        15.99496
     2019.74811        -1.45050        16.47499
     2019.75085        -2.82622        16.55500
     2019.75359        -2.62094        17.06888
     2019.75633        -5.84066        16.39499
     2019.75906        -6.28839        16.10881
     2019.76180        -4.18211        16.14574
     2019.76454         0.31617        16.64424
     2019.76728        -1.60355        16.57346
     2019.77002        -6.15727        16.60116
     2019.77275        -3.70199        16.79502
     2019.77549        -2.11371        16.34575
     2019.77823        -0.33844        16.52730
     2019.78097        -0.11916        16.37652
     2019.78371        -3.50488        16.47807
     2019.78644         1.28540        16.70886
     2019.78895         0.35540        19.40750
     2019.79283        14.14206        29.39897
     2019.79466         6.91523        16.63500
     2019.79739         6.72451        16.47807
     2019.80013        -1.28621        16.64424
     2019.80287        -2.91693        16.42576
     2019.80561         6.73035        19.41981
     2019.80835        -9.79937        17.82893
     2019.81108        -1.75109        16.63500
     2019.81382         3.41318        17.21351
     2019.81656        -5.34454        16.44422
     2019.81930        -0.96926        16.49653
     2019.82203        -3.82098        16.42576
     2019.82477        -7.41970        16.33652
     2019.82751        -5.30542        16.70578
     2019.83025         0.82385        20.71529
     2019.83299        -5.50187        16.77348
     2019.83572        -3.45459        16.41345
     2019.83848        -0.70136        16.45961
     2019.84120        -4.60903        16.50884
     2019.84394        -5.15975        17.02888
     2019.84668        -7.35947        16.49653
     2019.84941         0.36280        16.48422
     2019.85215        -1.57292        16.34883
     2019.85489         0.70636        16.68116
     2019.85763        -5.11236        16.41037
     2019.86036         1.84292        16.70578
     2019.86310        -4.87980        16.36114
     2019.86584         2.36447        16.57654
     2019.86858         0.08575        16.61346
     2019.87132         1.86503        16.99811
     2019.87405        -4.04769        16.72116
     2019.87679        -1.19941        17.54891
     2019.87953        -0.05513        16.70270
     2019.88227         6.34715        16.53038
     2019.88501         4.35342        17.25966
     2019.88774         0.99270        17.26889
     2019.89048         7.24198        16.64424
     2019.89322         2.81326        16.48115
     2019.89596        -1.24146        16.45345
     2019.89869        -2.02918        16.34268
     2019.90143        -1.94491        16.45653
     2019.90326        -0.79772        28.09426
     2019.91080       -16.21573        43.60919
     2019.91238        -3.93379        16.29344
     2019.91512         3.62949        16.31190
     2019.91786         5.08477        16.36114
     2019.92060         2.00504        16.55500
     2019.92607        -2.33140        16.39499
     2019.92877        -6.89600        16.61962
     2019.93155        -1.94684        16.39499
     2019.93429        -6.93756        16.28729
     2019.93702       -11.85329        16.29960
     2019.93976        -3.97201        17.20120
     2019.94250       -11.78873        16.70578
     2019.94524        -9.72345        16.91195
     2019.94798        -8.08217        16.37652
     2019.95070       -10.93686        17.11811
     2019.95345        -9.99261        17.97971
     2019.95619        -6.00234        16.51807
     2019.95893        -8.13206        16.65347
     2019.96167        -6.07978        16.31190
     2019.96442         3.07744        17.77047
     2019.96714        -9.28422        16.74886
     2019.96988       -18.30594        16.35806
     2019.97262       -10.96967        16.35498
     2019.97535       -11.05539        16.30883
     2019.97809       -12.78511        16.20421
     2019.98083        -7.04183        16.50576
     2019.98357        -3.64155        16.43191
     2019.98631        -2.47727        16.71809
     2019.98904       -16.18199        16.26575
     2019.99178        -8.55072        16.22267
     2019.99452        -7.63844        16.49653
     2019.99726        -3.16316        16.77963
     2020.03011       -14.12182        16.41960
     2020.03285       -20.34254        16.21344
     2020.03559       -15.44726        15.95188
     2020.03833       -10.20698        16.09958
     2020.04106        -2.30370        16.59500
     2020.04380        -8.29143        16.88733
     2020.04654       -10.14015        16.03496
     2020.04928       -15.48987        16.07189
     2020.05201       -12.99759        16.05958
     2020.05475       -11.87931        16.20421
     2020.05749        -6.61603        16.34268
     2020.06023       -12.61975        16.49961
     2020.06297       -10.59548        16.35806
     2020.06519       -10.90656        20.93069
     2020.07218       -11.44182        29.90977
     2020.07392        -8.59336        16.23190
     2020.07666       -13.69808        16.39806
     2020.07939       -10.37981        16.05958
     2020.08213       -14.86153        16.46576
     2020.08487       -12.34925        16.31190
     2020.09308       -11.18841        16.09651
     2020.09582       -11.91513        16.01035
     2020.09856       -11.98386        16.66885
     2020.10130       -12.68458        16.19497
     2020.10403         1.76170        16.52423
     2020.10951       -17.47374        16.09958
     2020.11225        -7.69646        16.35806
     2020.11498       -15.48519        16.66885
     2020.11772        -5.45291        16.96734
     2020.12046        -6.53763        16.54884
     2020.12320       -12.82935        16.09958
     2020.12594       -12.58607        16.18267
     2020.12867       -14.66979        16.18574
     2020.13141       -14.66752        16.25959
     2020.13415       -15.18524        16.29960
     2020.13689       -11.30996        16.33960
     2020.13963       -10.45268        16.27498
     2020.14236        -8.21940        16.47192
     2020.14510        -5.63212        16.28421
     2020.14784       -13.52184        16.23805
     2020.15058       -13.73357        16.25036
     2020.15331       -18.36529        16.02573
     2020.15605       -15.89901        16.50269
     2020.15879       -13.17973        16.61962
     2020.16153       -11.69545        16.17959
     2020.16427       -12.71117        16.15189
     2020.69015        -6.58141        17.93663
     2020.69267        -2.30043        16.78271
     2020.69490        -5.80052        22.29694
     2020.70166        -3.79206        24.57402
     2020.70362        -8.07932        17.26889
     2020.70636        -4.33304        17.88124
     2020.70910        -3.48876        18.10588
     2020.71121        -6.39948        24.09399
     2020.94304        -4.47300        65.45379
     2020.94421       -16.62972        19.07517
     2021.46216       -15.83269        17.59815
     2021.46475       -10.13891        16.49038
     2021.46748       -13.13863        33.53464
     2021.47022        -7.50935        16.67193
     2021.47296       -10.19907        19.43212
     2021.47570       -15.97179        18.74592
     2021.47843       -12.69651        16.61039
     2021.48117       -22.04824        16.47499
     2021.48391       -17.64396        16.91810
     2021.48665       -14.33868        16.49961
     2021.48812         4.89163        66.76157
     2021.49205       -21.17390        49.92040
     2021.51159       -13.36013        20.27218
     2021.51358       -15.30147        20.27218
     2021.51903        -8.42082        20.93992
     2021.52277       -14.75774        21.16455
     2021.52498       -12.06578        16.60731
     2021.52772       -11.28650        16.94887
     2021.52959        -5.94248        27.85425
     2021.53323       -13.92108        18.41359
     2021.53543       -19.42008        24.87866
     2021.53884       -18.51895        33.50387
     2021.54193       -11.86079        20.81991
     2021.54414       -20.95783        16.84425
     2021.54642       -20.48910        20.60759
     2021.54932       -21.71932        23.60472
     2021.55874        -5.15133        41.42442
     2021.55937       -32.82035        58.19790
     2021.56622       -13.88716        17.50891
     2021.56878       -16.54433        16.61039
     2021.57110       -19.51571        20.23525
     2021.57444       -17.26433        26.23875
     2021.57781        -4.43606        25.96181
     2021.57974       -17.13521        16.73963
     2021.58247       -15.37593        16.69655
     2021.58521       -14.13365        16.66270
     2021.59908       -15.05784        21.64458
     2021.60164       -17.86498        18.69669
     2021.60375       -26.98771        27.25421
     2021.61007        -9.59085        21.22917
     2021.61256        -9.17676        16.95810
     2021.61575       -16.80294        19.61367
     2021.61801       -11.68213        17.02888
     2021.62002       -20.63755        28.59584
     2021.62559       -47.40028        42.09216
     2021.64367        -6.00388        30.80522
     2021.64544       -14.24353        16.72424
     2021.64807       -12.80589        17.31813
     2021.65247        41.13508       530.90158
     2021.65646       -14.50363        16.83502
     2021.65896       -11.29359        17.81355
     2021.82290        -6.15282        32.60227
     2021.87373        -4.76073        54.50226
     2021.87434       -14.55169        36.54716
     2021.88942        47.87727       477.27630
     2022.11200       -20.39676        38.07034
     2022.11362       -16.39491        25.53101
     2022.11584       -14.78900        21.54612
     2022.12579       -20.93369        66.98005
     2022.12731       -18.61152        17.02888
     2022.13004       -28.44024        39.49198
     2022.13221       -27.38615        22.33386
     2022.16124        -7.33862        40.86746
     2022.16290       -21.33190        33.53464
     2022.16564       -15.53062        16.89656
     2022.16837        -7.23934        69.91564
     2022.17031       -19.55452        25.22945
     2022.17688       -75.83045       432.30394
     2022.20674       -20.04155        18.40128
     2022.20944        -4.91617        18.44744
     2022.21218       -12.16789        16.86887
     2022.21492       -22.98061        16.79809
     2022.21765       -23.95233        17.30274
     2022.22039       -18.74405        17.95817
     2022.22313       -12.76777        17.12427
     2022.22587       -23.64350        17.21043
     2022.22861       -14.38722        19.17057
     2022.23134       -17.03894        16.86271
     2022.23408       -13.81866        16.78271
     2022.23682       -15.92438        17.12119
     2022.23955       -21.74409        18.38282
     2022.24230       -11.02583        17.13042
     2022.24492       -22.42018        17.26274
     2022.24781       -17.58140        24.40478
     2022.24948       -19.19372        37.34722
     2022.25708        -2.87093        60.76423
     2022.25764        -9.20170        35.56863
     2022.26513       -17.26457        33.15000
     2022.26602       -28.24041        28.45429
     2022.31986       -38.68991        31.95915
     2022.32049       -26.82693        45.68010
