# ================= DQRFIT RESULTS ================
# INPUT FILE: series/BCSS.rad
# OUTPUT: LDETRENDED
# FILTER FUNCTION: f(t)
# f(t)=+line(t)+annual(t)+jumps(t)
# line(t)=+P 1+P 2*t
# annual(t)=+P 3*sin(2*pi*t+P 4)
# jumps(t)=+P 5*heav(t-2012.8438  )
# heav(t)=(t<0?0:1)
# TOTAL OBSERVATIONS MTOT= 3548
# INITIAL TIME INTERVAL= 2022.7239 - 2009.1179 = 13.6060
# TOTAL OBSERVATIONS AFTER PREFILTER M= 3512
# TIME-SPAN= 2022.7239 - 2009.1179 = 13.6060
# OBSERVATIONS: USED M=  3512 REJECTED MTOT-M=    36 %USED=   98.9853
# N=  5 PARAMETERS
# MAXSIG= 175.00000
# MAXRES=  28.23829
# SCALE FACTOR FOR LENGTHS: SCL=  10.00000
# SCALE FACTOR FOR SIGMAS: SCLSIG=   1.00000
# CHI^2=   3387.407 DOF=  3507 CHI^2/DOF=   0.96590
# RMS=      5.768 SDEV=      5.768 MEAN=   -0.06840
#  P #       PARAMETER +-    SIGMA %error PARAMETER NAME
# P 1 =      3271.32908 +-   66.069   2.02 YZERO                              
# P 2 =        -1.61782 +-    0.033   2.03 SLOPE                              
# P 3 =         3.33808 +-    0.129   3.85 ANNUAL AMPLITUDE                   
# P 4 =        -2.93260 +-    0.053   1.82 ANNUAL PHASE                       
# P 5 =       -11.26711 +-    0.332   2.95 OFFSET 2012.8438                   
#       T            LDETRENDED       SIG_OBS
     2009.11794       -40.96651         9.27077
     2009.13710       -43.80252         8.86094
     2009.16722       -45.80779         9.30418
     2009.21275       -34.13013         6.51204
     2011.23887        -4.96523         6.36167
     2011.24161        -2.84880         6.39902
     2011.24435        -1.75137         6.45406
     2011.24709        -5.36994         6.48747
     2011.24982         2.15149         6.48158
     2011.25256         6.68892         6.43637
     2011.25530         2.90235         7.37494
     2011.25804         5.04778         6.90909
     2011.26078         4.96121         6.60148
     2011.26351         6.42664         6.39509
     2011.26625         2.24306         6.43440
     2011.26899         1.25649         6.39018
     2011.27173        -2.72708         6.43342
     2011.27446         1.42235         6.63391
     2011.27720         1.25078         6.71745
     2011.27994         0.59521         6.33416
     2011.28268         3.22464         6.39902
     2011.28542        -9.75893         6.35774
     2011.28815        -9.92050         6.30860
     2011.29089        -1.03507         6.37936
     2011.29426        -1.48663         7.72187
     2011.29637        -2.41821         6.32728
     2011.29911        -2.69878         6.36855
     2011.30184         0.76965         6.34693
     2011.30458        -0.14292         6.34693
     2011.30646        -0.47488        12.40492
     2011.31279        -3.13264         6.33416
     2011.31553        -6.89721         6.34693
     2011.31827        -1.85078         6.32924
     2011.32101        -2.20335         6.33219
     2011.32375        -4.52792         6.32728
     2011.32648        -4.63749         6.31548
     2011.32922        -3.90106         6.30467
     2011.33196         1.05137         6.38919
     2011.33470        -5.51520         6.41671
     2011.33744        -2.42477         6.61819
     2011.34017        -3.37034         6.61032
     2011.34291        -1.06991         6.59263
     2011.34565        -1.02948         6.50516
     2011.34839       -12.38606         6.42064
     2011.35112        -5.77363         6.44423
     2011.35386        -4.61920         6.46487
     2011.35660       -12.59977         6.31941
     2011.35934        -9.97834         6.30959
     2011.36208       -13.47391         6.37936
     2011.36481        -9.63448         6.74595
     2011.36755        -1.33805         6.49533
     2011.37029        -4.66462         6.52482
     2011.37303        -0.72419         6.50516
     2011.37577         0.13924         6.48158
     2011.37850        -9.46133         6.52678
     2011.38124        -6.34290         6.50615
     2011.38398        -7.30947         6.51696
     2011.38672        -5.21104         6.42654
     2011.38945        -1.12462         6.48158
     2011.39219        -5.37619         6.44030
     2011.39493        -5.81576         6.47961
     2011.39767        -5.05633         6.46290
     2011.40041         1.88910         6.45701
     2011.40314        -7.50347         6.59362
     2011.40588         0.91896         6.44423
     2011.40862         0.85139         6.44226
     2011.41136        -7.68118         6.48158
     2011.41410        -6.39975         6.46192
     2011.41683        -4.02032         6.46782
     2011.41957         3.15811         6.44619
     2011.42231        -3.54346         6.46978
     2011.42505        -1.56703         6.57199
     2011.42778        -6.52060         6.54349
     2011.43052        -5.70917         6.45111
     2011.43326        -5.03575         6.50221
     2011.43600         0.66068         6.51499
     2011.43874        -2.45689         6.45701
     2011.44147         1.39854         6.49337
     2011.44421         2.61497         6.47470
     2011.44695        -0.45160         6.46192
     2011.44969        -1.26317         6.47961
     2011.45243        -2.16774         6.46487
     2011.45516         1.05569         6.55037
     2011.45790         0.68012         6.50025
     2011.46064        -4.82545         6.49533
     2011.46338        -4.52802         6.47273
     2011.46611        -1.51259         6.56511
     2011.46885         5.35984         6.58575
     2011.47159         0.24727         6.50320
     2011.47433        -1.39731         6.51794
     2011.47707         3.91712         6.55430
     2011.47980         7.25255         6.53760
     2011.48254         5.47298         6.51303
     2011.48528         4.68941         6.50615
     2011.48802         1.23684         6.51008
     2011.49076         1.56827         6.52187
     2011.49349         1.13670         6.50615
     2011.49623         4.57313         6.52875
     2011.49897         3.49456         6.48059
     2011.50171         0.24699         6.48747
     2011.50444         1.13642         6.49927
     2011.50718        13.29985         6.71843
     2011.50992         5.23128         6.55922
     2011.51266        -2.53529         6.48256
     2011.51540        -0.97987         6.45995
     2011.51813         1.11856         6.48747
     2011.52087         1.36399         6.48256
     2011.52361        -2.43758         6.48846
     2011.52635         2.42085         6.49730
     2011.52908         4.23828         6.66634
     2011.53182        -3.51029         6.54349
     2011.53456        -0.64186         8.34202
     2011.53730        -2.06443         6.47568
     2011.54004        -8.30900         6.46389
     2011.54277        -2.96157         6.46782
     2011.54551         5.26286         6.45995
     2011.54825        -2.81771         6.68698
     2011.55099         4.95572         6.50221
     2011.55373        -4.77785         6.56020
     2011.55646        -7.10343         6.64669
     2011.55920         3.52100         6.53268
     2011.56194         5.36743         6.70762
     2011.56468         4.64886         6.89337
     2011.56741         2.45429         6.51499
     2011.57015         0.59172         6.67912
     2011.57289         3.02615         7.46438
     2011.57563        11.35558         6.50615
     2011.57837         3.85801         6.49632
     2011.58110        -0.03656         6.51499
     2011.58384         2.80787         6.49042
     2011.58658         3.21230         6.76167
     2011.58932        10.25973         7.08993
     2011.59206         0.81716         6.55430
     2011.59479         8.29659         6.53956
     2011.59753        12.20001         6.51106
     2011.60027         9.90844         6.48846
     2011.60301        11.62287         6.71941
     2011.60574         5.61130         6.67912
     2011.60848         6.55873         6.74005
     2011.61122         6.28316         7.25406
     2011.61396         2.18959         6.68698
     2011.61670        12.71502         6.62408
     2011.61943         0.68445         9.89288
     2011.62217        18.48088         7.02703
     2011.62491         3.93331         6.61032
     2011.62765         1.27374         6.55725
     2011.63039         5.31417         6.61032
     2011.63312         8.62960         6.74791
     2011.63586        11.16203         6.74988
     2011.63860         5.81246         6.60737
     2011.64202         5.60999         9.90860
     2011.64407        20.35531         6.76266
     2011.64681         4.63174         6.49337
     2011.64955         7.80517         7.16757
     2011.65229         7.47860         6.71647
     2011.65503         1.99203         6.73612
     2011.65776        -4.36454         6.68010
     2011.66050        11.12889         6.86880
     2011.66227         9.25575        14.40197
     2011.66951        26.85947        13.37495
     2011.67145        10.13561         6.69976
     2011.67419        13.57304         6.82752
     2011.67693         6.49347         6.51892
     2011.67967         0.69190         6.66339
     2011.68240        -1.17168         6.71941
     2011.68514         0.28175         6.72040
     2011.68788        14.88918         6.87764
     2011.69062        -5.39739         6.64177
     2011.69336         3.33204         6.61131
     2011.69609         7.70047         6.69681
     2011.69883        16.54090         7.01229
     2011.70157         4.50733         7.11352
     2011.70431         1.51776         6.60541
     2011.70705         1.59119         6.83342
     2011.70978         7.92862         6.78330
     2011.71252         0.97805         7.08993
     2011.71526        11.30048         6.85995
     2011.71800         3.03491         7.13514
     2011.72073        -3.65066         6.98084
     2011.72347        -4.80524         6.72040
     2011.72621        26.62419         7.03096
     2011.72895        -5.16438         6.53661
     2011.73169         4.32105         6.55332
     2011.73442        -0.01352         6.77150
     2011.73716         2.96091         6.65160
     2011.73990        -4.67766         6.55037
     2011.74264         0.63377         6.67420
     2011.74503        11.20365         7.69239
     2011.74851       -18.39373         9.19018
     2011.75085        -2.49794         7.10271
     2011.75359         0.60349         7.21081
     2011.75633         4.12692         6.81180
     2011.75906         1.43635         6.68207
     2011.76180         1.74178         6.69386
     2011.76454         0.45920         6.71450
     2011.76728         7.84663         7.13514
     2011.77002        14.36806         7.13317
     2011.77275        14.45649         6.69681
     2011.77549        -1.62708         6.73710
     2011.77823         5.28735         6.79018
     2011.78097         2.58678         6.74005
     2011.78371        -2.00179         6.70074
     2011.78644         5.34664         6.70074
     2011.78918         9.36407         6.79902
     2011.79192         3.60750         6.82261
     2011.79466         1.86793         6.96413
     2011.79739         8.76336         6.85013
     2011.80287        -0.74778         6.83440
     2011.80561        -0.10836         6.97101
     2011.80835        11.68407         6.88551
     2011.81108         2.49950         6.74791
     2011.81382        -8.15207         7.70222
     2011.81656         1.10336         7.13612
     2011.82203         2.94022         6.90025
     2011.82477         2.73265         6.04423
     2011.82751        -4.25192         5.49288
     2011.83025        -3.70549         5.32580
     2011.83299        -4.38306         5.40246
     2011.83532        -2.20528         6.33416
     2011.83846       -14.38020         5.32285
     2011.84120         1.61323         5.24521
     2011.84394        -0.35434         5.25209
     2011.84668        -3.84891         5.23833
     2011.84941        -0.80149         5.28845
     2011.85215        -7.36506         5.32580
     2011.85489        -0.67863         5.44767
     2011.86036         9.73223         5.31597
     2011.86310         8.99166         5.34054
     2011.86584        11.64309         5.37494
     2011.86801        27.65060         7.09190
     2011.92060        -4.27732         5.38673
     2012.07666        -2.77285         5.14398
     2012.07939         0.33058         5.16855
     2012.08213        -2.40199         5.18329
     2012.08487        -7.27656         5.11450
     2012.09034        -4.70970         5.15086
     2012.09308       -21.69427         5.09091
     2012.09622        -6.32320         6.38231
     2012.09861       -11.77832         6.53563
     2012.10130       -17.69899         5.29337
     2012.10346         0.60452         7.12826
     2012.10677        -8.14113         5.18035
     2012.10997        -5.00596         6.52973
     2012.11225        -6.74927         5.17642
     2012.11498        -5.40984         5.19214
     2012.11772        -1.87141         5.13514
     2012.12046         1.77302         5.16069
     2012.12320       -11.87955         5.20393
     2012.12594        -8.86112         5.14693
     2012.12867        -9.95869         5.15676
     2012.13141       -11.06026         5.15479
     2012.13415        -4.69883         5.17347
     2012.13689        -4.07040         5.15283
     2012.13963        -2.13298         5.34349
     2012.14236         0.55945         5.30615
     2012.14510        -9.10012         5.16560
     2012.14784       -12.79369         5.11548
     2012.15058        -1.42226         5.13710
     2012.15331        -7.34083         5.19902
     2012.15605        -4.96040         5.17150
     2012.15879        -3.83597         5.19804
     2012.16153       -18.34654         5.11352
     2012.16427        -8.80311         5.27666
     2012.16700        -2.91368         5.20295
     2012.16974        -8.68925         5.10664
     2012.17248        -5.06482         5.11646
     2012.17522        -4.16939         5.09288
     2012.17796        -4.07496         5.14890
     2012.18069        -2.67354         5.34841
     2012.18343        -4.36011         5.16266
     2012.18617        -8.91668         5.44963
     2012.18891        -3.27025         5.12924
     2012.19164        -2.43482         5.12728
     2012.19438         5.11361         5.19214
     2012.19712         6.48404         5.14300
     2012.19986        -1.85553         5.18723
     2012.20260        -2.34510         5.35332
     2012.20533         0.50133         5.12826
     2012.20807        -1.97624         5.16757
     2012.21081        -3.27181         5.14693
     2012.21355        -2.34038         5.15479
     2012.21629        -0.09495         5.14202
     2012.21902         0.43448         5.14791
     2012.22176        -5.04410         5.15872
     2012.22450        -9.82067         5.11745
     2012.22724        -4.45724         5.10467
     2012.22997        -2.63981         5.13317
     2012.23271        -3.84638         5.10958
     2012.23545         2.60905         5.12531
     2012.23819        -0.18652         5.15872
     2012.24093         0.77291         5.14398
     2012.24366         3.58334         5.14202
     2012.24640        -2.77023         5.10369
     2012.24914         3.72520         5.10172
     2012.25188        -4.90437         6.09533
     2012.25439        -5.65931         5.70418
     2012.26009        -9.30308         5.12236
     2012.26283        -8.26665         5.09484
     2012.26557       -12.54023         5.30418
     2012.26830       -13.71680         5.07617
     2012.27104        -3.61137         6.88452
     2012.27378        -5.12294         5.11843
     2012.27652        -7.28851         5.12138
     2012.27926        -1.78408         5.19214
     2012.28199       -11.33865         5.07912
     2012.28473        -8.07722         5.09386
     2012.28747         0.96521         5.11646
     2012.29021        -5.77336         5.09484
     2012.29295        -8.09393         5.09976
     2012.29568        -8.40350         5.08403
     2012.29842        -7.42507         5.10074
     2012.30116        -2.56764         5.13219
     2012.30937        -8.42136         5.12236
     2012.31211        -5.63593         5.44472
     2012.31485        -7.27550         5.27470
     2012.31759        -8.94607         5.29632
     2012.32032        -0.85164         5.26683
     2012.32306        -5.16921         5.05062
     2012.32580        -5.99378         5.08698
     2012.32854        -5.42735         5.06536
     2012.33128        -5.63592         5.18428
     2012.33401        -4.83449         5.16364
     2012.33675        -3.88106         5.06339
     2012.33949        -5.06063         5.04275
     2012.34223        -6.23820         5.05946
     2012.34496        -7.14777         5.08796
     2012.34770        -3.75135         5.15185
     2012.35044        -1.63592         5.15185
     2012.35318        -5.95549         5.08993
     2012.35592        -1.51806         5.08305
     2012.35865        -3.59363         5.10172
     2012.36139        -1.10520         5.14595
     2012.36413        -1.59377         5.15971
     2012.36687        -4.18534         5.09288
     2012.36961        -2.78191         5.07322
     2012.37234         1.27252         5.07617
     2012.37508        -3.12705         5.09386
     2012.37782        -0.79962         5.21081
     2012.38056        -5.56719         5.19411
     2012.38329        -2.19276         5.17642
     2012.38603        -1.82033         5.22162
     2012.38877        -3.81791         5.20885
     2012.39151         0.61552         5.20885
     2012.39425        -1.98405         5.18919
     2012.39698        -2.12862         5.18821
     2012.39972        -3.13219         5.29337
     2012.40246         1.95024         5.08403
     2012.40520        -0.42533         5.09288
     2012.40794        -0.68590         5.08010
     2012.41067        -0.27147         5.16167
     2012.41341        -4.68004         5.09681
     2012.41615         2.59539         5.07814
     2012.41889         2.60282         5.22162
     2012.42162         0.78225         5.11941
     2012.42436        -1.84832         5.06831
     2012.42710        -1.59889         5.08600
     2012.42984         2.81853         5.08895
     2012.43258         2.90696         5.15086
     2012.43531        -4.27261         5.10369
     2012.43805        -3.55918         5.10467
     2012.44079        -4.52175         5.13219
     2012.44353        -3.86832         5.13415
     2012.44626        -1.53889         5.07519
     2012.44900        -2.35846         5.11253
     2012.45174         1.02297         5.10467
     2012.45448        -1.44660         5.20197
     2012.45995        -0.45574         5.19509
     2012.46269         1.12869         5.12433
     2012.46543        -2.08488         5.17150
     2012.46817         0.26055         5.22162
     2012.47091         0.03398         5.12924
     2012.47364        -0.01260         5.13022
     2012.47638        -5.39617         5.10074
     2012.47912         1.51326         5.12236
     2012.48186        -1.80031         5.11352
     2012.48459        -0.95288         5.10172
     2012.48733        -1.85745         5.10958
     2012.49007        -6.60402         5.09976
     2012.49281         0.27241         5.10467
     2012.49555        -1.13416         5.12728
     2012.49828        -2.07973         5.12138
     2012.50102         2.07970         5.14300
     2012.50376         1.77513         5.08108
     2012.50650         0.16156         5.06929
     2012.50924        -2.10201         5.22064
     2012.51197        -0.28158         5.27863
     2012.51471        -0.48716         5.15479
     2012.51745        -0.90173         5.13219
     2012.52019        -2.69130         5.10664
     2012.52292       -10.46087         5.20000
     2012.52566        -5.30944         5.09386
     2012.52840         1.17499         5.15578
     2012.53114         1.63542         5.14890
     2012.53388        -4.32815         5.20492
     2012.53633         0.85482         6.19067
     2012.53952         4.10899         5.63833
     2012.54209         9.88814         5.17543
     2012.54483        -0.14343         5.18624
     2012.54757         5.07700         5.20295
     2012.55030         8.92943         5.36511
     2012.55304        10.45786         5.16167
     2012.55578        -2.66872         5.12040
     2012.55852        -2.83329         5.17150
     2012.56125         5.08614         5.13317
     2012.56399         5.11257         5.16069
     2012.56673         1.52400         5.11155
     2012.56947         6.83443         5.12040
     2012.57221         6.74186         5.10958
     2012.57494         2.69729         5.10860
     2012.57768         5.77172         5.12040
     2012.58042         5.63315         5.16560
     2012.58316         2.54258         5.17936
     2012.58590         5.69101         5.12924
     2012.58863        10.66544         5.30418
     2012.59137         8.69287         5.31597
     2012.59411         5.59630         5.22359
     2012.59685         2.01872         5.13907
     2012.59958         8.73015         5.31597
     2012.60232        15.54058         5.45160
     2012.60506         4.02301         5.15872
     2012.60780         3.61544         5.09681
     2012.61054         5.97487         5.17248
     2012.61327         9.26730         5.10664
     2012.61601        12.94373         5.22064
     2012.61875         6.39416         5.18919
     2012.62149         3.72359         5.13121
     2012.62423         6.22502         5.13809
     2012.62674         1.18309         5.49976
     2012.63791         8.68316         5.12924
     2012.64065         9.39559         5.13907
     2012.64337         8.02699         5.21573
     2012.64887         7.47788         5.16855
     2012.65160         6.49931         5.13022
     2012.65434         5.32174         5.06143
     2012.65708         8.90517         5.25602
     2012.65982         5.82660         5.38968
     2012.66256         4.82403         5.12728
     2012.66529         0.58446         5.08207
     2012.66803         7.59289         5.23833
     2012.67077         9.44332         5.13219
     2012.67351         7.63975         5.22359
     2012.67624        10.93818         5.20787
     2012.67898         6.85861         5.27175
     2012.68138        -6.05252         5.76511
     2012.68446         6.84446         5.12728
     2012.68720         3.00889         5.14890
     2012.68993        12.48932         5.33170
     2012.69267        11.79275         5.34939
     2012.69541         2.04818         5.28452
     2012.69815         2.42661         5.29533
     2012.70089        19.96304         5.40246
     2012.70362        -6.11353         5.45946
     2012.70636         3.55490         5.19804
     2012.70910        -2.69267         5.12531
     2012.71184         9.10776         5.17838
     2012.71457         8.59119         5.14890
     2012.71731         4.53862         5.14791
     2012.72005         8.72005         5.17052
     2012.72279        10.42147         5.15971
     2012.72553        11.77890         5.08698
     2012.72826         5.32133         5.63538
     2012.73100        -1.73924         5.28649
     2012.73374         2.88619         5.25307
     2012.73648        10.72562         5.25504
     2012.73921         6.90505         5.75135
     2012.74195        -2.85052         5.20590
     2012.74469         4.26991         5.17347
     2012.74743        16.31934         5.19017
     2012.75017        13.72477         5.81032
     2012.75290         5.20020         5.18624
     2012.75564         5.31863         5.16266
     2012.75838         5.32906         5.16167
     2012.76112         7.44649         5.18821
     2012.76386        -0.01109         5.18821
     2012.76659         3.33934         5.23244
     2012.76933         9.14277         5.36610
     2012.77207         0.21220         5.19902
     2012.77481         7.05063         5.16266
     2012.77754         7.57006         5.20197
     2012.78028        18.16949         5.29533
     2012.78302        11.72592         5.38772
     2012.78576        -0.46665         5.52826
     2012.78850         5.22278         5.23047
     2012.79123         1.90621         5.34546
     2012.79397        10.22264         5.22261
     2012.79671         7.19507         5.22654
     2012.79945         4.66950         5.21180
     2012.80219         4.70493         5.23440
     2012.80492         2.93935         5.23342
     2012.80766         3.59978         5.67371
     2012.81040         1.83121         5.19116
     2012.81314        -1.62736         5.21966
     2012.81587         0.74807         5.19509
     2012.81861        -1.03750         5.27666
     2012.82135         4.25493         5.19705
     2012.82409         7.28136         8.33219
     2012.82683        -0.47421         5.22654
     2012.82956         4.72022         5.20787
     2012.83230         2.37665         5.21868
     2012.83504        -1.68792         5.30811
     2012.83772        11.33441         5.45160
     2012.84046         6.57784         5.47027
     2012.84299        -0.57006         6.09730
     2012.84873        -1.45778         5.75823
     2012.85147        -6.60535         5.18231
     2012.85505         0.73744         8.68797
     2012.85694        -2.69949         5.18329
     2012.85968         1.64794         5.24226
     2012.86242         0.27237         5.23145
     2012.86516         4.66680         5.20688
     2012.86789        -1.89577         5.35332
     2012.87063       -15.24534         5.46339
     2012.87337        -7.97391         5.29042
     2012.87611         4.73752         5.22654
     2012.87885         2.94695         5.24718
     2012.88118        11.33373         7.61180
     2012.89338        -8.06455         8.48158
     2012.89486        -8.63414         6.36069
     2012.90622        -2.47176         5.20590
     2012.90896        -3.16833         5.30811
     2012.91170        -6.28890         5.28059
     2012.91444        -4.96447         5.20787
     2012.91718         1.33296         5.20590
     2012.91991        -2.00061         5.15479
     2012.92265        -3.44118         5.19607
     2012.92539         1.02225         5.18723
     2012.92813        -9.21832         5.20983
     2012.93086        -5.69990         5.33563
     2012.93360         1.01753         5.36118
     2012.93634        -3.23904         5.13121
     2012.93908        -0.32861         5.25504
     2012.94182         2.87982         5.17248
     2012.94455         5.41225         5.20197
     2012.94729         0.20568         5.30221
     2012.95003        -1.84589         5.31597
     2012.95277        -2.89046         5.17543
     2012.95551        -2.36303         5.24423
     2012.95824         2.25440         5.11745
     2012.96098        -6.06817         5.27076
     2012.96372        -6.64174         5.25701
     2012.96646         2.50269         5.15086
     2012.96919       -15.81588         5.23637
     2012.97193       -10.56946         5.26290
     2012.97467        -5.43603         5.13317
     2012.97741        -3.75960         5.18624
     2012.98015       -10.34817         5.12826
     2012.98183        -2.29244        10.77445
     2012.98929        -9.97438         8.74988
     2012.99110        -2.19445         5.20099
     2012.99384        -5.97502         5.16855
     2012.99657        -3.72959         5.27470
     2012.99931        -5.67016         5.25209
     2013.00205        -4.91773         5.22457
     2013.00479        -7.52830         5.23145
     2013.00752       -12.33787         5.24325
     2013.01026        -7.38144         5.20295
     2013.01300        -7.13702         5.30418
     2013.01574        -7.65159         5.21769
     2013.01848        -2.25816         5.30516
     2013.02121        -9.06673         5.23440
     2013.02395        -9.00930         5.16167
     2013.02669        -8.92287         5.33366
     2013.02943       -13.42244         5.21081
     2013.03216        -9.78501         5.20787
     2013.03490       -16.04158         5.23244
     2013.03764       -16.27615         5.18329
     2013.04038       -15.01972         5.16757
     2013.04312       -16.10529         5.33661
     2013.04585        -0.71886         5.45258
     2013.04859       -16.80543         5.41425
     2013.05133       -11.15100         5.20492
     2013.05407        -6.64058         5.16462
     2013.05681       -11.90015         5.14791
     2013.05954        -3.64972         5.35823
     2013.06148         2.47042         7.94300
     2013.07871         2.86229         8.51204
     2013.08145        -5.05128         8.84423
     2013.08418        -4.41785         5.30123
     2013.08692       -10.30342         5.18329
     2013.08966       -10.40099         5.26192
     2013.09240        -4.86356         5.20393
     2013.09514        -5.60413         5.58035
     2013.09787        -6.47871         5.38772
     2013.10061        -2.18528         5.45455
     2013.10335       -10.98885         5.20590
     2013.10609        -5.73942         5.15774
     2013.10882       -11.94199         5.14693
     2013.11156       -18.40356         5.27568
     2013.11430        -7.02613         5.15086
     2013.11704       -16.28670         5.26978
     2013.11978       -10.48627         5.49091
     2013.12251        -7.88484         5.14398
     2013.12525       -12.71241         5.24619
     2013.12799        -8.93298         5.15676
     2013.13073       -10.49155         5.14595
     2013.13347        -8.32012         5.13514
     2013.13620       -12.20269         5.15872
     2013.13866        -8.11673         5.71990
     2013.14168        -2.19584         5.26487
     2013.14442        -1.66841         5.36020
     2013.14715         2.82002         5.37101
     2013.14989       -15.31055         5.17838
     2013.15263       -14.98312         5.12826
     2013.15537       -20.22569         5.20492
     2013.15811       -18.90026         5.18919
     2013.16084       -13.44283         5.26880
     2013.16358       -18.89340         5.20295
     2013.16632       -18.48897         5.22359
     2013.16906       -13.44754         5.15479
     2013.17180       -13.95511         5.16757
     2013.17453       -16.53868         5.14988
     2013.17727       -18.16625         5.30025
     2013.18001       -11.52683         5.32777
     2013.18275       -10.27640         5.18723
     2013.18548       -10.19197         5.18035
     2013.18822       -11.66354         5.16069
     2013.19096       -10.41711         5.12334
     2013.19370        -8.71468         5.14890
     2013.19644        -9.75125         5.13809
     2013.19917       -11.22482         5.11352
     2013.20183       -10.67852         5.34644
     2013.20821        -1.18719         8.20836
     2013.21013       -12.98610         5.15185
     2013.21286       -11.22967         5.08501
     2013.21560        -9.89324         5.10467
     2013.21834       -10.96581         5.10074
     2013.22108       -13.70839         5.13710
     2013.22381       -11.04896         5.14202
     2013.22655       -16.58553         5.13022
     2013.22929       -11.86410         5.12826
     2013.23203       -16.26267         5.08698
     2013.23477       -13.85524         5.06634
     2013.23750       -16.63881         5.29632
     2013.24024       -16.67038         5.24325
     2013.24298       -12.91395         5.22752
     2013.24572        -6.81952         5.20295
     2013.24846        -7.38509         5.20393
     2013.25119        -9.65366         5.26880
     2013.25393       -12.92423         5.22162
     2013.25667       -11.86080         5.33465
     2013.25941        -5.77037         5.20688
     2013.26214        -5.13195         5.24226
     2013.26488       -10.43052         5.20000
     2013.26762       -10.55509         5.19017
     2013.27036        -5.41966         5.49779
     2013.27310        -8.97723         5.36904
     2013.27583       -10.19080         5.32973
     2013.27857        -8.77337         5.36708
     2013.28131        -6.72194         5.21671
     2013.28405       -10.37351         5.18624
     2013.28679        -8.84808         5.17936
     2013.28952       -16.16165         5.22457
     2013.29226       -12.26022         5.20197
     2013.29500       -11.46579         5.20492
     2013.29774       -17.56636         5.20590
     2013.30047       -16.41393         5.15676
     2013.30321       -17.42650         5.15381
     2013.30595       -17.03208         5.19902
     2013.30869       -19.47965         5.18329
     2013.31143       -17.68722         5.26094
     2013.31416        -4.90979         5.30615
     2013.31690        -9.93036         5.26388
     2013.31922       -12.32161         6.57691
     2013.32591        -4.03578         8.06978
     2013.32785       -14.74664         5.22064
     2013.33059       -13.24221         5.25799
     2013.33333       -11.98778         5.23244
     2013.33607       -16.56835         5.19607
     2013.33880        -8.75992         5.23637
     2013.34154       -12.11049         5.20492
     2013.34428       -14.90306         5.21573
     2013.34702       -10.15464         5.18723
     2013.34976       -12.84621         5.18329
     2013.35249       -15.35278         5.20000
     2013.35523       -13.75635         5.32187
     2013.35797       -10.15692         5.37199
     2013.36071        -8.74049         5.26094
     2013.36344        -6.61006         5.20983
     2013.36618        -6.52963         5.23342
     2013.36886        -7.68629         5.31008
     2013.37166       -14.72477         5.20099
     2013.37440       -10.26034         5.23637
     2013.37713       -15.36091         5.22949
     2013.37987       -14.08648         5.24718
     2013.38261       -12.36905         5.23440
     2013.38535       -11.94862         5.23735
     2013.38809        -9.52020         5.26487
     2013.39082        -7.91977         5.26192
     2013.39356        -8.05834         5.20197
     2013.39630       -11.99891         5.26782
     2013.39904       -12.48448         5.24914
     2013.40177       -10.40805         5.23342
     2013.40451        -7.54762         5.23244
     2013.40725        -5.89219         5.21081
     2013.40999       -11.44676         5.21769
     2013.41273        -5.14133         5.26290
     2013.41546        -8.47590         5.57642
     2013.41820        -8.21547         5.20787
     2013.42094        -3.54504         5.28944
     2013.42368        -9.45361         5.29435
     2013.42642       -13.74518         5.24816
     2013.42915        -2.31176         5.41425
     2013.43189        -6.76633         5.28944
     2013.43463        -4.02690         5.24128
     2013.43737       -11.43347         5.18428
     2013.44010        -9.70304         5.20787
     2013.44284       -12.08361         5.24619
     2013.44558       -14.83218         5.34742
     2013.44832       -13.43975         5.23244
     2013.45106        -9.71532         7.43391
     2013.45379        -4.67689         5.22850
     2013.45653        -9.30646         5.24914
     2013.45927        -7.19803         5.26192
     2013.46201        -5.06060         5.24521
     2013.46475       -12.05117         5.23342
     2013.46748       -14.12874         5.20393
     2013.46985        -4.37192         6.17592
     2013.47570        -6.78046         5.22457
     2013.47843       -11.98103         5.22064
     2013.48117        -3.90460         5.17740
     2013.48391        -1.47817         5.22752
     2013.48665       -12.47974         5.18428
     2013.48939        -7.52531         5.26683
     2013.49212        -7.64788         5.50271
     2013.49486        -9.31745         5.28452
     2013.49760        -7.31502         5.23538
     2013.50034       -14.27359         5.16659
     2013.50308       -12.62716         5.21966
     2013.50581        -7.07273         5.23538
     2013.50855        -6.57730         5.26192
     2013.51129        -0.02087         5.28158
     2013.51403        -5.35545         5.20787
     2013.51676       -12.08702         5.37986
     2013.51950        -5.53359         5.25701
     2013.52224        -5.88616         5.24423
     2013.52498        -6.07773         5.34054
     2013.52772        -5.68730         5.18428
     2013.53045        -6.24087         5.14300
     2013.53319       -10.30044         5.22850
     2013.53593       -10.46501         5.20983
     2013.53867       -12.98158         5.21278
     2013.54141        -7.46515         5.15086
     2013.54414        -3.89872         5.15185
     2013.54688        -7.29429         5.17740
     2013.54962        -4.61586         5.16757
     2013.55236        -1.30643         5.20295
     2013.55509       -10.27701         5.21474
     2013.55782        -3.85359         5.18133
     2013.56148         7.99232         9.98035
     2013.56331        -1.27272         5.36413
     2013.56605        -8.68529         5.16364
     2013.56878        -3.55486         5.24030
     2013.57152        -2.05143         5.14595
     2013.57426        -4.11500         5.14103
     2013.57700        -4.65957         5.15185
     2013.57974       -12.37214         5.15381
     2013.58247        -6.55071         5.13809
     2013.58521        -5.28028         5.13317
     2013.58795        -3.64385         5.15086
     2013.59069        -4.56242         5.23440
     2013.59342        -0.52999         5.29140
     2013.59616        -3.65557         5.17150
     2013.59890        -7.51214         5.16069
     2013.60164        -5.38771         5.33563
     2013.60438        -2.79428         5.15872
     2013.60711        -7.16585         5.17445
     2013.60985        -2.40842         5.15774
     2013.61259        -9.67599         5.16462
     2013.61533        -1.81456         5.31302
     2013.61807        -6.94313         5.29337
     2013.62080         1.47230         5.27371
     2013.62354        -6.16127         5.19116
     2013.62628        -2.23184         5.25307
     2013.62902         2.00559         5.25406
     2013.63175        -3.17998         5.26880
     2013.63449        -3.49455         5.27470
     2013.63723        -2.92713         5.33465
     2013.63997         1.04330         5.25307
     2013.64271        -4.33527         5.19312
     2013.64544        -7.89984         5.22850
     2013.64818        -7.71941         5.21868
     2013.65092         1.79602         5.19411
     2013.65366        -5.33055         5.25602
     2013.65639        -0.91612         5.21573
     2013.65913        -3.38969         5.31106
     2013.66187       -11.54926         5.28944
     2013.66461        -8.64283         5.31106
     2013.66735        -2.41140         5.22654
     2013.67008        -2.29397         5.16167
     2013.67282        -3.97454         5.29632
     2013.67556        -6.78811         5.27666
     2013.67830        -3.88469         5.28158
     2013.68104        -5.23526         5.18723
     2013.68377        -7.54983         5.25504
     2013.68651         9.89560         5.62752
     2013.68925       -12.67797         5.16659
     2013.69199        -4.30554         5.18723
     2013.69472        -7.95611         5.19509
     2013.69746        -6.88768         5.26487
     2013.70020        -7.57425         5.17150
     2013.70294        -7.48782         5.17347
     2013.70568        -1.94739         5.13809
     2013.70841        -5.05996         5.21769
     2013.71115        -0.65553         5.23145
     2013.71389       -11.17310         5.22949
     2013.71663        -6.72167         5.28452
     2013.71937        -5.68224         5.29239
     2013.72210         1.14118         5.16659
     2013.72484        -0.03539         5.23440
     2013.72758         0.24204         5.28354
     2013.73032        -8.07053         5.27175
     2013.73305       -14.16110         5.14693
     2013.73579        -8.32667         5.31106
     2013.73853         0.48076         5.20295
     2013.74127        -2.75081         5.19902
     2013.74401         0.52162         5.34054
     2013.74674        -4.20995         5.19705
     2013.74948        -5.90552         5.19116
     2013.75222        -9.70109         5.27470
     2013.75496       -12.44266         5.20197
     2013.75770        -9.24323         5.38182
     2013.76043       -11.69380         5.26782
     2013.76317       -11.52138         5.38084
     2013.76591        -4.48995         5.30713
     2013.76865        -9.52252         5.16266
     2013.77138         9.08991         5.72187
     2013.77412        -3.00766         5.23931
     2013.77686        -5.95923         5.19607
     2013.77960       -12.40680         5.14693
     2013.78234       -14.38337         5.18133
     2013.78507        -7.12894         5.20099
     2013.78781       -12.04551         5.29239
     2013.79055        -9.20608         5.22850
     2013.79329        -8.84965         5.16954
     2013.79603        -6.89622         5.16069
     2013.79876       -11.28979         5.23440
     2013.80150        -7.25036         5.29042
     2013.80367        -0.81186         6.74005
     2013.81793        -8.93379         5.33759
     2013.82067        -8.50536         5.18231
     2013.82340       -10.26493         5.19017
     2013.82614       -17.04650         5.39165
     2013.82888        -1.80707         5.58723
     2013.83162        -7.26464         5.30713
     2013.83436        -1.53821         5.33759
     2013.83709       -13.89278         5.25307
     2013.83983        -5.22635         5.27175
     2013.84257        -6.10992         5.29828
     2013.84531        -8.35650         5.35529
     2013.84804        -0.97107         5.26782
     2013.85078        -8.66364         6.33416
     2013.85352        -4.20521         5.20197
     2013.85626        -9.93678         5.36216
     2013.85900       -10.03035         5.17740
     2013.86173       -14.76092         5.37986
     2013.86447        -6.48949         5.21180
     2013.86721       -15.65406         5.21081
     2013.86995       -14.75563         5.16757
     2013.87269        -0.32220         5.26585
     2013.87542        -6.97577         5.17150
     2013.87816        -1.46134         5.20983
     2013.88090         0.00609         5.24030
     2013.88364        -3.14748         5.40934
     2013.88637        -8.36706         5.21376
     2013.88911        -9.21463         5.24325
     2013.89185       -10.75020         5.24226
     2013.89459        -8.91177         5.25995
     2013.89733        -5.42934         5.24816
     2013.90006        -3.78691         5.42015
     2013.90280       -10.35548         5.36118
     2013.90554       -13.08105         5.23735
     2013.90828       -15.65362         5.22949
     2013.91102       -13.57519         5.16757
     2013.91375       -15.08476         5.16266
     2013.91649        -9.73333         5.17445
     2013.91923       -10.53690         5.25209
     2013.92197       -14.57647         5.27470
     2013.92571       -22.37141        10.02949
     2013.92744       -13.56161         5.22949
     2013.93018       -14.30519         5.22162
     2013.93292       -14.82076         5.19607
     2013.93566       -11.85733         5.22064
     2013.93839       -10.31890         5.20688
     2013.94113       -14.22047         5.18035
     2013.94387        -6.36404         5.22261
     2013.94661       -13.74061         5.23833
     2013.94935       -12.18318         5.23145
     2013.95208        -2.23575         5.34251
     2013.95482        -9.95532         5.24128
     2013.95756       -14.25189         5.19411
     2013.96030       -13.95546         5.31794
     2013.96303       -18.19303         5.17248
     2013.96577        -7.22460         5.25504
     2013.96851        -1.63217         5.23342
     2013.97125        -4.73175         5.22949
     2013.97399       -12.76732         5.30909
     2013.97672       -14.15089         5.22850
     2013.97946       -12.82046         5.27175
     2013.98220        -6.70203         5.32089
     2013.98494        -6.75260         5.25013
     2013.98767       -20.16217         5.21278
     2013.99041       -22.95874         5.20492
     2013.99315       -25.00531         5.32089
     2013.99589       -19.79788         5.39853
     2013.99863       -14.83045         5.25897
     2014.00136       -27.37502         5.24521
     2014.00410       -15.59459         5.25897
     2014.00684       -18.22816         5.25701
     2014.00958       -16.11973         5.20688
     2014.01232       -13.68131         5.29533
     2014.01505       -12.39788         5.37298
     2014.01779       -15.69145         5.28845
     2014.02053       -11.65002         5.21573
     2014.02327        -8.93659         5.35332
     2014.02600        -4.95216         5.40836
     2014.02874        -8.15573         5.21278
     2014.03148        -5.60830         5.23538
     2014.03422        -5.29287         5.27666
     2014.03696       -11.69744         5.27175
     2014.03969        -4.65401         5.42212
     2014.04243        -1.92758         5.47912
     2014.04517        -7.38615         5.40737
     2014.04791        -5.57972         5.38772
     2014.05065       -16.41529         5.13514
     2014.05338       -10.65287         5.22850
     2014.05612       -11.10644         5.36118
     2014.05886       -15.35801         5.23047
     2014.06160       -15.65758         5.18624
     2014.06433       -14.72215         5.31106
     2014.06707       -11.73972         5.36315
     2014.06981       -15.99429         5.35627
     2014.07255       -12.81386         5.18428
     2014.07529       -13.39343         5.15676
     2014.07802       -15.51800         5.22654
     2014.08076       -12.38157         5.21180
     2014.08350       -10.50014         5.19411
     2014.08624       -14.51171         5.23538
     2014.08882       -11.35554         5.64914
     2014.09274        -8.21819        11.82605
     2014.09445       -13.61943         5.21671
     2014.09719       -14.67500         5.28256
     2014.09993        -9.25257         5.18526
     2014.10266       -10.95714         5.33858
     2014.10540        -9.85071         5.20393
     2014.10814       -11.96828         5.19411
     2014.11088       -17.41485         5.46044
     2014.11362        -6.24842         5.29828
     2014.11635        -7.43099         5.22359
     2014.11909       -10.84356         5.81917
     2014.12183       -11.69713         5.27076
     2014.12457        -9.48770         5.25897
     2014.12731        -7.15727         5.23047
     2014.13004        -1.92184         5.28059
     2014.13278        -4.20341         5.51941
     2014.13552        -5.12398         5.62654
     2014.14099        -9.28213         5.25602
     2014.14373        -9.58270         5.29239
     2014.14647        -7.59427         5.31204
     2014.14921        -7.17384         5.31499
     2014.15195        -6.87841         5.36020
     2014.15468       -13.52298         5.35135
     2014.15742        -8.23855         5.41917
     2014.16016       -13.08412         5.52826
     2014.16290       -13.09769         5.27961
     2014.16564       -13.97426         5.29927
     2014.16837       -12.56883         5.45553
     2014.17111       -11.59940         5.49877
     2014.17385        -9.32897         5.42113
     2014.17659       -13.75254         5.26683
     2014.17932       -10.75612         5.53809
     2014.18206        -6.73069         5.47224
     2014.18480       -11.68726         5.37396
     2014.18754       -12.13983         5.32875
     2014.19028       -10.02340         5.32285
     2014.19301        -7.76497         5.32580
     2014.19575       -13.56354         5.34546
     2014.19849       -14.04711         5.37986
     2014.20123       -12.72668         5.36610
     2014.20397       -14.48025         5.27273
     2014.20670       -14.07982         5.25995
     2014.20944        -9.61139         5.26487
     2014.21218       -16.76496         5.27863
     2014.21492       -12.21153         5.37789
     2014.21765       -13.05810         5.25701
     2014.22039       -14.58768         5.22064
     2014.22313       -13.57625         5.24128
     2014.22587       -15.13282         5.26880
     2014.22861        -8.20539         5.28354
     2014.23134       -11.89796         5.22556
     2014.23408       -11.12553         5.22654
     2014.23682       -11.53110         5.23342
     2014.23956       -19.25267         5.33563
     2014.24230       -16.52024         5.23931
     2014.24503       -22.28181         5.21966
     2014.24777       -16.23738         5.45160
     2014.25051       -16.29995         5.19705
     2014.25325       -14.73452         5.21474
     2014.25598       -15.52609         5.39755
     2014.25872       -14.02666         5.23538
     2014.26146       -14.47424         5.33170
     2014.26420       -16.47681         5.20885
     2014.26694       -12.60938         5.30615
     2014.26967       -16.92295         5.22162
     2014.27241       -17.77052         5.35725
     2014.27515       -13.28609         5.42113
     2014.27789       -22.43066         5.34546
     2014.28062       -17.01823         5.21671
     2014.28336       -13.59780         5.31892
     2014.28610       -11.80637         5.36904
     2014.28884       -18.29994         5.46831
     2014.29158       -20.30451         5.25504
     2014.29431       -20.54308         5.21376
     2014.29705       -14.64565         9.63735
     2014.29979       -16.56722         5.34841
     2014.30253       -18.40880         5.25602
     2014.30527       -18.40437         5.23145
     2014.30800       -17.93294         5.22654
     2014.31074       -14.41551         5.18821
     2014.31348       -16.44308         5.24914
     2014.31622        -9.10565         5.28354
     2014.31895       -12.11122         5.22949
     2014.32169       -16.84879         5.32973
     2014.32443       -18.39336         5.32384
     2014.32717       -17.25893         5.37691
     2014.32991       -14.79950         5.23145
     2014.33264       -18.09007         5.34251
     2014.33538       -18.54164         5.21180
     2014.33812       -17.54921         5.28845
     2014.34086       -14.55778         5.26094
     2014.34360       -17.84235         5.22949
     2014.34633       -17.39593         5.33170
     2014.34907       -18.75050         5.39951
     2014.35181       -12.33207         5.34251
     2014.35455       -11.69864         5.20099
     2014.35728       -17.62721         5.20197
     2014.36002       -13.74878         5.34054
     2014.36276       -12.80235         5.29140
     2014.36550       -16.32292         5.23833
     2014.36824       -21.20249         5.28551
     2014.37097       -10.72606         5.22556
     2014.37371       -13.76863         5.22457
     2014.37645       -13.60020         5.22752
     2014.37919       -11.34277         5.34054
     2014.38193       -14.58134         5.29828
     2014.38466       -13.23491         5.27076
     2014.38740       -14.69149         5.33956
     2014.39014       -14.43706         5.30123
     2014.39288       -18.06363         5.33563
     2014.39513       -17.69899         6.82556
     2014.39911       -12.61455         7.59509
     2014.40109       -11.14734         5.27076
     2014.40383       -12.01291         5.28059
     2014.40641       -11.74073         5.58133
     2014.41204       -21.14962         5.33858
     2014.41478       -13.36219         5.20885
     2014.41752        -6.13376         5.21868
     2014.42026       -12.66133         5.21966
     2014.42299       -10.71590         5.19214
     2014.42573       -12.47847         5.19017
     2014.42847       -10.13005         5.23145
     2014.43121       -16.94362         5.21376
     2014.43394        -3.86019         5.37789
     2014.43668        -9.62176         5.18035
     2014.43942        -9.31233         5.19017
     2014.44216       -12.14890         5.21376
     2014.44490       -11.22247         5.32285
     2014.44763        -8.71504         5.31892
     2014.45037        -7.89261         5.20688
     2014.45265       -11.32492         6.47470
     2014.45658        -8.15757         7.51548
     2014.45859       -13.84632         5.33563
     2014.46132       -11.70089         5.32384
     2014.46406        -6.48546         5.22752
     2014.46680       -16.10503         5.26388
     2014.46954       -10.86561         5.24619
     2014.47227       -15.14118         5.28354
     2014.47501       -10.90875         5.28059
     2014.47775       -13.38732         5.27273
     2014.48049       -15.59589         5.20590
     2014.48323       -14.99346         5.19017
     2014.48596        -7.92303         5.26782
     2014.48870        -5.30160         5.24718
     2014.49144        -9.54017         5.12040
     2014.49418       -13.26174         5.13809
     2014.49692        -2.05731         5.22752
     2014.49965       -12.54588         5.29533
     2014.50239       -14.77245         5.22359
     2014.50513        -9.76202         5.21769
     2014.50787       -15.21359         5.17150
     2014.51060       -19.56617         5.16167
     2014.51334        -6.74874         5.11253
     2014.51608       -11.26931         5.14005
     2014.51836       -14.04462         6.31941
     2014.56884        -7.58295         7.70909
     2014.57084       -16.21972         5.12531
     2014.57357        -7.45829         5.37298
     2014.57524         2.77140        11.49878
     2014.57983       -15.17618         7.90762
     2014.58179       -14.36000         5.17248
     2014.58453       -10.96057         5.19902
     2014.58726       -19.64714         5.38280
     2014.59000       -11.57271         5.51155
     2014.59274        -2.58328         5.35529
     2014.59548       -11.46686         5.21180
     2014.59816        -5.19952         5.39263
     2014.60172       -13.25676         8.42261
     2014.60369        -7.56657         5.25504
     2014.60643         0.52786         5.52728
     2014.60917        -5.46971         5.30123
     2014.61190       -12.44128         5.37494
     2014.61464       -12.96985         5.24226
     2014.61738        -8.98242         5.40246
     2014.62012        -3.24299         5.38280
     2014.62286        -6.98956         5.22654
     2014.62559        -7.94413         5.25209
     2014.62833        -9.29270         5.42703
     2014.63107       -10.42127         5.21671
     2014.63381       -11.72384         5.32187
     2014.63655        -7.84042         5.25111
     2014.63928       -13.83399         5.20295
     2014.64202       -10.60256         5.32384
     2014.64476       -16.22913         5.24325
     2014.64750       -12.26570         5.31794
     2014.65023        -3.87227         5.46241
     2014.65297       -11.79784         5.33661
     2014.65571       -11.35941         5.19902
     2014.65845        -1.68398         5.31204
     2014.66119        -5.62755         5.22752
     2014.66392        -2.69212         5.29632
     2014.66666        -1.88269         5.23440
     2014.66940       -10.17326         5.22752
     2014.67214        -4.57283         5.22359
     2014.67488       -18.73740         5.33563
     2014.67761       -11.11898         5.21966
     2014.68035        -9.88355         5.19804
     2014.68309        -9.61512         5.30713
     2014.68583       -11.44969         5.23538
     2014.68856        -9.79726         5.27273
     2014.69130       -19.81383         5.41425
     2014.69404       -16.47840         5.28845
     2014.69678       -14.58297         5.38379
     2014.69952        -7.93154         5.22457
     2014.70225       -13.04011         5.20787
     2014.70499       -11.19868         5.21278
     2014.70773        -8.51925         5.23047
     2014.71047       -10.87382         5.19411
     2014.71321        -1.99839         5.27666
     2014.71594        -7.29796         5.46536
     2014.71868        -6.64254         5.23440
     2014.72142        -8.81511         5.33366
     2014.72416        -5.27068         5.28845
     2014.72689       -12.69125         5.37298
     2014.72963       -19.24282         5.31696
     2014.73237       -18.75239         8.13367
     2014.73511       -16.07696         5.17740
     2014.73785       -11.79053         5.24325
     2014.74058        -3.91810         5.35627
     2014.74332        -4.30367         5.34054
     2014.74606       -13.92824         5.20099
     2014.74880       -14.08581         5.20000
     2014.75154       -10.95238         5.39853
     2014.75427        -0.31795         5.44374
     2014.75701        -7.50752         5.20000
     2014.75975       -14.30309         5.48698
     2014.76249        -9.89567         5.24226
     2014.76522       -12.98924         5.17543
     2014.76796       -12.01581         5.15283
     2014.77070        -5.83538         5.36315
     2014.77344         3.50805         5.49091
     2014.77618        -7.32952         5.36118
     2014.77891        -9.73709         5.19116
     2014.78165        -3.64366         5.35627
     2014.78439        -6.60723         5.29435
     2014.78713        -7.71180         5.21474
     2014.78987        -7.12937         5.24423
     2014.79260        -7.42094         5.26978
     2014.79534        -1.97151         5.40148
     2014.79808        -1.05108         5.42506
     2014.80082        -2.37265         5.21573
     2014.80355        -5.88523         5.47715
     2014.80629        -6.92480         5.37789
     2014.80903        -5.44837         5.38575
     2014.81177        -1.25394         5.41917
     2014.81451        -2.07551         5.12826
     2014.81724        -2.72508         6.17396
     2014.81998        -6.39465         5.24521
     2014.82272        -7.16822         5.43489
     2014.82546        -1.87479         5.18526
     2014.82820        -6.76536         5.21376
     2014.83093        -7.00493         5.25307
     2014.83367        -7.66450         5.31008
     2014.83641        -7.20507         5.31106
     2014.83915        -9.20164         5.32089
     2014.84188         1.52179         5.54791
     2014.84462        -9.21979         5.39165
     2014.84736        -5.34236         5.28649
     2014.85010        -6.58193         5.27764
     2014.85284       -10.07150         5.26880
     2014.85557        -8.86907         5.40049
     2014.85831        -4.31564         5.29337
     2014.86105       -13.25021         5.24226
     2014.86379       -10.84978         5.33661
     2014.86653       -15.53935         5.22261
     2014.86926       -18.24992         5.22359
     2014.87200       -13.16549         5.24521
     2014.87474        -9.46706         5.27764
     2014.87748       -12.65563         5.24030
     2014.88021       -16.17220         5.31008
     2014.88295       -18.58377         5.26290
     2014.88569       -14.13135         5.37298
     2014.88819       -15.74630         6.27420
     2014.89477       -11.43366         8.76757
     2014.89664        -7.83863         5.46732
     2014.89938       -17.27620         5.37101
     2014.90212       -17.36577         5.35529
     2014.90485       -15.12834         5.19312
     2014.90759       -14.01191         5.18624
     2014.91033       -12.81148         5.24030
     2014.91307       -10.45805         5.24423
     2014.91581       -15.59162         5.26388
     2014.91854       -14.28619         5.21278
     2014.92128       -16.25176         5.22752
     2014.92402       -11.36933         5.46732
     2014.92676       -14.67191         5.28354
     2014.92950       -15.29348         5.24423
     2014.93223       -15.96705         5.50565
     2014.93497       -19.50362         5.32973
     2014.93771       -20.90519         5.44177
     2014.94045       -17.83476         5.40836
     2014.94318       -13.25633         5.41818
     2014.94592       -19.24090         5.30615
     2014.94866       -21.66047         5.19509
     2014.95140        -8.39404         5.15479
     2014.95414       -11.25661         5.22261
     2014.95687       -12.59418         5.25995
     2014.95961        -9.37075         5.27076
     2014.96235       -14.84332         5.18133
     2014.96509       -11.03089         5.28256
     2014.96783       -16.95046         5.18329
     2014.97056       -19.85204         5.21278
     2014.97330       -16.72061         5.22556
     2014.97604       -21.32618         5.52629
     2014.97878       -13.53075         5.16069
     2014.98151       -10.49632         5.20197
     2014.98425       -16.99989         5.17248
     2014.98699        -5.07946         5.39558
     2014.98973       -13.92303         5.16167
     2014.99247       -15.34660         5.15283
     2014.99520       -19.21317         5.12236
     2014.99794       -13.88874         5.16167
     2015.00342       -19.64688         5.42801
     2015.00616       -21.43345         5.33563
     2015.00816       -12.37821         7.70516
     2015.01248       -24.52322         8.33219
     2015.01437       -17.34217         5.31990
     2015.01711       -18.15974         5.64325
     2015.01984       -18.22131         5.24718
     2015.02258       -14.80988         5.31204
     2015.02532       -17.23845         5.20787
     2015.02806       -12.01102         5.21573
     2015.03080       -11.28759         5.23047
     2015.03353       -15.84116         5.24718
     2015.03627        -9.49573         5.24619
     2015.03901       -13.61830         5.32973
     2015.04175        -5.41987         5.29435
     2015.04449       -12.43644         5.44865
     2015.04722        -9.95701         5.25307
     2015.04996        -6.37058         5.25406
     2015.05270       -14.05016         5.24030
     2015.05544       -18.39473         5.23145
     2015.05817        -9.37730         5.29828
     2015.06091       -12.81387         5.32089
     2015.06365        -7.18744         5.54103
     2015.06508       -53.66313        73.73763
     2015.06996       -17.05723         8.21032
     2015.07186       -16.81915         5.18526
     2015.07460       -13.67072         5.23342
     2015.07734       -16.39529         5.26094
     2015.08008       -17.57786         5.26978
     2015.08282       -19.51543         5.22654
     2015.08555       -15.96700         5.23047
     2015.08829        -9.50157         5.29239
     2015.09103       -11.59814         5.23637
     2015.09377       -15.45272         5.26290
     2015.09650       -13.85429         5.22654
     2015.09924       -11.01086         5.40344
     2015.10198        -9.19443         5.29337
     2015.10472       -16.52500         5.23538
     2015.10746       -19.00357         5.24619
     2015.11019       -21.46614         5.36904
     2015.11293       -11.47571         5.31204
     2015.11567       -14.20328         5.26880
     2015.11841        -6.34785         5.43981
     2015.12115       -18.67642         5.21769
     2015.12388       -17.45599         5.22162
     2015.12662       -19.20456         5.18231
     2015.12936       -18.07213         5.18329
     2015.13210       -12.61670         5.32482
     2015.13483       -14.83128         5.26094
     2015.13757       -22.53885         5.25897
     2015.13974       -19.97234         7.14300
     2015.14662       -10.20220         8.05602
     2015.14852       -14.24013         5.23538
     2015.15126       -10.44870         5.21081
     2015.15400       -14.36527         5.21573
     2015.15674       -15.29984         5.24128
     2015.15948        -9.98841         5.20197
     2015.16221       -10.52798         5.23440
     2015.16495       -13.11255         5.32482
     2015.16769        -9.21812         5.21573
     2015.17043       -16.33269         5.23047
     2015.17316        -9.10126         5.41229
     2015.17590       -18.99383         5.32777
     2015.17864       -10.87241         5.19214
     2015.18138        -6.19298         5.21769
     2015.18412        -0.88355         5.19902
     2015.18685        -8.27112         5.18133
     2015.18959        -5.51169         5.23145
     2015.19233        -6.95926         5.42310
     2015.19507        -9.70083         5.25504
     2015.19780       -11.12340         5.18133
     2015.20054       -11.43197         5.18133
     2015.20328       -14.39754         5.21573
     2015.20602       -17.81511         5.69239
     2015.20876       -16.79768         5.25602
     2015.21149       -17.77525         5.18624
     2015.21423       -16.46482         5.48403
     2015.21697       -18.51939         5.23931
     2015.21971       -15.55697         5.16266
     2015.22245       -13.23954         5.18821
     2015.22518       -16.13811         5.22359
     2015.22792       -11.00068         5.27470
     2015.23066        -9.95525         5.20197
     2015.23340       -11.53582         5.29632
     2015.23613       -15.39039         5.33858
     2015.23887        -9.09996         5.56266
     2015.24161       -13.52153         5.51548
     2015.24435       -10.08710         5.56855
     2015.24709       -17.32667         5.41425
     2015.24982        -5.93224         5.25209
     2015.25256       -12.36881         5.34546
     2015.25530        -9.65138         5.26782
     2015.25804       -14.38595         5.22850
     2015.26078       -14.93553         5.17543
     2015.26351       -18.53410         5.21966
     2015.26625       -12.84467         5.25406
     2015.26899       -11.09024         5.28551
     2015.27173        -4.94881         5.43784
     2015.27446        -4.39238         5.30320
     2015.27720       -10.16795         5.27568
     2015.27994       -15.86852         5.27961
     2015.28268       -12.22109         5.26782
     2015.28542        -9.89266         5.57740
     2015.28815       -13.90023         5.44570
     2015.29089       -21.90080         5.21671
     2015.29363       -12.76437         5.19804
     2015.29637       -18.15194         5.20197
     2015.29911       -12.59951         5.22261
     2015.30184       -10.34309         5.37494
     2015.30458       -14.03766         5.19116
     2015.30732       -13.19423         5.12334
     2015.31006       -21.58180         5.07519
     2015.31279       -19.55437         5.09681
     2015.31553       -11.78394         5.15479
     2015.31827       -14.73651         5.14595
     2015.32101       -18.50908         5.35430
     2015.32375       -20.22365         5.20787
     2015.32648       -17.51822         5.22850
     2015.32922       -18.13679         5.22359
     2015.33196       -14.65236         5.10762
     2015.33470       -13.06793         5.09484
     2015.33744       -16.18550         5.09386
     2015.34017       -19.35407         5.09976
     2015.34291       -23.51765         5.12334
     2015.34565       -13.62322         5.15283
     2015.34839       -17.90379         5.07519
     2015.35004       -14.78311        13.44767
     2015.35485       -18.12733         9.85455
     2015.35660       -16.70650         5.11745
     2015.35934       -21.37007         5.26585
     2015.36208       -11.69964         5.19509
     2015.36481       -15.34121         5.12728
     2015.36755       -12.18978         5.13907
     2015.37029       -15.88835         5.11941
     2015.37303       -18.39792         5.09386
     2015.37577       -14.04649         5.13612
     2015.37850       -17.13806         5.27470
     2015.38124       -18.41663         5.13907
     2015.38398       -17.27320         5.17248
     2015.38672       -16.67478         5.07912
     2015.38945       -22.80935         5.05553
     2015.39219       -10.72192         5.14103
     2015.39493       -13.96549         5.31106
     2015.39767       -16.29406         5.14005
     2015.40041       -17.88263         5.11450
     2015.40303       -18.88638         5.39067
     2015.40599       -10.96359        18.00394
     2015.40941       -13.76606         8.00197
     2015.41136       -12.15191         5.15283
     2015.41410       -18.11048         5.10860
     2015.41683       -10.06605         5.11548
     2015.41957       -13.89662         6.08649
     2015.42231       -13.00019         5.16069
     2015.42505        -7.99776         5.43489
     2015.42778       -14.30734         5.15971
     2015.43052        -6.47991         5.24619
     2015.43326       -13.09948         5.15479
     2015.43600       -14.27605         5.11253
     2015.43874        -8.27762         5.27863
     2015.44147        -7.45919         5.35332
     2015.44421       -15.18076         5.17248
     2015.44695       -11.02333         5.13514
     2015.44969       -15.76290         5.10467
     2015.45243       -12.20147         5.20197
     2015.45516       -11.88504         5.09877
     2015.45790       -11.66661         5.14791
     2015.46064       -10.03418         5.24030
     2015.46338        -9.50375         5.21769
     2015.46589        -3.45869         5.41917
     2015.47003       -28.28099        17.49780
     2015.47159        -7.62047         5.07912
     2015.47433       -17.52804         5.32777
     2015.47689       -21.79188         5.55676
     2015.48327       -10.14456         7.86143
     2015.48528        -7.48432         5.10565
     2015.48802       -13.61289         5.08895
     2015.49076        -4.60546         5.27371
     2015.49349       -10.31103         5.26487
     2015.49623        -9.01260         5.26388
     2015.49897       -13.23117         5.43489
     2015.50171       -12.18274         5.05553
     2015.50444       -12.94431         5.12040
     2015.50718       -13.92288         5.14103
     2015.50992       -11.49846         5.14005
     2015.51266       -14.10903         5.16659
     2015.51540        -9.02660         5.10074
     2015.51813        -3.21017         5.20000
     2015.52087        -3.45274         5.08698
     2015.52361        -6.53531         5.21081
     2015.52635       -14.01988         5.12138
     2015.52908        -9.89745         5.14890
     2015.53182        -8.86502         5.10467
     2015.53456        -8.42359         5.06241
     2015.53730       -10.41016         5.07912
     2015.54004        -7.77673         5.19509
     2015.54277        -5.16630         5.24521
     2015.54551        -5.27887         5.18821
     2015.54825        -4.36644         5.25013
     2015.55099        -6.74102         5.22162
     2015.55373        -4.08759         5.16560
     2015.55646        -5.63916         5.24226
     2015.55920        -0.00573         5.26487
     2015.56194        -1.40130         5.24718
     2015.56468        -6.34387         5.17248
     2015.56741        -6.04144         5.21966
     2015.57015        -3.63201         5.40934
     2015.57289        -8.41858         5.32187
     2015.57563        -8.98415         5.24816
     2015.57837        -3.96772         5.21573
     2015.58110        -8.59129         5.20393
     2015.58384        -8.67086         5.17543
     2015.58658        -7.28943         5.14890
     2015.58932        -9.36800         5.23145
     2015.59206        -8.13757         5.20885
     2015.59479         0.88685         5.39656
     2015.59753        -3.63572         5.21278
     2015.60027       -10.52229         5.20000
     2015.60301        -6.64686         5.25307
     2015.60574       -12.48643         5.20787
     2015.60848        -4.14100         5.35430
     2015.61122         2.39143         5.32973
     2015.61396        -5.29514         5.16757
     2015.61943        -8.00928         5.13317
     2015.62217        -6.52485         5.17052
     2015.62491        -1.23742         5.06339
     2015.62765       -10.38999         5.05553
     2015.63039        -5.79256         5.38673
     2015.63312        -5.55113         5.17543
     2015.63586        -4.94871         5.08993
     2015.63860         7.39172         5.54595
     2015.64134        -2.63085         5.17642
     2015.64407        -5.97342         5.08796
     2015.64681        -6.01399         5.14300
     2015.64955        -7.73556         5.08010
     2015.65229       -15.46413         5.17740
     2015.65503        -9.63770         5.31106
     2015.65776       -10.29527         5.21573
     2015.66044         1.44307         5.33072
     2015.66324         0.88859         5.16462
     2015.66598         1.86102         5.17838
     2015.66872        -4.54055         5.12629
     2015.67145       -13.41112         5.07126
     2015.67419       -13.55769         5.02605
     2015.67693        -6.44827         5.19902
     2015.67967        -8.58584         5.05160
     2015.68240        -9.25041         5.08305
     2015.68514        -5.49098         5.25799
     2015.68788        -3.21255         5.20983
     2015.69062        -4.66312         5.09386
     2015.69336       -22.69869         5.51352
     2015.69609        -2.84326         5.09583
     2015.69883        -6.58883         5.15479
     2015.70157        -5.38640         5.00541
     2015.70431       -10.02597         5.16462
     2015.70705       -10.04154         5.02408
     2015.70978        -4.54111         5.13809
     2015.71252        -1.80568         5.09386
     2015.71526        -4.68725         5.15676
     2015.71800        -8.70483         5.09877
     2015.72073         1.35860         5.07814
     2015.72347        -9.27797         5.16069
     2015.72621        -7.23754         5.09877
     2015.72895        -4.89411         5.20590
     2015.73169        -8.96068         5.09583
     2015.73442       -15.56725         5.04079
     2015.73716        -6.50882         5.04177
     2015.73990        -6.76139         5.16462
     2015.74264        -3.27296         5.13809
     2015.74538        -6.09253         5.48010
     2015.74811       -13.38710         5.18821
     2015.75085       -15.81467         5.20590
     2015.75359        -9.32924         5.10467
     2015.75633        -6.76181         5.05455
     2015.75906        -7.23639         5.01130
     2015.76180       -16.51896         5.04472
     2015.76454        -8.51353         5.13317
     2015.76728       -13.06410         5.11548
     2015.77002        -5.36567         5.16167
     2015.77275        -4.06624         5.04079
     2015.77549        -2.64181         5.13710
     2015.77823       -10.27238         5.19411
     2015.78097       -10.25795         5.10664
     2015.78371        -4.24052         5.03194
     2015.78644         0.45691         5.13317
     2015.78918       -15.59066         5.15872
     2015.79192         5.24277         5.12334
     2015.79466        -9.21380         5.06831
     2015.79739        -9.37437         5.07322
     2015.80013        -4.25894         5.27863
     2015.80287        -8.70352         5.32678
     2015.80561        -3.58809         5.14988
     2015.80835        -6.29066         5.07420
     2015.81108       -11.82423         5.05848
     2015.81382       -12.69380         5.07519
     2015.81656       -16.48737         5.05750
     2015.81930       -16.64994         5.09288
     2015.82203        -3.22051         5.22064
     2015.82477       -17.07708         5.10860
     2015.82751       -10.14065         5.21376
     2015.83025       -11.46122         5.15676
     2015.83299        -9.37179         5.08207
     2015.83572       -16.46336         5.04177
     2015.83846       -12.23093         5.12236
     2015.84120       -14.63750         5.10369
     2015.84394       -17.98508         5.16364
     2015.84668       -14.11465         5.11941
     2015.84941       -10.70822         5.17445
     2015.85215       -14.00879         5.09386
     2015.85489       -12.87036         5.18231
     2015.85763       -11.07893         5.28747
     2015.85974       -13.40851         7.13121
     2015.86412       -18.91642        10.30467
     2015.86584        -6.35464         5.21573
     2015.86858        -7.65421         5.21081
     2015.87132       -21.70178         5.12138
     2015.87405       -17.20335         5.18821
     2015.87559       -20.33386        15.35529
     2015.87963       -11.78832         5.33366
     2015.88227       -10.85906         5.11057
     2015.88501       -22.39964         5.11352
     2015.88774        -7.51521         5.32973
     2015.89048       -15.65778         5.13415
     2015.89322       -12.00335         5.14497
     2015.89596       -12.97192         5.12236
     2015.89869       -12.87149         5.13710
     2015.90143       -22.06506         5.11253
     2015.90417       -17.87163         5.14300
     2015.90691       -17.40320         5.14890
     2015.90965       -15.42877         5.14202
     2015.91238       -16.62234         5.19312
     2015.91512       -14.26891         5.15971
     2015.91786        -9.34948         5.23931
     2015.92060       -14.10405         5.16560
     2015.92334       -18.13962         5.17936
     2015.92607       -20.15420         5.21376
     2015.92881       -16.21477         5.25897
     2015.93155       -11.70734         5.28747
     2015.93429       -12.51591         5.36216
     2015.93702       -12.84648         5.22457
     2015.93970        -9.66816         5.44079
     2015.94335       -11.77924         8.46978
     2015.94524       -12.13219         5.13809
     2015.94798       -11.82076         5.16364
     2015.95071        -8.49133         5.03784
     2015.95345       -14.41290         5.06831
     2015.95590       -18.94593         5.75332
     2015.95978       -19.15767         8.51303
     2015.96167       -13.51361         5.12728
     2015.96440        -9.51818         5.04767
     2015.96714       -12.78176         5.28551
     2015.96988       -13.12733         5.15774
     2015.97262        -4.55690         5.03981
     2015.97535       -10.59647         5.03587
     2015.97809       -12.54704         5.04079
     2015.98083       -12.38261         5.02605
     2015.98357       -16.59418         5.09877
     2015.98631       -21.68475         5.02900
     2015.98904       -16.06332         4.99263
     2015.99178       -18.81689         5.02015
     2015.99452       -18.59246         5.01720
     2015.99726       -12.06303         5.05062
     2016.00000       -18.03460         5.09681
     2016.00273       -19.21217         5.04079
     2016.00547       -16.68474         5.05848
     2016.00821       -18.80031         5.06732
     2016.01095       -15.20089         5.03587
     2016.01368       -19.30546         5.05357
     2016.01642       -20.09703         5.10467
     2016.01916       -18.38760         5.20885
     2016.02190       -13.92017         5.14693
     2016.02464       -14.42574         5.22850
     2016.02737        -9.75931         5.05455
     2016.03011       -14.29788         5.14497
     2016.03285       -11.90745         5.02506
     2016.03559       -14.62502         5.03194
     2016.03833       -17.12859         5.19116
     2016.04106       -10.35916         5.03587
     2016.04380       -11.55973         5.10172
     2016.04654       -15.61030         5.05553
     2016.04928       -10.07187         5.06143
     2016.05201       -21.18545         5.13219
     2016.05475       -18.42002         7.33563
     2016.05749       -12.74659         5.04570
     2016.06023       -17.43816         5.01425
     2016.06297       -16.07573         5.00148
     2016.06570       -18.54930         5.19411
     2016.06844       -11.24087         5.27273
     2016.07118       -16.75444         5.22261
     2016.07392        -8.38101         5.22457
     2016.07666       -16.44858         5.31597
     2016.07939       -12.22315         5.13809
     2016.08213       -15.65872         5.25995
     2016.08487       -19.83929         5.14497
     2016.08761       -15.51286         5.11745
     2016.09308       -14.87501         5.17838
     2016.09582       -14.54458         5.17740
     2016.09856       -23.42415         5.17052
     2016.10130       -22.33672         5.14595
     2016.10403       -23.03529         5.20492
     2016.10677       -21.47986         5.19509
     2016.10951       -23.21743         5.26585
     2016.11225       -12.82600         5.19607
     2016.11498       -20.09857         5.18428
     2016.11772       -24.88014         5.17248
     2016.12046       -25.91571         5.26782
     2016.12320       -16.84328         5.16855
     2016.12594       -21.57385         5.27568
     2016.12856       -17.96961         5.39067
     2016.13141       -15.48199         5.14595
     2016.13398       -20.12084         5.53022
     2016.13569        -1.70207        14.38330
     2016.14191       -27.57702         6.26536
     2016.14402       -18.57060        11.48207
     2016.14784       -17.46542         5.17642
     2016.14961       -25.47456         9.61475
     2016.15212       -13.23050        14.41278
     2016.15531       -16.15133         7.83686
     2016.15754       -22.93073        23.66783
     2016.16056       -16.74184         9.97052
     2016.16427       -14.59584         5.22162
     2016.16586       -12.91226        12.88944
     2016.16860       -16.95483        12.95725
     2016.17248       -18.84355         5.28944
     2016.17522       -20.51413         5.18723
     2016.17721       -20.68790         7.92040
     2016.18029        -2.62291         6.29681
     2016.18315       -14.67630         6.18280
     2016.18760       -34.99210        90.34894
     2016.19438        -8.83412         5.11548
     2016.19684       -18.20815         5.77101
     2016.20064       -10.81200         7.83194
     2016.20260       -14.91283         5.25995
     2016.20533       -20.62340         5.68747
     2016.20807       -22.35197         5.26290
     2016.21081       -22.51254         5.22359
     2016.21349       -19.33821         5.29337
     2016.21577       -20.01652         6.58379
     2016.21983       -15.79696         9.79460
     2016.22176       -13.76583         5.09484
     2016.22450       -19.39340         5.09877
     2016.22724       -19.70497         5.22457
     2016.22997       -23.50554         5.51843
     2016.23271       -12.80511         5.09189
     2016.23545       -15.71968         5.08305
     2016.23819       -19.55925         5.69533
     2016.24093       -16.44782         5.29435
     2016.24366       -16.92939         5.13612
     2016.24640       -14.75296         5.03784
     2016.24914       -12.61753         5.07912
     2016.25188       -13.60710         5.09779
     2016.25462       -17.22167         5.06044
     2016.25735       -13.33024         5.04275
     2016.26009       -19.18882         5.07715
     2016.26283       -17.62239         5.09583
     2016.26557       -15.65996         5.09288
     2016.26830       -20.02153         5.13219
     2016.27104       -16.52010         5.07224
     2016.27378       -19.99367         5.05553
     2016.27652       -18.64924         5.11352
     2016.27926       -17.05181         5.09583
     2016.28199       -20.03738         5.09877
     2016.28473       -20.67395         5.06634
     2016.28747       -20.34252         5.10762
     2016.29021       -18.49609         5.10565
     2016.29295       -18.31466         5.06143
     2016.29568       -18.19823         5.07126
     2016.29842       -16.62880         5.20983
     2016.30116       -15.57338         5.19214
     2016.30390       -21.14195         5.12334
     2016.30663       -18.25452         5.09288
     2016.30937       -16.27109         5.09189
     2016.31211       -19.06666         5.04177
     2016.31485       -15.85323         5.06339
     2016.31759        -9.41380         5.12236
     2016.32032       -16.37037         5.12629
     2016.32306       -21.53794         5.16954
     2016.32580       -22.93051         5.07715
     2016.32854       -15.26608         5.11745
     2016.33128       -16.61965         5.17740
     2016.33401       -15.42122         5.26487
     2016.33675       -17.99779         5.19804
     2016.33949       -18.86436         5.19509
     2016.34223       -20.59194         5.21769
     2016.34496       -21.55551         5.40344
     2016.34770       -13.18008         5.22654
     2016.35044       -13.27765         5.26782
     2016.35318       -18.87522         5.14497
     2016.35592       -18.64579         5.18133
     2016.35865       -20.18836         5.15676
     2016.36139       -17.36493         5.12629
     2016.36413       -11.96050         5.07912
     2016.36635       -11.77290         6.55332
     2016.37327        -4.37672         9.13023
     2016.37508        -4.69978         5.19804
     2016.37782       -19.66535         5.12531
     2016.38056       -17.08192         5.17740
     2016.38329       -12.83950         5.12040
     2016.38603       -17.89307         5.16757
     2016.38877        -1.47664         5.22949
     2016.39151       -10.05721         5.14398
     2016.39425       -14.72278         5.19607
     2016.39698        -6.05035         5.17445
     2016.39972        -3.72792         5.18329
     2016.40246       -14.30149         5.18329
     2016.40520       -16.57206         5.10860
     2016.40794       -15.91163         5.11057
     2016.41067       -14.83220         5.16462
     2016.41341       -11.48477         5.20590
     2016.41603       -15.82953         5.36904
     2016.41980       -30.15644         9.23440
     2016.42132        -4.27697         5.86045
     2016.43075       -25.54972         9.35234
     2016.43258       -12.04477         5.10271
     2016.43531        -8.40834         5.15578
     2016.43805       -11.07491         5.13415
     2016.44079       -16.50848         5.13612
     2016.44353       -16.19705         5.11450
     2016.44626       -14.34662         5.23244
     2016.44900       -14.73219         5.11745
     2016.45174       -10.05876         5.09976
     2016.45448       -11.15733         5.11843
     2016.45687        -9.81546         5.75725
     2016.47196         0.92294        12.47863
     2016.47364        -9.27233         5.14693
     2016.47638       -11.68590         5.41524
     2016.47912       -12.18847         5.26487
     2016.48186       -15.18904         5.66094
     2016.48459       -13.76261         5.27666
     2016.48733       -13.72918         5.15774
     2016.49007        -9.92575         5.15578
     2016.49281       -15.21532         5.12924
     2016.49538       -11.46516         5.36511
     2016.49904       -12.96423         8.16020
     2016.50011       -16.85051         8.78723
     2016.53479       -19.39140        10.18870
     2016.53661       -14.26245         5.19607
     2016.53935       -12.67502         5.12924
     2016.54209        -7.46359         5.13415
     2016.54483        -5.98116         5.13809
     2016.54757       -13.68473         5.13514
     2016.55030        -7.95031         5.25701
     2016.55304       -10.88088         5.13022
     2016.55578       -10.16645         5.26388
     2016.55852        -6.44902         5.30713
     2016.56125         1.87441         5.25406
     2016.56399       -12.33016         5.18723
     2016.56673       -10.51073         5.30025
     2016.56947       -10.21830         5.23735
     2016.57221        -9.31387         5.28059
     2016.57494       -16.84344         5.28747
     2016.57768       -12.06201         5.12236
     2016.57934        -8.96534        53.76809
     2016.58316       -13.67615         5.11745
     2016.58590       -13.73572         5.16364
     2016.58863        -8.16829         5.32285
     2016.59137        -9.09687         5.21180
     2016.59411       -11.59244         5.07814
     2016.59685        -6.62101         5.10958
     2016.59958       -14.91658         5.29337
     2016.60232        -9.52615         5.23145
     2016.60506       -10.74972         5.15381
     2016.60780       -15.35129         5.14595
     2016.61054       -14.38286         5.23538
     2016.61327       -11.97143         5.23342
     2016.61601       -14.24200         5.25995
     2016.61875       -15.58857         5.16659
     2016.62149       -11.54414         5.27961
     2016.62423       -14.17371         5.24619
     2016.62696       -13.63928         5.15086
     2016.62970        -2.76985         5.40541
     2016.63244       -16.61942         5.38673
     2016.63518       -16.15500         5.22064
     2016.63791        -5.30457         5.16364
     2016.64065        -7.35814         5.16855
     2016.64339        -7.43071         5.22359
     2016.64613       -13.43128         5.14791
     2016.64887       -12.45385         5.19214
     2016.65160       -18.25742         5.39361
     2016.65434       -12.11699         5.18035
     2016.65708       -20.17456         5.18428
     2016.65982       -18.05713         5.24423
     2016.66256       -13.77570         5.17740
     2016.66529       -12.80027         5.19116
     2016.66803        -8.90284         5.18133
     2016.67077       -15.67941         5.24718
     2016.67351       -14.55798         5.11843
     2016.67624       -12.29856         5.12629
     2016.67898       -10.28513         5.15479
     2016.68041       -16.12682        63.57743
     2016.68446        -0.46927         5.50172
     2016.68720        -8.08984         5.39951
     2016.68993        -7.33841         5.44669
     2016.69267         1.22702         5.20000
     2016.69541       -10.31355         5.09681
     2016.69815       -10.18212         5.14890
     2016.70089       -17.33269         5.11155
     2016.70636       -10.72183         5.56954
     2016.70910         3.97760         5.59312
     2016.71184        -7.83097         5.23833
     2016.71457        -6.91254         5.18624
     2016.71731        -6.25112         5.10565
     2016.72005       -13.32869         5.06339
     2016.72279       -11.78026         5.07617
     2016.72553        -9.47583         5.49189
     2016.72826       -13.36940         5.38673
     2016.73100        -7.67097         5.15381
     2016.73374        -2.87254         5.29239
     2016.73648        -7.28911         5.39853
     2016.73921       -14.41668         5.23342
     2016.74195       -12.17225         5.10271
     2016.74469       -12.73082         5.18133
     2016.74652       -19.83587         9.63932
     2016.83882       -19.98854        10.31942
     2016.84052       -13.92679         5.59509
     2016.84443        -5.10446        15.83883
     2016.84599       -12.06894         5.22064
     2016.84873       -11.39151         5.21573
     2016.85033        -7.90592        12.69190
     2016.87156       -15.00957         8.98575
     2016.87337       -12.59864         5.21081
     2016.87611       -12.32221         5.17248
     2016.87885       -12.51278         5.19607
     2016.88158       -17.13035         5.17150
     2016.88432       -14.44393         5.14595
     2016.88706       -10.22550         5.16659
     2016.88980       -16.18207         5.19312
     2016.89253        -9.41864         5.17936
     2016.89527       -11.75721         5.17936
     2016.89801       -12.60978         5.09779
     2016.90075       -15.99835         5.09681
     2016.90349       -16.01492         5.26880
     2016.90622        -8.29749         5.25013
     2016.90896        -7.34806         5.15872
     2016.91170       -13.49163         5.13415
     2016.91444       -10.71820         5.10467
     2016.91718       -15.38177         5.29435
     2016.91991       -22.84334         5.39853
     2016.92265       -18.61791         5.29632
     2016.92510       -11.47095         5.89877
     2016.92915       -24.69640        10.22605
     2016.93086       -16.91963         5.11646
     2016.93360       -16.69920         5.13710
     2016.93634       -15.79477         5.13121
     2016.93908       -13.84034         5.28354
     2016.94182       -13.09691         5.10565
     2016.94455       -21.09648         5.07617
     2016.94729       -14.96205         5.15381
     2016.95003       -15.39762         5.20000
     2016.95277       -17.57519         5.17543
     2016.95551       -16.82676         5.11450
     2016.95824       -14.03033         5.09091
     2016.95995        -9.15256         9.86831
     2016.96372       -11.37247         5.25897
     2016.96634       -14.50523         5.56757
     2016.99760       -15.82166        10.23686
     2016.99903        -4.39035         5.96462
     2017.00205       -16.13846         5.13415
     2017.00479       -15.66303         5.14202
     2017.00752       -23.83361         5.12433
     2017.01026       -24.25818         5.14398
     2017.01300        -8.74575         5.16266
     2017.01574       -12.75732         5.21868
     2017.01848       -17.29589         5.20000
     2017.02121       -13.44046         5.17838
     2017.02395        -6.74203         5.12629
     2017.02669        -7.97160         5.22949
     2017.02874       -13.16628         7.69337
     2017.04540       -15.66233         6.94251
     2017.08270       -17.41798        21.37200
     2017.08418       -19.20858         5.11352
     2017.08692       -17.55115         5.13514
     2017.08966       -20.00972         5.13415
     2017.09240       -19.94730         5.12236
     2017.09514       -13.59387         5.11450
     2017.09787       -13.79444         5.11352
     2017.10061       -15.23701         5.09877
     2017.10335       -18.58558         5.20590
     2017.10609       -18.93015         5.19116
     2017.10882        -9.90672         5.12334
     2017.11156       -12.62229         5.11155
     2017.11430       -16.29386         5.09288
     2017.11704       -18.30443         5.11646
     2017.11978       -11.06700         5.20590
     2017.12251        -8.31957         5.24128
     2017.12525       -13.90114         5.12334
     2017.12799       -13.37171         5.08993
     2017.13073       -12.31228         5.08993
     2017.13272       -20.77105         8.12777
     2017.19736       -16.75948         8.79116
     2017.19917       -13.18455         5.17445
     2017.20191       -12.68612         5.15381
     2017.20465       -15.73769         5.20000
     2017.20739       -11.90626         5.10565
     2017.21013        -7.55583         5.14988
     2017.21286       -12.62140         5.16266
     2017.21560       -16.93998         5.07814
     2017.21834       -17.01855         5.12040
     2017.22108       -12.29412         5.11450
     2017.22381       -13.01269         5.24030
     2017.22655       -13.55226         5.25013
     2017.22929       -16.38583         5.12138
     2017.23203       -17.62540         5.12236
     2017.23477       -23.28497         5.17052
     2017.23750       -15.60154         5.12531
     2017.24024       -19.44111         5.11646
     2017.24298       -22.76668         5.12433
     2017.24572       -11.24125         5.20000
     2017.24846       -22.62782         5.14693
     2017.25119       -21.52839         5.15578
     2017.25358       -31.25953         7.29730
     2017.25768       -23.08990        10.16806
     2017.25941       -22.82911         5.15283
     2017.26214       -18.49968         5.10369
     2017.26488       -20.23325         5.10172
     2017.26762       -14.48982         5.12433
     2017.27036       -18.12539         5.15086
     2017.27310       -22.07096         5.08993
     2017.27583       -23.15853         5.09484
     2017.27857       -27.16310         5.09091
     2017.28131       -22.91367         5.12924
     2017.28405       -22.97424         5.12728
     2017.28679       -20.99181        10.08747
     2017.28952       -23.40438         5.09189
     2017.29226       -28.47895         5.09779
     2017.29500       -26.18852         5.10467
     2017.29774       -25.80709         5.15185
     2017.30047       -19.87767         5.15381
     2017.30321       -21.17224         5.09288
     2017.30595       -19.77481        10.13563
     2017.30755       -22.41422        15.26586
     2017.33426       -25.82700         9.48305
     2017.33498       -28.51584        12.96610
     2017.34856       -31.25088        17.20689
     2017.36202       -46.88510        56.15236
     2017.36344       -19.19479         5.56364
     2017.36516       -23.96302        10.80099
     2017.36983       -22.91646         9.37986
     2017.37166       -18.88950         5.08207
     2017.37440       -18.54907         5.12924
     2017.37713       -16.26164         5.18821
     2017.37987       -21.00021         5.23637
     2017.38261       -24.27079         5.22949
     2017.38535       -18.22736         5.17642
     2017.38809        -9.81493         5.17740
     2017.39082       -16.27950         5.17740
     2017.39356       -15.83907         5.21868
     2017.39630       -11.23764         5.14693
     2017.39904       -16.50921         5.12138
     2017.40166       -18.12396         5.31401
     2017.40423       -14.89081         8.20639
     2017.40600       -22.63795        25.23048
     2017.41062       -19.41448        12.81868
     2017.41273       -17.38606         5.15479
     2017.41546       -13.62163         5.18035
     2017.41820       -16.13820         5.25799
     2017.42094       -17.94477         5.17445
     2017.42368       -16.35235         5.13809
     2017.42642       -16.24692         5.13317
     2017.42915       -10.37649         5.22654
     2017.43189        -9.62406         5.22850
     2017.43463       -16.90663         5.25111
     2017.43737       -10.72520         5.16167
     2017.44010       -16.16377         5.14300
     2017.44284       -13.89434         5.21671
     2017.44558       -11.12191         5.17642
     2017.44832       -12.31448         5.14988
     2017.45106       -14.61205         5.16757
     2017.45379       -13.20662         5.28845
     2017.45653       -11.44919         5.27666
     2017.45927       -14.43676         5.13907
     2017.46201       -13.64733         5.14202
     2017.46475       -16.10190         5.19017
     2017.46748       -11.40048         5.14890
     2017.47022       -14.70905         5.26782
     2017.47296       -11.59862         5.21474
     2017.47570       -17.22219         5.20590
     2017.47843       -17.86476         5.31204
     2017.48117       -12.78633         5.34153
     2017.48391       -16.60790         5.15578
     2017.48665       -13.29347         5.18624
     2017.48939       -12.82204         5.20000
     2017.49212       -15.76861         5.24226
     2017.49486       -10.06718         5.40443
     2017.49760        -9.11375         5.24521
     2017.50034       -13.93332         5.14005
     2017.50308       -12.28789         5.17445
     2017.50581       -15.85246         5.16167
     2017.50855       -19.50904         5.17150
     2017.51129       -16.95361         5.23342
     2017.51403       -17.69818         5.23244
     2017.51676       -14.06075         5.21180
     2017.51950       -18.78832         5.15774
     2017.52224       -16.52989         5.19705
     2017.52486       -15.94264         5.39460
     2017.55361       -15.29414        18.05898
     2017.55509       -19.79274         8.20344
     2017.55783       -22.89731        10.40688
     2017.56051       -10.74997         7.30221
     2017.57255       -18.42050        11.36610
     2017.57397       -17.81019        17.37495
     2017.57700       -13.19430         6.19853
     2017.57974       -15.00787         7.06733
     2017.58247       -13.64244         5.26978
     2017.58464       -17.42494         6.46782
     2017.59074       -19.71806         6.14742
     2017.59342       -14.88173         5.18329
     2017.59553       -16.18231         6.85406
     2017.60780       -19.18547        15.48207
     2017.60905       -20.16244         7.94202
     2017.61139        -7.13566        15.21672
     2017.61441        -6.16777        10.53563
     2017.61818        -7.51368         7.42605
     2017.61955       -17.20946        18.88846
     2017.62685       -12.63565        23.85063
     2017.62913        -8.55096         8.28109
     2017.63158       -13.38699         8.05209
     2017.63455       -15.86319        10.01966
     2017.63655       -17.69496         7.10074
     2017.64117        19.94051        15.67372
     2017.64145       -12.41903        21.49682
     2017.64818       -15.17214         6.04423
     2017.65098        -7.96462         7.05651
     2017.65366       -11.89528         5.16954
     2017.66415        -9.24630         6.90516
     2017.67077       -15.02460         9.75234
     2017.67322        -8.65163         9.61475
     2017.67550       -20.05894         5.77101
     2017.68491       -11.15071        12.70959
     2017.68531       -29.63207        61.99708
     2017.73580       -12.46139         5.20688
     2018.08982       -15.97365         8.33809
     2018.09057       -14.87643        13.10566
     2018.27361       -21.28931        16.82851
     2018.27515        -8.95382         5.20000
     2018.27789       -17.76139         5.67273
     2018.28062       -10.70396         5.49484
     2018.28336       -14.75753         5.19312
     2018.28610       -17.10010         5.16364
     2018.28884       -15.98767         5.18723
     2018.29158       -15.15224         5.37691
     2018.29431       -16.33081         5.26487
     2018.29705       -15.31838         5.18329
     2018.29979       -18.42196         5.24816
     2018.30253       -12.39253         5.23244
     2018.30527       -16.84210         5.18231
     2018.30800       -20.37967         5.26094
     2018.31074       -15.85424         5.17150
     2018.31348       -16.37181         5.17740
     2018.31622       -19.41838         5.16266
     2018.31895       -17.64295         5.33170
     2018.32169       -15.51152         5.27076
     2018.32443       -12.30409         5.19804
     2018.32717       -18.77066         5.19214
     2018.32991       -13.99223         5.33956
     2018.33264       -16.24180         5.23244
     2018.33538       -11.75137         5.37789
     2018.33812       -10.98694         5.34841
     2018.34086       -11.29552         5.17052
     2018.34360       -16.64209         5.15578
     2018.34633       -16.78166         5.15283
     2018.34907       -14.34723         5.14398
     2018.35181       -12.90480         5.14988
     2018.35455        -5.84737         5.18526
     2018.35728        -9.01094         5.21376
     2018.36002       -13.13451         5.15283
     2018.36276       -12.13508         5.31106
     2018.36550       -12.81465         5.15676
     2018.36824        -7.87622         5.20885
     2018.37097        -9.48379         5.22752
     2018.37371       -13.20336         5.14005
     2018.37645       -16.39793         5.23145
     2018.37919       -16.50150         5.14005
     2018.38193       -12.37008         5.22850
     2018.38466        -9.18365         5.24128
     2018.38740        -7.82322         5.19116
     2018.39014        -4.53379         5.19804
     2018.39288       -13.15436         5.12433
     2018.39561        -8.79093         5.14103
     2018.39835        -5.22350         5.17642
     2018.40109        -4.16007         5.16266
     2018.40383        -7.60064         5.19017
     2018.40657        -8.73921         5.15872
     2018.40930        -0.02278         5.19214
     2018.41204       -13.18835         5.12334
     2018.41478        -8.67692         5.15774
     2018.41752       -12.55849         5.16757
     2018.42026       -11.52706         5.12040
     2018.42299       -11.13364         5.12334
     2018.42573       -11.00421         5.11352
     2018.42847        -8.92478         5.12826
     2018.43121        -8.19435         5.17150
     2018.43394       -12.81492         5.15971
     2018.43668       -13.31549         5.17838
     2018.43942       -15.40106         5.10664
     2018.44216        -9.49863         5.15971
     2018.44490       -11.62520         5.21180
     2018.44763       -10.58477         5.17740
     2018.45037       -11.42034         5.18329
     2018.45311       -11.83891         5.13809
     2018.45585       -11.58748         5.12826
     2018.45859       -10.43305         5.16364
     2018.46132       -13.77662         5.17150
     2018.46406       -10.42020         5.16659
     2018.46680       -12.35177         5.19902
     2018.46954        -6.42034         5.28158
     2018.47227        -8.46791         5.23244
     2018.47501        -7.00648         5.17150
     2018.47775        -1.59505         5.37199
     2018.48049       -10.90762         5.14890
     2018.48323        -8.64519         5.12826
     2018.48596       -14.83376         5.09976
     2018.48870       -10.56333         5.12236
     2018.49144        -9.02490         5.16167
     2018.49418        -9.00747         5.23931
     2018.49692        -9.31004         5.20688
     2018.49965       -14.37361         5.13514
     2018.50239       -13.53218         5.13022
     2018.50513       -14.52975         5.13907
     2018.50787        -7.68533         5.14693
     2018.51060        -5.38890         5.23637
     2018.51334       -12.28047         5.13514
     2018.51608       -13.24904         5.11548
     2018.51882       -16.67861         5.13219
     2018.52156       -13.16618         5.15381
     2018.52429       -12.70575         5.23538
     2018.52703       -12.07632         5.13219
     2018.52977       -12.08689         5.20688
     2018.53251       -17.18746         5.12728
     2018.53525        -9.88503         5.23047
     2018.53798        -8.34960         5.20983
     2018.54072        -7.42017         5.24226
     2018.54346        -2.65674         5.17838
     2018.54620        -6.55231         5.13317
     2018.54893       -11.74489         5.15381
     2018.55167       -16.38346         5.18624
     2018.55441       -10.19303         5.24423
     2018.55715       -12.12060         5.14398
     2018.55989       -18.97217         5.37199
     2018.56262        -7.67874         5.15578
     2018.56536       -10.20331         5.15676
     2018.56810        -7.13488         5.25209
     2018.57084       -12.27645         5.31499
     2018.57357        -7.08202         5.24914
     2018.57631       -15.85659         5.29730
     2018.57905       -15.11316         5.48895
     2018.58179       -10.02773         5.24325
     2018.58453        -3.90030         5.31302
     2018.58726       -10.71687         5.18526
     2018.59000        -6.61045         5.18624
     2018.59274        -8.54102         5.18035
     2018.59548       -12.83759         5.22261
     2018.59822        -8.13316         5.17150
     2018.60095        -8.97073         5.16069
     2018.60369        -3.15230         5.27273
     2018.60643        -9.38187         5.21278
     2018.60917        -6.55144         5.21278
     2018.61190        -1.04101         5.25701
     2018.61464       -11.25358         5.14398
     2018.61738       -16.43215         5.34841
     2018.62012        -7.30772         5.18919
     2018.62286        -1.54529         5.37592
     2018.62559       -10.36086         5.43784
     2018.62833        -9.49843         5.23440
     2018.63107        -6.86401         5.15676
     2018.63381        -9.23958         5.36708
     2018.63655        -8.86015         5.16954
     2018.63928        -3.35172         5.81524
     2018.64202        -9.95129         5.46241
     2018.64476        -8.64286         5.26683
     2018.64750       -10.15843         5.20590
     2018.65023         2.16600         5.92531
     2018.65297        -5.57257         5.26782
     2018.65571        -9.83014         5.29435
     2018.65845        -7.81271         5.27273
     2018.66119       -11.42528         5.36020
     2018.66392        -5.77585         5.29140
     2018.66666        -9.16942         5.24325
     2018.66940        -8.44199         5.48600
     2018.67214       -13.91357         5.18329
     2018.67488        -9.89114         5.37592
     2018.67761       -11.23071         5.21278
     2018.68035        -5.31328         5.32678
     2018.68309       -18.38385         5.40737
     2018.68583       -10.51142         5.37592
     2018.68856       -10.54499         5.34742
     2018.69130       -12.72556         5.28158
     2018.69404       -11.12013         5.28256
     2018.69678       -12.02070         5.20295
     2018.69916       -20.98285         6.27322
     2018.71145       -12.38796         9.47028
     2018.71321       -13.66612         5.26487
     2018.71594       -14.29070         5.22556
     2018.71868       -27.32927         5.24325
     2018.72142       -16.60384         5.16855
     2018.72416       -17.10641         5.14791
     2018.72689       -17.61998         5.21081
     2018.72963       -11.55155         5.29435
     2018.73237       -19.18912         5.21769
     2018.73511       -19.48369         5.20393
     2018.73790       -12.48917         5.34349
     2018.74064       -20.42374         5.35135
     2018.74332       -11.55640         5.23342
     2018.74606       -17.66697         5.22752
     2018.74880       -13.65754         5.15185
     2018.75154       -15.60611         5.16364
     2018.75427       -10.55868         5.18133
     2018.75701       -17.38926         5.24325
     2018.75975       -14.62983         5.26683
     2018.76249       -11.40040         5.23833
     2018.76522       -11.38197         5.23637
     2018.76796       -10.32554         5.24325
     2018.77070        -9.81911         5.19116
     2018.77344       -14.40368         5.25013
     2018.77618        -8.38325         5.38182
     2018.77891        -4.34482         5.34546
     2018.78165       -21.60339         5.31794
     2018.78439       -14.20296         5.26683
     2018.78713       -11.31453         5.19607
     2018.78987       -20.86410         5.36020
     2018.79260        -4.64367         5.32482
     2018.79534        -2.36224         5.28354
     2018.79808       -10.86282         5.35823
     2018.80082       -13.38639         5.26487
     2018.80355       -17.18896         5.18723
     2018.80629        -6.82053         5.47519
     2018.80903       -15.06410         5.45750
     2018.81177       -17.78267         5.41917
     2018.81451       -18.67124         5.32187
     2018.81724       -15.08881         5.29730
     2018.81998        -9.75438         5.33366
     2018.82272       -11.44995         5.30418
     2018.82546        -9.57652         5.30123
     2018.82820       -10.77709         5.17248
     2018.83093       -10.32466         5.19017
     2018.83367        -9.98623         5.23931
     2018.83641        -5.35380         5.34054
     2018.83915       -11.77238         5.25307
     2018.84188        -2.84395         5.30221
     2018.84462       -14.62252         5.14890
     2018.84736       -15.59709         5.15283
     2018.85010       -10.54266         5.27666
     2018.85284       -12.79923         5.22064
     2018.85557       -15.71480         5.28256
     2018.85831       -17.65737         5.16462
     2018.86105       -20.67794         5.14988
     2018.86379        -9.58751         5.30221
     2018.86653        -1.91008         5.65406
     2018.86926       -15.47365         5.34939
     2018.87200       -13.03722         5.21474
     2018.87474       -18.40779         5.15381
     2018.87748       -11.29036         5.22949
     2018.88021       -17.56294         5.23047
     2018.88295       -15.50351         5.24816
     2018.88569       -14.33508         5.24226
     2018.88843       -11.16365         5.24521
     2018.89117       -16.83422         5.22850
     2018.89390       -17.72679         5.21278
     2018.89664       -20.77236         5.35332
     2018.89938       -12.89593         5.34644
     2018.90212       -18.95850         5.31499
     2018.90485       -14.31207         5.19804
     2018.90759       -17.36164         5.19705
     2018.91033       -22.57521         5.20099
     2018.91307       -17.24178         5.37789
     2018.91581        -5.83535         5.26094
     2018.91854        -7.66492         5.27175
     2018.92128       -15.32249         5.25307
     2018.92402       -23.54407         5.21966
     2018.92676       -10.20864         5.25897
     2018.92950       -11.02821         5.29239
     2018.93223        -7.39278         5.48108
     2018.93497       -16.61535         5.31302
     2018.93771        -9.38892         5.38772
     2018.94045       -10.04449         5.27076
     2018.94318        -7.98106         5.39165
     2018.94592        -7.19963         5.39755
     2018.94866       -15.46220         5.41130
     2018.95140        -8.55977         5.29632
     2018.95414        -5.40234         5.19509
     2018.95687       -13.32291         5.31401
     2018.95961        -5.11048         5.33759
     2018.96235        -6.34105         5.34447
     2018.96509        -6.87363         5.19804
     2018.96783       -10.82720         5.20099
     2018.97056        -7.46977         5.26192
     2018.97330       -12.86334         5.24325
     2018.97604       -11.71891         5.32580
     2018.97878       -10.07648         5.23145
     2018.98151       -26.06505         5.21081
     2018.98425       -11.86262         5.46732
     2018.98699       -13.65819         5.38379
     2018.98973       -12.01276         5.25701
     2018.99247        -1.83333         5.35135
     2018.99520       -19.12790         5.26978
     2018.99794       -25.30047         5.27961
     2019.00068       -21.22204         5.33563
     2019.00342       -21.04961         5.42113
     2019.00616       -19.16919         5.19804
     2019.00889       -15.46676         5.27666
     2019.01163       -14.82633         5.24030
     2019.01437        -8.53290         5.25307
     2019.01711        -8.45147         5.22457
     2019.01984       -15.06204         5.21474
     2019.02258       -17.89561         5.23145
     2019.02532       -19.04218         5.34546
     2019.02806       -16.26775         5.27568
     2019.03005       -30.14352         8.49435
     2019.03758        -5.07734        91.54992
     2019.03901       -18.72203         5.19116
     2019.04061       -21.86945        13.63637
     2019.04722       -15.81775         5.29927
     2019.04945       -28.00415         7.23637
     2019.05914       -29.53246         9.51745
     2019.06091       -23.99460         5.21868
     2019.06365       -15.01717         5.37101
     2019.06639       -12.79574         5.43293
     2019.06913       -13.94331         5.38182
     2019.07186       -25.95488         5.34054
     2019.07460       -17.72945         5.23145
     2019.07734       -19.59702         5.21376
     2019.08008       -22.35059         5.21474
     2019.08282       -21.38316         5.87224
     2019.08555       -17.82573         5.19312
     2019.08829       -16.91531         5.16462
     2019.09103       -14.07788         5.18526
     2019.09377       -13.00045         5.22654
     2019.09650        -9.16802         5.20099
     2019.09924       -12.24859         5.18526
     2019.10198       -20.61616         5.18329
     2019.10472       -10.40173         5.19116
     2019.10746       -17.66730         5.19411
     2019.11019       -15.04487         5.21474
     2019.11293       -15.68644         5.28059
     2019.11567        -8.44801         5.43981
     2019.11841        -1.67858         5.18035
     2019.12115        -1.76615         5.29927
     2019.12388        -7.71472         5.28256
     2019.12662        -7.60829         5.16069
     2019.12936       -10.26686         5.18035
     2019.13210        -8.83744         5.16167
     2019.13483       -13.71101         5.17642
     2019.13757       -11.37958         5.15971
     2019.14031       -14.55415         5.25799
     2019.14305       -10.24272         5.30221
     2019.14579       -18.91229         5.16560
     2019.14852        -9.17086         5.17150
     2019.15126        -8.27743         5.17838
     2019.15400       -15.56900         5.19509
     2019.15674       -14.36757         5.21081
     2019.15948       -18.83014         5.19705
     2019.16221       -16.33771         5.34644
     2019.16495       -20.29628         5.18723
     2019.16769       -13.79385         5.18821
     2019.17043       -15.54942         5.28747
     2019.17316       -12.16900         5.21474
     2019.17590       -14.05257         5.18723
     2019.17864       -13.63714         5.19312
     2019.18138       -13.20771         5.21180
     2019.18412       -26.05828         5.17838
     2019.18685       -14.51985         5.24619
     2019.18959       -13.29442         5.20295
     2019.19233       -16.37899         5.20590
     2019.19507       -23.41556         5.16167
     2019.19780       -11.48913         5.97642
     2019.20054       -12.99470         5.39558
     2019.20328       -16.96327         5.27961
     2019.20602       -28.69584         5.26978
     2019.20876       -30.32341         5.22359
     2019.21149       -22.64098         5.18821
     2019.21423       -22.95256         5.21081
     2019.21697       -16.86913         5.20983
     2019.21971       -17.67270         5.38870
     2019.22245       -16.12627         5.15774
     2019.22518       -18.50384         5.17052
     2019.22792       -13.20141         5.18526
     2019.23066       -17.60698         5.17936
     2019.23340       -20.83555         5.20787
     2019.23613       -18.69412         5.14693
     2019.23887       -18.78669         5.13317
     2019.24161       -18.04826         5.40836
     2019.24435       -19.35983         5.29927
     2019.24709       -18.33440         5.24718
     2019.24982       -12.40097         5.17936
     2019.25256       -17.23154         5.33858
     2019.25530       -13.21312         5.19312
     2019.25804       -16.32469         5.23145
     2019.26078       -12.89526         5.15185
     2019.26351        -9.49883         5.23244
     2019.26625       -11.32940         5.23342
     2019.26899       -15.97797         5.16462
     2019.27173        -9.54654         5.39165
     2019.27446       -13.46811         5.19607
     2019.27720        -9.83968         5.30123
     2019.27994       -13.13625         5.14005
     2019.28268       -16.04182         5.16954
     2019.28542        -9.84539         5.12236
     2019.28815        -9.80196         5.20590
     2019.29089       -11.79953         5.32973
     2019.29363         2.22790         5.19804
     2019.29637       -14.77468         5.20885
     2019.29911       -10.21225         5.10271
     2019.30184        -9.97682         5.12334
     2019.30458       -10.99439         5.26782
     2019.30732       -12.68596         5.11352
     2019.31006        -9.80053         5.16757
     2019.31279        -9.31410         5.23342
     2019.31553        -8.83067         5.18035
     2019.31827        -9.90724         5.17445
     2019.32101       -14.53181         5.10860
     2019.32375       -21.53138         5.12040
     2019.32648       -12.60495         5.10762
     2019.32922       -12.18952         5.11646
     2019.33196       -14.69609         5.28452
     2019.33470       -11.68366         5.26388
     2019.33744        -8.91223         5.15185
     2019.34017        -9.37981         5.15774
     2019.34291       -11.54638         5.11057
     2019.34565       -13.67495         5.17838
     2019.34839       -16.08552         5.16266
     2019.35112       -14.18009         5.17347
     2019.35386       -10.42666         5.16462
     2019.35660       -14.14123         5.18133
     2019.35934       -10.20280         5.10860
     2019.36208       -11.31537         5.12236
     2019.36481        -5.08294         5.25504
     2019.36755       -13.45651         5.15479
     2019.37029       -14.23408         5.12629
     2019.37303        -8.57965         5.18919
     2019.37577       -13.36022         5.20000
     2019.37850       -13.02779         5.10762
     2019.38027         0.67307        81.67375
     2019.38398        -9.61894         5.10664
     2019.38672       -11.88951         5.09091
     2019.38945        -8.41708         5.14497
     2019.39219       -15.35965         5.10664
     2019.39493       -10.70722         5.11548
     2019.39767        -8.93079         5.08305
     2019.40041       -12.55936         5.11548
     2019.40314       -15.61993         5.30516
     2019.40588        -3.89050         5.19509
     2019.40862        -8.98607         5.13514
     2019.41136        -3.66964         5.21180
     2019.41410        -7.98121         5.12924
     2019.41683        -5.99478         5.16462
     2019.41957        -8.38235         5.16167
     2019.42231       -10.10093         5.14398
     2019.42505        -6.20250         5.12826
     2019.42778       -12.77007         5.26978
     2019.43052        -6.68864         5.11155
     2019.43326       -12.39321         5.12924
     2019.43600       -12.84778         5.15578
     2019.43874       -12.73735         5.39951
     2019.44147        -3.96492         5.54988
     2019.44421       -15.77149         5.29337
     2019.44695       -15.85106         5.17838
     2019.44969       -10.66563         5.18231
     2019.45243       -13.52620         5.19705
     2019.45516       -15.14277         5.26585
     2019.45790       -11.97134         5.30615
     2019.46064       -10.86791         5.21573
     2019.46338       -13.99549         5.36511
     2019.46611        -9.10906         5.34546
     2019.46885       -13.07963         5.37396
     2019.47159        -3.70120         5.26683
     2019.47433        -6.55077         5.15971
     2019.47707        -9.11434         5.18919
     2019.47980       -14.68991         5.18329
     2019.48254       -14.04648         5.17936
     2019.48528       -11.55105         5.21180
     2019.48802       -16.92862         5.19116
     2019.49076       -12.79019         5.14300
     2019.49349       -11.30876         5.11745
     2019.49623       -15.66333         5.11941
     2019.49897       -14.30990         5.13317
     2019.50171       -14.50847         5.13022
     2019.50444       -13.66405         5.21671
     2019.50718       -17.54662         5.15283
     2019.50992        -8.36319         5.14988
     2019.51266       -13.90276         5.19902
     2019.51540        -5.48633         5.15872
     2019.51813       -11.20590         5.16462
     2019.52087        -9.81447         5.18526
     2019.52361       -13.28504         5.13317
     2019.52635       -14.77161         5.15086
     2019.52908       -10.03518         5.32089
     2019.53182       -18.92875         5.23047
     2019.53456       -18.00932         5.20492
     2019.53730       -12.40289         5.22850
     2019.54004       -16.77946         5.31302
     2019.54277       -13.24803         5.32678
     2019.54551        -9.53860         5.41818
     2019.54825        -9.84918         5.11057
     2019.55099       -11.55275         5.13415
     2019.55373       -15.32932         5.24521
     2019.55646        -6.96389         5.29632
     2019.55920       -11.75846         5.37396
     2019.56194       -13.30603         5.18821
     2019.56468       -16.87060         5.22162
     2019.56741       -14.45217         5.10860
     2019.57015       -15.53974         5.35529
     2019.57289        -7.87931         5.19509
     2019.57563        -6.98188         5.20295
     2019.57837        -9.18045         5.22162
     2019.58110       -15.73702         5.06339
     2019.58384       -12.64559         5.24226
     2019.58658        -8.97616         5.10172
     2019.58932        -9.57074         5.11450
     2019.59206       -13.38031         5.26290
     2019.59479       -10.69388         5.12236
     2019.59753        -5.44545         5.32482
     2019.60027        -6.63402         5.38477
     2019.60301        -6.13559         5.12236
     2019.60574        -7.43016         5.36413
     2019.60848       -10.70673         5.37003
     2019.61122       -11.23530         5.17347
     2019.61396       -10.11987         5.17936
     2019.61670       -13.30844         5.10958
     2019.61943        -9.36101         5.14693
     2019.62217        -6.38658         5.34644
     2019.62491        -9.20915         5.22162
     2019.62765         3.19328         5.19804
     2019.63039        -4.24430         5.20000
     2019.63312       -14.16287         5.15283
     2019.63586         6.58356         5.65406
     2019.63860       -12.10001         5.17150
     2019.64134        -8.60058         5.35135
     2019.64407       -13.60415         5.22261
     2019.64681       -13.08972         5.19411
     2019.64955        -8.98129         5.14595
     2019.65229        -9.41186         5.27175
     2019.65503       -12.58943         5.22457
     2019.65776       -16.20500         5.19902
     2019.66050       -10.66457         5.30221
     2019.66324       -11.74814         5.14103
     2019.66598       -19.06171         5.11745
     2019.66872       -17.25028         5.13809
     2019.67145       -16.28586         5.14300
     2019.67419       -12.52543         5.16364
     2019.67693       -17.06500         5.24816
     2019.67967       -17.71557         5.25504
     2019.68240       -15.71514         5.14890
     2019.68514       -16.51871         5.14202
     2019.68788       -14.00928         5.17248
     2019.69062       -18.89785         5.17642
     2019.69336       -18.59942         5.14890
     2019.69609        -8.73499         5.23440
     2019.69883       -16.03556         5.18428
     2019.70157       -20.79313         5.17347
     2019.70431       -13.29570         5.12334
     2019.70705       -19.84427         5.16069
     2019.70978       -15.12784         5.14103
     2019.71252       -22.28342         5.12826
     2019.71526       -12.10199         5.33858
     2019.71800       -12.68356         5.40541
     2019.72073        -5.26513         5.59312
     2019.72347       -15.54770         5.16560
     2019.72621       -18.39727         5.25504
     2019.72895        -9.77584         5.28452
     2019.73169        -1.92841         5.13121
     2019.73442        -2.66798         5.16954
     2019.73716        -5.40155         5.14890
     2019.73990        -7.07312         5.28354
     2019.74264        -9.60469         5.20983
     2019.74538        -9.49226         5.13710
     2019.74811        -9.84883         5.29042
     2019.75085       -10.74340         5.29927
     2019.75359        -7.44097         5.37789
     2019.75633       -13.32255         5.19607
     2019.75906        -9.96312         5.13022
     2019.76180        -8.25869         5.16069
     2019.76454        -4.64026         5.33366
     2019.76728        -7.15383         5.21573
     2019.77002        -8.46140         5.18231
     2019.77275        -7.11097         5.26978
     2019.77549        -9.63554         5.35823
     2019.77823        -5.59211         5.18821
     2019.78097       -11.41768         5.20000
     2019.78371        -6.66325         5.25406
     2019.78644       -21.13582         5.36806
     2019.78918        -7.49039         5.28354
     2019.79192        -4.72896         5.21769
     2019.79466        -2.22453         5.18329
     2019.79739        -6.54211         5.17740
     2019.80013        -6.39568         5.21769
     2019.80287        -3.58425         5.24619
     2019.80561         2.44518         5.32580
     2019.80835         0.76461         5.29337
     2019.81108       -10.94996         5.29239
     2019.81382        -4.29253         5.33956
     2019.81656        -8.97810         5.19804
     2019.81930        -7.74067         5.21868
     2019.82203       -10.20824         5.20099
     2019.82477       -12.44481         5.16855
     2019.82751        -4.21338         5.24030
     2019.83025        -7.98595         5.31597
     2019.83299       -14.00052         5.35823
     2019.83572        -8.98309         5.16659
     2019.83846        -9.50167         5.25111
     2019.84120        -8.04624         5.14693
     2019.84394       -11.42281         5.35135
     2019.84668       -11.89638         5.19705
     2019.84941       -11.22295         5.27961
     2019.85215       -12.15152         5.25504
     2019.85489       -14.91109         5.20787
     2019.85763       -13.05266         5.20099
     2019.86036        -6.55123         5.51352
     2019.86310       -14.25080         5.24914
     2019.86584        -6.88337         5.41032
     2019.86858        -7.54994         5.23735
     2019.87132        -6.73151         5.38280
     2019.87405        -2.18808         5.27470
     2019.87679       -11.23065         5.47027
     2019.87953        -6.62023         5.24226
     2019.88227        -1.63480         5.22752
     2019.88501        -4.23537         5.21474
     2019.88774        -1.92894         5.45258
     2019.89048       -16.43751         5.45750
     2019.89322         7.76892         5.28452
     2019.89596        -1.23065         5.36020
     2019.89869        -5.50822         5.28845
     2019.90143        -5.39279         5.21278
     2019.90417        -8.30436         5.33858
     2019.90691        -8.85893         5.20590
     2019.90965       -14.53950         5.17740
     2019.91238        -8.44307         5.20688
     2019.91512        -1.19564         5.22162
     2019.91786         1.67879         5.25406
     2019.92060        -4.84679         5.23538
     2019.92334        -4.31336         5.31892
     2019.92607        -6.98193         5.17740
     2019.92881       -13.69350         5.15086
     2019.93155       -10.19007         5.16560
     2019.93429       -12.39864         5.20492
     2019.93702        -9.84221         5.21966
     2019.93976       -12.45978         5.23145
     2019.94250       -15.13535         5.23047
     2019.94524       -15.77692         5.17248
     2019.94798       -11.18549         5.24226
     2019.95071       -14.68106         5.35627
     2019.95345       -12.59063         5.22752
     2019.95619        -9.05820         5.26585
     2019.95893       -18.65177         5.36708
     2019.96167       -10.98334         5.20983
     2019.96440        -8.74792         5.36708
     2019.96714       -12.20449         5.37691
     2019.96988       -16.04606         5.25013
     2019.97262       -19.96063         5.19902
     2019.97535       -20.80220         5.19411
     2019.97809       -16.08977         5.18329
     2019.98083       -19.59634         5.17838
     2019.98357       -16.37791         5.25799
     2019.98631        -6.26348         5.18035
     2019.98904       -17.00105         5.23047
     2019.99178       -15.98562         5.22261
     2019.99452        -9.47019         5.20983
     2019.99726        -6.06876         5.17445
     2020.03011        -8.24561         5.17642
     2020.03285       -17.11818         5.20492
     2020.03559       -13.00875         5.08305
     2020.03833        -6.64632         5.10172
     2020.04106       -12.42889         5.23047
     2020.04380       -19.63446         5.22752
     2020.04654       -10.51104         5.13022
     2020.04928       -14.63361         5.16560
     2020.05201       -19.78518         5.12433
     2020.05475       -21.38775         5.10860
     2020.05749       -17.92532         5.15185
     2020.06023       -15.59789         5.15283
     2020.06297       -20.64746         5.11843
     2020.06570       -22.16103         5.31204
     2020.06844        -7.23860         5.14005
     2020.07118       -11.05617         5.11352
     2020.07392       -13.14674         5.11941
     2020.07666       -16.81031         5.20197
     2020.07939       -14.05288         5.19804
     2020.08213       -11.07845         5.10565
     2020.08487       -14.82302         5.10664
     2020.09582        -9.11931         5.08993
     2020.09856        -8.94188         5.09091
     2020.10130       -16.40945         5.10467
     2020.10403        -9.00902         5.11646
     2020.10677       -12.12959         5.14398
     2020.10951       -12.47016         5.16167
     2020.11225        -2.94873         5.17347
     2020.11498        -6.53630         5.14398
     2020.11772        -7.36087         5.36708
     2020.12046       -18.68744         5.26585
     2020.12320       -10.35501         5.11450
     2020.12594        -9.08858         5.14103
     2020.12867       -19.77216         5.09976
     2020.13141       -17.77573         5.11057
     2020.13415       -12.26030         5.13514
     2020.13689       -15.85987         5.20492
     2020.13963       -12.16944         5.31106
     2020.14236        -5.79701         5.16462
     2020.14510       -13.17858         5.11745
     2020.14784       -10.02215         5.13022
     2020.15058       -15.11172         5.19607
     2020.15331       -10.22729         5.22261
     2020.15605       -11.65786         5.23637
     2020.15879        -8.50143         5.14890
     2020.16153       -11.14100         5.09681
     2020.16427        -6.85457         5.11155
     2020.22176       -13.29756         5.21180
     2020.22450       -13.78113         5.19116
     2020.22724        -6.03070         5.18624
     2020.22997       -11.29327         5.16659
     2020.23271        -9.91384         5.22359
     2020.23545        -4.92941         5.21278
     2020.23819        -8.24498         5.21474
     2020.24093       -12.52055         5.20295
     2020.24366        -7.89312         5.19804
     2020.24640        -8.10869         5.17642
     2020.24914       -12.16826         5.18526
     2020.25188       -11.36783         5.20983
     2020.25462        -7.65241         5.21278
     2020.25735       -10.58798         5.17248
     2020.26009        -5.24755         5.16560
     2020.26283        -8.23412         5.20885
     2020.26557        -9.49869         5.98231
     2020.26830        -9.69726         5.31597
     2020.27104       -11.49383         5.39067
     2020.27378        -9.41240         5.18624
     2020.27652        -8.88497         5.17445
     2020.27926        -8.91654         5.30320
     2020.28199        -9.56211         5.35430
     2020.28473       -13.01668         5.25209
     2020.28747        -8.05325         5.23244
     2020.29021        -9.07582         5.23931
     2020.29295       -13.85939         5.23047
     2020.29568       -14.15797         5.17838
     2020.33675        -4.78253         5.13415
     2020.33949       -10.70510         5.18526
     2020.34223       -18.57767         5.23931
     2020.34496       -11.63824         5.28354
     2020.34770       -13.80481         5.11941
     2020.34919        -7.54241        19.12532
     2020.49828        -6.03119         5.17838
     2020.50102        -8.44276         5.20000
     2020.50376       -14.50334         5.11646
     2020.50650       -15.02891         5.11745
     2020.50924       -11.92648         5.19017
     2020.51197       -12.43305         5.15283
     2020.51471       -11.91062         5.16167
     2020.51745       -15.96119         5.21180
     2020.52019        -8.59176         5.32384
     2020.52292        -9.33133         5.26388
     2020.52566       -11.00590         5.27175
     2020.52840        -8.19747         5.21376
     2020.53114       -11.65604         5.23342
     2020.53388        -5.61461         5.29730
     2020.53661        -8.31118         5.26094
     2020.53935        -9.75675         5.29140
     2020.54209       -10.72132         5.25406
     2020.54483        -7.92090         5.25995
     2020.54757        -9.29547         5.25013
     2020.55030       -14.27804         5.43882
     2020.55304       -10.65961         5.26880
     2020.55578        -6.30618         5.25995
     2020.55852        -3.09975         5.24423
     2020.56125       -13.67432         5.21671
     2020.56399        -7.40589         5.27371
     2020.56673        -6.33346         5.50860
     2020.56947        -6.15703         5.36708
     2020.57221        -5.81860         5.39755
     2020.57494       -17.00117         5.20885
     2020.57768       -11.78974         5.27568
     2020.58042        -5.47831         5.25897
     2020.58316       -12.69488         5.35725
     2020.58590       -18.15945         5.26585
     2020.58863        -7.99803         5.25013
     2020.59137        -3.83960         5.29239
     2020.59411        -1.73217         5.31106
     2020.59685        -5.34874         5.44767
     2020.59958         0.63869         5.54988
     2020.60232       -11.87988         5.23342
     2020.60506         3.24955         5.70615
     2020.60780       -11.61002         5.27470
     2020.61054        -3.98259         5.25602
     2020.61327        -6.70516         5.27273
     2020.61601        -5.42173         5.22064
     2020.61875       -10.61030         5.26782
     2020.62149        -9.31887         5.34447
     2020.62423       -11.24944         5.30516
     2020.62696        -9.64301         5.25995
     2020.62970        -4.23759         5.30221
     2020.63244        -4.84616         5.28845
     2020.63518        -0.25173         5.47617
     2020.63791       -12.39530         5.36216
     2020.64065        -9.77587         5.35529
     2020.64339       -10.74944         5.17347
     2020.64613        -7.97201         5.18329
     2020.64887        -7.13558         5.22457
     2020.65160        -9.11815         5.20590
     2020.65434       -20.90472         5.21474
     2020.65708        -7.87929         5.58231
     2020.65982        -8.69886         5.25504
     2020.66256        -7.82443         5.28256
     2020.66529        -0.13100         5.30516
     2020.66803        -9.65557         5.37199
     2020.67077        -8.28015         5.19017
     2020.67351        -2.07472         5.35823
     2020.67624        -7.36729         5.27371
     2020.67898       -10.06286         5.25799
     2020.68172        -7.17743         5.23342
     2020.68446       -10.91900         5.20099
     2020.68720        -7.76757         5.23342
     2020.68993       -13.59414         5.21376
     2020.69267        -3.26471         5.33956
     2020.69541       -11.81028         5.55676
     2020.69815        -7.19085         5.33170
     2020.70089       -16.58142         5.17543
     2020.70362       -12.30199         5.24325
     2020.70636       -18.68556         5.46831
     2020.70910       -12.26913         5.47224
     2020.71184        -6.08871         5.33759
     2020.71457       -13.82628         5.32777
     2020.71731        -9.75585         5.32089
     2020.72005       -10.18342         5.56659
     2020.72279        -4.94699         5.33956
     2020.72553        -7.83156         5.33956
     2020.72826        -9.49813         5.35430
     2020.73100        -3.57070         5.32089
     2020.73374        -5.06927         5.36806
     2020.73648         5.24516         5.31597
     2020.73921        -1.88541         5.56167
     2020.74195        -6.57398         5.24423
     2020.74469        -8.20855         5.23833
     2020.74743        -7.45112         5.29140
     2020.75017        -4.24769         5.27961
     2020.75290        -5.82527         5.39263
     2020.75564         3.43716         5.56364
     2020.75838       -11.08041         5.18428
     2020.76112         3.23902         5.55185
     2020.76386       -11.43655         5.22261
     2020.76659        -6.45712         5.14693
     2020.76933        -9.71569         5.24914
     2020.77207       -16.64626         5.17740
     2020.77481        -2.71083         5.21278
     2020.77754        -3.52840         5.34546
     2020.78028        -9.72597         5.19804
     2020.78302        -9.54954         5.18428
     2020.78576       -19.23111         5.18821
     2020.82956        -9.78024         5.30615
     2020.83230         0.61419         5.33956
     2020.83504        -3.24938         5.49779
     2020.83778        -5.02996         5.42801
     2020.84052        -6.70853         5.23440
     2020.84325       -12.44610         5.38477
     2020.84599        -9.01067         5.49288
     2020.84873        -7.86024         5.21769
     2020.85147       -10.45481         5.21573
     2020.85420        -7.46138         5.23735
     2020.85694        -8.07395         5.46241
     2020.85968         1.38248         5.28354
     2020.86242        -1.28009         5.29239
     2020.86516        -1.34566         5.51155
     2020.86789        -0.56223         5.53710
     2020.87063         5.43720         5.30320
     2020.87337         0.18563         5.21769
     2020.87611        -1.01694         5.34644
     2020.87885        -3.55152         5.33366
     2020.88158        -3.28509         5.29828
     2020.88432        -4.89966         5.26782
     2020.88706        -4.52623         5.47912
     2020.88980        -3.99880         5.33465
     2020.89253        -2.47437         5.27961
     2020.89527        -2.58394         5.39951
     2020.89801        -0.05951         5.52826
     2020.90075        -3.28208         5.21868
     2020.90349         3.57635         5.35529
     2020.90622       -11.53022         5.24816
     2020.90896       -11.99679         5.33563
     2020.91170        -3.66536         5.40246
     2020.91444        -0.27893         5.37789
     2020.91718        -3.10950         5.44865
     2020.91991        -9.80708         5.42506
     2020.92265       -10.49165         5.38968
     2020.92539        -9.59522         5.49779
     2020.92813       -12.39179         5.24521
     2020.93086       -15.68136         5.40541
     2020.93360        -6.89593         5.46732
     2020.93634        -8.97350         5.25406
     2020.93908       -16.00907         5.20000
     2020.94182       -11.59364         5.23342
     2020.94455       -13.91621         5.17445
     2020.94729       -16.70078         5.21081
     2020.95003       -12.29135         5.21966
     2020.95277       -17.78792         5.20393
     2020.95551       -13.00649         5.22949
     2020.95824       -13.13206         5.24226
     2020.96098       -10.37264         5.19509
     2020.96372       -16.21321         5.22654
     2020.96646       -10.72878         5.28944
     2020.96919        -9.61235         5.31106
     2020.97193       -14.82692         5.17150
     2020.97467       -14.16149         5.20885
     2020.97741       -13.81706         5.30811
     2020.98015       -17.77263         5.37494
     2020.98288       -15.99420         5.34939
     2020.98562       -12.84777         5.14497
     2020.98836        -8.41234         5.11646
     2020.99110       -11.11491         5.10958
     2020.99384        -7.26348         5.13907
     2020.99657       -13.42105         5.11941
     2020.99931       -10.21362         5.15086
     2021.00205       -10.35019         5.17052
     2021.00479        -2.97877         5.20295
     2021.00752       -11.88234         5.17740
     2021.01026        -9.01391         5.21671
     2021.01300        -7.57048         5.21474
     2021.01574        -8.47505         5.22261
     2021.01848       -10.27862         5.17347
     2021.02121       -13.77019         5.28845
     2021.02395       -14.36276         5.22261
     2021.02669       -16.75833         5.17150
     2021.02943       -13.10790         5.16757
     2021.03216        -4.45847         5.32285
     2021.03490        -5.64504         5.19705
     2021.03764        -9.59061         5.25307
     2021.04038        -7.25218         5.26094
     2021.04312       -15.18875         5.16266
     2021.04585        -9.84433         5.18723
     2021.04859       -10.14890         5.13612
     2021.05127        -7.41256         5.37986
     2021.05983       -17.01872         5.64226
     2021.06228       -20.30175         5.16659
     2021.06502       -15.28432         5.15774
     2021.06776       -18.54289         5.18231
     2021.07049        -8.54946         5.38968
     2021.07323       -12.94103         5.16757
     2021.07597       -12.37560         5.17347
     2021.07871       -13.67817         5.16462
     2021.08145       -14.85274         5.18723
     2021.08418       -17.83731         5.24128
     2021.08692       -18.19689         5.14988
     2021.08966       -18.79746         5.32482
     2021.09240       -23.72403         7.79263
     2021.09514       -17.78860         5.25111
     2021.09787       -13.56917         5.29632
     2021.10061        -8.45074         5.13514
     2021.10335       -12.52131         5.11548
     2021.10609       -16.09688         5.15086
     2021.10882       -12.88345         5.12629
     2021.11156       -17.69402         5.15381
     2021.11430       -15.61759         5.13612
     2021.11704       -12.84016         5.11941
     2021.11978       -12.99773         5.13514
     2021.16084        -1.38929         5.25504
     2021.16358        -9.52786         5.22752
     2021.16632        -3.49143         5.28747
     2021.16906        -6.41501         5.12334
     2021.17180       -11.14658         5.11941
     2021.17453       -17.47215         5.33661
     2021.17727       -13.26672         5.31597
     2021.18001        -9.71029         5.30811
     2021.18275       -18.34186         5.35529
     2021.18548       -22.72643         5.09877
     2021.18822       -21.35100         5.11057
     2021.19096        -9.95357         5.13809
     2021.19370       -13.64014         5.21671
     2021.19644       -33.08671         5.18035
     2021.19917       -14.47728         5.14497
     2021.20191       -11.55385         5.14693
     2021.20465        -3.28742         5.18723
     2021.20739       -10.25799         5.14497
     2021.21013        -7.24356         5.20393
     2021.21286       -10.45214         5.24619
     2021.21560        -7.15671         5.13809
     2021.21834       -11.78028         5.13612
     2021.22108       -11.32485         5.12531
     2021.22381       -10.07442         5.14398
     2021.22655        -8.16199         5.16757
     2021.22929        -7.77556         5.13317
     2021.23203        -9.81013         5.15578
     2021.23477       -12.60970         5.18035
     2021.23750       -12.53027         5.12924
     2021.24024       -10.51384         5.14595
     2021.24298        -8.83341         5.19607
     2021.24572       -12.91698         5.18723
     2021.24846        -6.84355         5.31794
     2021.25119        -6.58712         5.13809
     2021.25393        -7.86370         5.14988
     2021.25667       -14.41127         5.11941
     2021.25941       -10.94784         5.13907
     2021.26214       -11.23641         5.15676
     2021.26488       -12.29898         5.16266
     2021.26762       -11.24755         5.22261
     2021.27036       -10.08812         5.33465
     2021.27310       -11.78169         5.15185
     2021.27583       -14.29526         5.14988
     2021.27857       -20.60083         5.23440
     2021.28131       -11.77940         5.24619
     2021.28405       -17.71197         5.23637
     2021.28679       -15.66254         5.22654
     2021.28952       -15.43311         5.24521
     2021.29226       -11.48268         5.23833
     2021.29500       -16.28826         5.23833
     2021.29774       -17.99483         5.39165
     2021.30047        -6.26240         5.28256
     2021.30321        -7.66697         5.23931
     2021.30595        -6.68254         5.49386
     2021.30869        -2.41511         5.35922
     2021.31143       -10.13868         5.14103
     2021.31416       -13.04325         5.14103
     2021.31690        -8.47982         5.16659
     2021.31964        -8.66239         5.40541
     2021.32238        -7.94396         5.38772
     2021.32512       -11.29253         5.19017
     2021.32785       -13.16710         5.21081
     2021.33059        -7.92767         5.16659
     2021.33202       -33.40737       102.52978
     2021.35249        -9.36524         5.11843
     2021.35523       -17.27881         5.11843
     2021.35797       -12.98538         5.11548
     2021.36071       -14.35895         5.12138
     2021.36344       -16.96452         5.13219
     2021.36618       -18.20609         5.11253
     2021.36892       -13.02366         5.15676
     2021.37166       -15.91023         5.12433
     2021.37440       -15.86480         5.10762
     2021.37713       -13.93838         5.13809
     2021.37987       -12.22095         5.22949
     2021.38261       -15.85352         5.40148
     2021.38535       -21.02209         5.32777
     2021.38809       -18.30866         5.19312
     2021.39082        -7.86723         5.15381
     2021.39356        -9.45280         5.15479
     2021.39630       -11.00737         5.12040
     2021.39904       -12.41894         5.09681
     2021.40177        -9.97651         5.10074
     2021.40451       -10.80608         5.26585
     2021.40725       -13.03065         5.17543
     2021.40999       -10.68822         5.17936
     2021.41273       -12.15279         5.15479
     2021.41546        -5.65636         5.20393
     2021.41820       -13.35293         5.27764
     2021.42094       -11.72851         5.22359
     2021.42368        -7.90808         5.34546
     2021.42642        -8.60565         5.15381
     2021.42915        -7.97522         5.11450
     2021.43189        -8.80279         5.15086
     2021.43463       -16.52436         5.21278
     2021.43737       -10.07893         5.22949
     2021.44010       -14.23150         5.27273
     2021.44284       -18.27907         5.25111
     2021.44558       -15.07364         5.24914
     2021.44712        -8.39615        15.93514
     2021.45464        -1.18198         9.54202
     2021.45653        -8.35892         5.24914
     2021.45927        -8.88449         5.20983
     2021.46201       -10.64607         5.15185
     2021.46475       -15.51464         5.14005
     2021.46748       -14.67421         5.24521
     2021.47022       -14.78278         5.37986
     2021.47296       -11.09135         5.39460
     2021.47570       -13.39992         5.26782
     2021.47843       -13.67149         5.38182
     2021.49304         4.80113        10.26045
     2021.49486       -12.00391         5.25799
     2021.49680        -6.94578         8.23588
     2021.50973       -16.76385        13.39165
     2021.51129        -9.24234         5.24030
     2021.51403       -17.92791         5.29927
     2021.51676       -14.14048         5.37003
     2021.51950       -10.28905         5.34054
     2021.52224        -8.33562         5.26585
     2021.52498       -11.96119         5.23047
     2021.52772        -7.37376         5.29533
     2021.53045        -8.40833         5.37199
     2021.53319        -7.26090         5.23735
     2021.53593       -12.76047         5.34251
     2021.53867        -6.31704         5.56364
     2021.54141        -5.81061         5.34939
     2021.54414       -13.39019         5.36020
     2021.54688       -17.21976         5.22162
     2021.54962        -9.82133         5.22064
     2021.55236        -8.60690         5.27961
     2021.55487        -8.37584         5.95086
     2021.55872        -9.89360         8.83833
     2021.56057        -9.10961         5.26094
     2021.56331        -7.34618         5.25209
     2021.56605        -8.94775         5.25406
     2021.56878       -10.66032         5.25111
     2021.57152        -9.69189         5.26094
     2021.57426       -12.52346         5.33759
     2021.57700        -6.71703         5.39951
     2021.57974       -12.69860         5.22949
     2021.58247       -16.44717         5.27666
     2021.58521       -13.57475         5.27175
     2021.58795       -11.37532         5.29927
     2021.59069        -6.54089         5.39361
     2021.59342       -11.91746         5.31990
     2021.59616       -11.76603         5.35037
     2021.59890       -15.03960         5.27470
     2021.60164        -8.34617         5.24914
     2021.60438       -12.68974         5.30418
     2021.60711        -8.51631         5.26880
     2021.60985       -14.13288         5.29239
     2021.61259       -10.78645         5.22949
     2021.61533       -18.69202         5.26192
     2021.61807        -8.13759         5.52629
     2021.62080       -10.56216         5.50467
     2021.62354       -10.89473         5.23342
     2021.62628       -14.28230         5.23440
     2021.62902        -1.73288         5.37199
     2021.63175        -3.18145         5.34546
     2021.63449       -14.86702         5.20983
     2021.63723        -6.90559         5.43391
     2021.63997        -8.83216         5.33661
     2021.64271        -4.81673         8.76462
     2021.64544        -7.56730         5.41818
     2021.64818        -5.99187         5.27371
     2021.65092       -11.07544         5.29337
     2021.65366        -9.13101         5.23637
     2021.65639         2.82542         5.49976
     2021.65913        -2.18115         5.32973
     2021.66170        -2.98500         9.99116
     2021.66524       -11.98828         7.25111
     2021.66735        -5.26486         5.27666
     2021.67008       -13.18544         5.40737
     2021.67282        -7.86201         5.50565
     2021.67556        -1.61858         5.59804
     2021.67830        -3.42215         5.43882
     2021.68104        -7.88772         5.22654
     2021.68377        -4.13529         5.38673
     2021.68651       -13.29386         5.27961
     2021.68925        -7.59943         5.27175
     2021.69199        -1.28500         5.43882
     2021.69472        -7.26457         5.22752
     2021.69746        -3.80214         5.20688
     2021.70020        -6.56571         5.31794
     2021.70294        -4.32128         5.78280
     2021.70568        -5.28285         5.29533
     2021.70841        -6.32842         5.26094
     2021.71115        -1.49200         5.33661
     2021.71389        -3.49557         5.26192
     2021.71663        -9.80414         5.21376
     2021.71937        -7.98571         5.25799
     2021.72210        -6.30028         5.41032
     2021.72484        -7.96385         5.27470
     2021.72758       -11.72442         5.31794
     2021.73032        -5.71799         5.67076
     2021.73305        -4.72456         5.25111
     2021.73579        -8.74513         5.29435
     2021.73853         6.03730         5.31794
     2021.74127        -3.59127         5.27764
     2021.74401        -9.43884         5.32089
     2021.74674        -4.59041         5.33366
     2021.74948        -3.22898         8.27027
     2021.75222        -4.73056         5.42310
     2021.75496        -7.45013         5.50762
     2021.75770        -4.80170         5.23735
     2021.76043        -7.54527         5.21081
     2021.76317        -7.18984         5.21966
     2021.76591        -7.98241         5.23342
     2021.76865        -7.37298         5.26192
     2021.77138        -3.55855         5.36413
     2021.77412        -2.50612         5.31990
     2021.77686        -7.69469         5.23244
     2021.77960        -5.77926         5.58624
     2021.78234        -7.07583         5.33759
     2021.78507        -2.40140         5.21180
     2021.78781        -4.00597         5.26192
     2021.79055        -4.69254         5.26487
     2021.79329       -11.31312         5.24423
     2021.79603       -11.67369         5.30909
     2021.79876        -1.19126         5.37789
     2021.80150         3.91617         5.40737
     2021.80424       -13.27040         5.41130
     2021.80698        -7.97597         5.39755
     2021.80971        -9.66654         5.32089
     2021.81245        -3.48411         5.43686
     2021.81519        -3.05568         5.22359
     2021.81793        -1.46225         5.35135
     2021.82067       -11.56382         5.42212
     2021.82340        -5.17339         5.37691
     2021.82614        -9.32896         5.37494
     2021.82888        -7.21053         5.36413
     2021.83162        -5.58310         5.30615
     2021.83436         7.56333         5.40541
     2021.83709        -8.39125         5.42605
     2021.83886       -13.90538         9.75332
     2021.87374         3.56104        11.44276
     2021.87542        -6.63523         5.36020
     2021.87816        -6.39281         5.26978
     2021.88090        -9.65238         5.28944
     2021.88364       -17.20195         5.24914
     2021.88637        -6.25352         5.29140
     2021.88911        -8.59209         5.29927
     2021.89185       -14.29466         5.37396
     2021.89459       -10.12423         5.27666
     2021.89733        -6.93880         5.27470
     2021.90006       -11.19637         5.36118
     2021.90280        -7.73994         5.23538
     2021.90554        -7.05951         5.28845
     2021.90828        -5.63108         5.20197
     2021.91102        -9.19765         5.21769
     2021.91375        -7.20422         5.30418
     2021.91649        -6.70079         5.32482
     2021.91923         1.13663         5.40344
     2021.92197       -18.12294         5.70320
     2021.92470       -18.12351         5.36216
     2021.92744       -18.48608         5.36413
     2021.93018       -12.46665         5.41720
     2021.93292        -7.15822         5.48502
     2021.93566         3.82521         5.50762
     2021.93839        -8.56836         5.47322
     2021.94113         2.10307         5.57052
     2021.94661         1.72293         5.39558
     2021.94935        -6.10064         5.33661
     2021.95208        -8.07521         5.35529
     2021.95482       -11.57378         5.43686
     2021.95756        -9.58435         5.42506
     2021.96030       -12.11293         5.42113
     2021.96303       -17.81050         5.38870
     2021.96577       -13.54907         5.40344
     2021.96851        -8.40664         5.46438
     2021.97125        -9.70021         5.50172
     2021.97399        -2.35978         5.44177
     2021.97672        -3.72935         5.42310
     2021.97946         2.04808         5.47420
     2021.98220        -1.05849         5.44374
     2021.98494         0.79994         5.48108
     2021.98767        -4.69563         5.46339
     2021.99041        -4.09620         5.33858
     2021.99315        -5.91377         5.33956
     2021.99589        -4.20234         5.35430
     2021.99863        -7.00091         5.34546
     2022.00136        -3.06949         5.42703
     2022.00410        -1.86506         5.35823
     2022.00684       -12.90363         5.29927
     2022.00958       -13.52420         5.28747
     2022.01232       -25.05077         5.34546
     2022.01505        -3.14934         5.39460
     2022.01779        -4.64991         5.35922
     2022.02053        -7.65648         5.35725
     2022.02327       -19.68105         5.71302
     2022.02600       -20.77362         5.41425
     2022.02874       -15.72319         5.50369
     2022.03148       -24.44576         5.38575
     2022.03422       -24.00333         5.38182
     2022.03696       -23.79890         5.56167
     2022.03969       -16.08747         5.42801
     2022.04243       -13.37604         5.45848
     2022.04517       -12.47962         5.46339
     2022.04791       -10.53719         5.39656
     2022.05065        -7.24176         5.36020
     2022.05338       -13.53833         5.36806
     2022.05612       -14.31590         5.46536
     2022.05886       -15.37847         5.40934
     2022.06160       -17.12604         5.41720
     2022.06433       -11.25161         5.37396
     2022.06707       -12.62318         5.43981
     2022.06981       -17.11775         5.33563
     2022.07255       -22.76932         5.29140
     2022.07529        -9.05489         5.34153
     2022.07802        -3.00246         5.32777
     2022.08076        -8.33503         5.29140
     2022.08350        -9.44060         5.28354
     2022.08624       -12.13518         5.27175
     2022.08898        -6.44375         5.32777
     2022.09171       -12.64232         5.44177
     2022.09445       -12.08389         5.37298
     2022.09719        -8.23446         5.29927
     2022.10266       -13.74060         5.51843
     2022.10540        -3.80917         5.43391
     2022.10814         0.30926         5.66585
     2022.11088         1.86769         5.40148
     2022.11362        -3.05888         5.27961
     2022.11635       -11.23145         5.27371
     2022.11909        -9.78202         5.31302
     2022.12183        -8.12759         5.28059
     2022.12457       -20.16316         5.55971
     2022.12731       -18.72374         5.27863
     2022.13004       -18.10431         5.51843
     2022.13278       -11.86788         5.31401
     2022.13529        -5.32382         5.75922
     2022.17659        -7.22601         5.25307
     2022.17932        -9.72358         5.27470
     2022.18206        -9.08215         5.28944
     2022.18480       -11.65572         5.25307
     2022.18754        -5.16029         5.37494
     2022.19028        -7.27386         5.40148
     2022.19301        -6.87843         5.27175
     2022.19575        -4.92500         5.30811
     2022.19849        -5.79157         5.40737
     2022.20123         2.00786         5.33858
     2022.20397        -3.65471         5.30025
     2022.20670       -11.02828         5.41130
     2022.20944        -1.45986         5.54398
     2022.21218        -3.20743         5.30123
     2022.21492       -13.75900         5.25209
     2022.21765       -10.88157         5.26683
     2022.22039       -13.07214         5.32580
     2022.22313        -9.96971         5.36216
     2022.22587       -15.62328         5.37887
     2022.22861       -11.70285         5.40049
     2022.23134        -9.10842         5.26388
     2022.23408        -8.37999         5.24619
     2022.23682       -11.89256         5.40934
     2022.23956        -8.26413         5.46339
     2022.24230       -17.97070         5.28944
     2022.24503       -13.49127         5.29140
     2022.24777        -7.83384         5.27470
     2022.25051       -14.49841         5.27764
     2022.25325        -6.07599         5.31696
     2022.25598       -11.26556         5.24423
     2022.25872       -11.68513         5.34251
     2022.26146       -10.39670         5.28747
     2022.26420        -9.43127         5.26683
     2022.26694       -26.84084         5.33759
     2022.26967       -17.98841         5.25897
     2022.27241        -6.01098         5.27371
     2022.27515        -8.80755         5.33759
     2022.27789        -7.68212         5.28158
     2022.28062       -13.89169         5.24325
     2022.28336        -7.53126         5.36216
     2022.28610       -10.92383         5.39951
     2022.28884       -13.65240         5.40443
     2022.29158       -13.07297         5.30123
     2022.29431       -11.71955         5.31597
     2022.29705       -10.83612         5.30025
     2022.29979        -4.69169         5.31597
     2022.30253        -8.63826         5.40246
     2022.30527        -8.20183         5.41229
     2022.30800       -12.11540         5.30909
     2022.31074       -11.92097         5.27764
     2022.31348       -14.33654         5.26585
     2022.31622       -16.68711         5.29140
     2022.31895       -24.29568         5.40737
     2022.32169       -15.13225         5.43784
     2022.32443       -16.91982         5.25406
     2022.32717       -17.80639         5.22654
     2022.32991       -17.31496         5.31892
     2022.33264       -19.37153         5.38870
     2022.33538       -14.69111         5.53612
     2022.33812        -7.53268         5.52924
     2022.34063       -27.62362         5.74546
     2022.34457        -9.58525        10.41671
     2022.34633       -15.37439         5.27863
     2022.34907       -14.12196         5.28452
     2022.35181        -8.14453         5.27764
     2022.35455       -12.50910         5.32089
     2022.35728       -11.64167         5.24128
     2022.36002       -13.79324         5.26683
     2022.36276       -12.61781         7.88993
     2022.36550       -13.23238         5.29337
     2022.36824       -10.80695         5.23538
     2022.37097       -20.54552         5.28059
     2022.37371       -19.52609         5.29435
     2022.37645       -15.08667         5.28354
     2022.37919       -17.28724         5.50664
     2022.38193       -28.16681         5.46831
     2022.38466       -23.59338         5.25406
     2022.38740       -28.57395         5.28354
     2022.39014       -15.72152         5.33072
     2022.39288       -16.25109         5.38870
     2022.39561       -16.53266         5.30713
     2022.39818       -18.83351         5.84767
     2022.40098       -18.88399        18.39215
     2022.40389       -14.30928         5.33170
     2022.40657        -7.67694         5.26290
     2022.40930       -19.14451         5.32875
     2022.41204        -5.91208         5.30516
     2022.41478        -9.76665         5.21278
     2022.41752       -11.61523         5.31597
     2022.42026       -22.08480         5.32285
     2022.42299        -9.25437         5.26585
     2022.42573       -15.72794         5.23538
     2022.42847       -14.53551         5.22850
     2022.43121        -9.40408         5.32285
     2022.43394        -1.12365         5.36511
     2022.43668       -15.88922         5.32187
     2022.43942        -9.75179         5.22457
     2022.44216        -8.18736         5.23931
     2022.44490        -1.25993         5.36216
     2022.44763        -1.28450         5.19312
     2022.45037       -16.55707         5.19017
     2022.45311       -25.35064         5.22457
     2022.45585        -8.56521         5.23047
     2022.45859       -31.28678         5.17936
     2022.46132       -18.25236         5.16954
     2022.46406       -16.62693         5.22261
     2022.46680       -16.32550         5.25897
     2022.46954       -10.48607         5.27076
     2022.47227       -25.58364         5.15872
     2022.47501        -4.04521         5.17740
     2022.47775       -18.22778         5.33563
     2022.48049       -12.06435         5.27175
     2022.48323        -0.04592         5.24325
     2022.48596         3.68351         5.19509
     2022.48870       -12.22006         5.23145
     2022.49144       -12.95263         5.20983
     2022.49418        -5.94020         5.32482
     2022.49692        -3.90177         5.27470
     2022.49965       -17.31934         5.22162
     2022.50513        -8.20549         5.54988
     2022.50787        12.28594         5.49189
     2022.51060        -7.46663         5.38280
     2022.51334       -14.49720         5.26978
     2022.51608       -16.34277         5.21376
     2022.51882       -20.73634         5.23735
     2022.52156       -12.14891         5.28845
     2022.52429        -2.17648         5.26978
     2022.52703       -11.79505         5.25504
     2022.52977         1.95738         5.24226
     2022.53251       -12.47519         5.36118
     2022.53525       -10.77776         5.29828
     2022.53798       -12.57233         5.18231
     2022.54072       -12.09790         5.27568
     2022.54346        -7.67248         5.41032
     2022.54620       -10.37705         5.29927
     2022.54893        -0.72862         5.28747
     2022.55167        -0.24019         5.20590
     2022.55441        -2.42476         5.22654
     2022.55715         1.81767         5.27076
     2022.55989        -9.12590         5.34841
     2022.56262       -12.87047         5.33858
     2022.56536       -23.43804         5.23342
     2022.56810        -4.19461         5.23538
     2022.57084        -7.57718         5.23735
     2022.57357         2.08525         5.49484
     2022.57631       -21.27832         5.45455
     2022.57905       -15.30789         5.26683
     2022.58179        -3.73946         5.25111
     2022.58453         0.26896         5.62949
     2022.58726       -16.63661         5.28845
     2022.59000        -2.00918         5.32580
     2022.59274       -10.99275         5.24325
     2022.59548       -10.74932         5.34939
     2022.59822        -8.53189         5.51450
     2022.60095       -20.69346         5.21278
     2022.60369       -12.73903         5.23735
     2022.60643        -6.58460         5.27175
     2022.60917        -5.52117         5.33465
     2022.61190        -0.13874         5.31302
     2022.61464         1.21069         5.22064
     2022.61738         8.50512         5.29927
     2022.62012        -3.47345         5.26683
     2022.62263        -4.88239         5.70418
     2022.67060         1.16521        19.20787
     2022.67214        -6.95130         5.47126
     2022.67488        -6.87687         5.29927
     2022.67761        13.41456         5.41917
     2022.68035        -2.22701         5.34546
     2022.68309         6.06442         5.30025
     2022.68583        -3.14015         5.42605
     2022.68856        -1.21972         5.29730
     2022.69130         3.42571         5.30025
     2022.69404        -0.34486         5.31990
     2022.69678        -8.05843         5.29828
     2022.69952        -9.02000         5.32875
     2022.70225        -5.30557         5.39951
     2022.70499        -7.72614         5.55479
     2022.70773        -1.96371         5.28059
     2022.71047        -4.84029         5.15774
     2022.71321         6.82514         5.21376
     2022.71536         4.21764         6.98280
     2022.71964        -1.12145         9.80639
     2022.72142         3.32243         5.17838
     2022.72393        -1.22551         7.95283
