# ================= DQRFIT RESULTS ================
# INPUT FILE: series/BDRH.rad
# OUTPUT: LDETRENDED
# FILTER FUNCTION: f(t)
# f(t)=+line(t)
# line(t)=+P 1+P 2*t
# heav(t)=(t<0?0:1)
# TOTAL OBSERVATIONS MTOT=  227
# INITIAL TIME INTERVAL= 2010.9979 - 2010.2998 =  0.6982
# TOTAL OBSERVATIONS AFTER PREFILTER M=  223
# TIME-SPAN= 2010.9979 - 2010.2998 =  0.6982
# OBSERVATIONS: USED M=   223 REJECTED MTOT-M=     4 %USED=   98.2379
# N=  2 PARAMETERS
# MAXSIG= 175.00000
# MAXRES=  37.67735
# SCALE FACTOR FOR LENGTHS: SCL=  10.00000
# SCALE FACTOR FOR SIGMAS: SCLSIG=   1.00000
# CHI^2=    216.518 DOF=   221 CHI^2/DOF=   0.97972
# RMS=      9.178 SDEV=      9.138 MEAN=   -1.05549
#  P #       PARAMETER +-    SIGMA %error PARAMETER NAME
# P 1 =      7890.12348 +- 4238.602  53.72 YZERO                              
# P 2 =        -3.92990 +-    2.108  53.64 SLOPE                              
#       T            LDETRENDED       SIG_OBS
     2010.29979         1.56554         3.77227
     2010.30253         1.45857         3.75669
     2010.30527        -1.13682         3.77082
     2010.30801         8.95568         3.70121
     2010.31075         0.76895         3.56426
     2010.31348         5.24756         3.61376
     2010.31622         4.54976         3.59050
     2010.31896         4.70294         3.73348
     2010.32170         2.59825         3.65755
     2010.32444         5.99738         3.72339
     2010.32717       -10.43222         6.32702
     2010.32991        -5.04933         6.32524
     2010.33265        -9.20567         6.42957
     2010.33539        -6.24857         6.49648
     2010.33812        -0.31514         6.42107
     2010.34086       -13.11384         6.37236
     2010.34360        -6.01242         6.29635
     2010.34634        -6.00420         6.66818
     2010.34908        -2.51394         6.29969
     2010.35181        -6.80701         6.76339
     2010.35455         0.84155         7.42870
     2010.35729        -5.24952        18.87650
     2010.36003        -5.36191         6.52194
     2010.36277        -1.72184         6.64366
     2010.36550        -8.82185         6.85821
     2010.36824         0.75232         6.64090
     2010.37098        -0.87467         6.46257
     2010.37372         0.60990         6.24997
     2010.37645        -4.80940         6.31726
     2010.37919       -11.19768         6.92016
     2010.38193        -5.42210         6.56962
     2010.38467        -0.68850         6.64329
     2010.38741        -1.03890         6.39967
     2010.39014        -6.31596         6.31726
     2010.39288        -8.49000         6.29207
     2010.39562        -8.00724         6.38431
     2010.39836       -11.26374         6.45785
     2010.40110        -5.06280         6.22547
     2010.40383        -6.62975         6.19592
     2010.40657       -18.03030         6.43225
     2010.40931       -11.01256         6.23888
     2010.41205        -8.42608         6.34610
     2010.41478        -4.43062         6.62833
     2010.41752        -9.72957        12.64575
     2010.42026       -12.57857        24.07738
     2010.42300       -10.63633        25.63414
     2010.42574         3.67067        19.06534
     2010.42847        -8.05388        13.26179
     2010.43121       -15.73020        13.87834
     2010.43395       -21.96187        17.99327
     2010.43669        -8.59619        16.27453
     2010.43943       -11.43239        23.37498
     2010.44216       -10.82153        22.13146
     2010.44490       -16.18440        19.68736
     2010.44764       -19.31968        17.78547
     2010.45038        -0.97218        14.44783
     2010.45311         1.43945        10.66429
     2010.45585        -5.14291         7.41315
     2010.45859       -36.50801        15.84308
     2010.46133       -16.12014        25.93380
     2010.46407         4.16515        23.82065
     2010.46680       -12.66001        16.14780
     2010.46954       -20.60291        24.05929
     2010.47228         4.99776        26.66373
     2010.47502        -2.39655        22.52559
     2010.47775       -16.17613        24.94855
     2010.48049        -7.98483        14.75763
     2010.48323         2.00001         6.14592
     2010.48597        -7.43293         6.34868
     2010.48871        -3.85249         7.81786
     2010.49144        37.67735        48.90658
     2010.49418        -7.42466         7.25050
     2010.49692         0.16580         6.20498
     2010.49966        -5.04178         6.77202
     2010.50240        -4.21437         6.48896
     2010.50513         0.42370         6.30362
     2010.50787        -3.18101         6.41011
     2010.51061        -1.35951         6.29279
     2010.51335         0.48243         6.66049
     2010.51608        -7.66367         6.17579
     2010.51882         4.95414         6.92428
     2010.52156        -1.91117         6.36430
     2010.52430         5.88514         6.45104
     2010.52704       -13.66992         6.16833
     2010.52977         2.90222         6.28162
     2010.53251        -0.84413         6.35941
     2010.53525        -1.94675         6.37522
     2010.53799         5.48844         6.39581
     2010.54073         3.34165         6.46780
     2010.54346        -7.16276         6.54804
     2010.54620        -0.56187         6.34205
     2010.54894         7.52174         6.93712
     2010.55168         0.26908         6.29594
     2010.55441        10.35645         6.33171
     2010.55715         0.79907         6.15689
     2010.55989        -2.33647         6.46247
     2010.56263         9.39916         6.53997
     2010.56537         8.25925         6.24772
     2010.56810         4.67105         6.33791
     2010.57084        -0.06210         6.32132
     2010.57358        -6.01421         6.54435
     2010.57632        -3.58624         6.65539
     2010.57906        -3.81364         6.43587
     2010.58179         9.29114         6.34956
     2010.58453         7.11048         6.28548
     2010.58727         2.61955         6.32842
     2010.59001        11.02272         6.50735
     2010.59274        12.76662         6.89805
     2010.59548        10.54216         6.19837
     2010.59822        10.40716         6.48921
     2010.60096         2.41807         6.41851
     2010.60370         4.43013         6.58305
     2010.60643         0.43364         6.48546
     2010.60917         5.33166         6.33601
     2010.61191         5.00858         6.21002
     2010.61465         6.36700         6.32744
     2010.61739        10.79005         6.60800
     2010.62012         8.61534         6.54008
     2010.62286         3.54353         6.30853
     2010.62560         0.53790         6.20997
     2010.62834         1.23533         6.29559
     2010.63107         9.52151         6.66951
     2010.63381         6.52229         6.35125
     2010.63655        11.61842         6.48168
     2010.63929        -1.62971         6.18787
     2010.64203         1.34241         6.50494
     2010.64476         1.12918         6.55627
     2010.64750         8.40874         6.59203
     2010.65024         0.59319         6.46279
     2010.65298         8.33323         6.90807
     2010.65572         3.14703         6.57543
     2010.65845         7.47013         6.29546
     2010.66119         6.89561         6.75973
     2010.66393         2.37641         6.56942
     2010.66667       -11.01670        23.59153
     2010.66940         4.02351        16.52335
     2010.67214         0.67872        14.65479
     2010.67488        23.13731        19.08862
     2010.67762         1.54083        20.85852
     2010.68036       -12.70507        15.42473
     2010.68309       -10.60356        18.65235
     2010.68583        -2.39678        15.01219
     2010.68857        -0.79777        19.77548
     2010.69131         9.84163        14.13632
     2010.69405        13.47601        14.26925
     2010.69678        -6.69892        18.65876
     2010.69952        18.81719        28.29303
     2010.70226        19.86784        19.81362
     2010.70500        -5.25889        14.36758
     2010.70773        -2.14401         8.00854
     2010.71321         1.93256         6.76324
     2010.71595        -3.59526         7.09049
     2010.71869         3.55938        12.58925
     2010.72142        10.61277         8.21461
     2010.72416        -4.50034         7.54968
     2010.72690         5.12261         6.72984
     2010.72964         7.38345         6.58591
     2010.73238         4.04607         6.54467
     2010.73511         4.22720         8.39571
     2010.73785        -7.71585         7.56097
     2010.74059        -7.01242         9.26099
     2010.77892       -33.21418        26.86732
     2010.78166        -3.25027         7.10158
     2010.78439        -3.55442        13.38790
     2010.78713         3.81956         7.25193
     2010.78987         5.65799         6.79074
     2010.79261         5.25029         7.05661
     2010.79535         5.51250         6.54021
     2010.79808         3.68228         7.48717
     2010.80356         4.25226        13.57095
     2010.80630        -1.26912         6.91804
     2010.80903         8.65703         6.66132
     2010.81177        10.08130         6.69988
     2010.81451         2.38358         7.01678
     2010.81725        10.16849         7.26968
     2010.81999         4.08922         7.11409
     2010.83368       -29.72111        17.82791
     2010.83641        -1.38496         6.84453
     2010.83915         4.99643         7.31071
     2010.84189         4.28556         7.01082
     2010.84463        17.28801         6.89704
     2010.84736         4.93263         6.65237
     2010.85010         3.91552         7.01734
     2010.85284        -3.36649         6.98693
     2010.85558         0.96034         6.69506
     2010.85832         0.71189         6.96297
     2010.86105        -9.19685         6.97718
     2010.86379        -6.87264         6.65829
     2010.86653        -6.59388         6.81114
     2010.86927       -12.12815         7.22665
     2010.87201        -5.14139         7.00361
     2010.87474        -4.57490         8.55513
     2010.87748        -3.54027         6.46822
     2010.88296         3.41921        20.75932
     2010.88569        16.69970        14.22510
     2010.88843         1.46975         7.74276
     2010.92129       -10.26839         6.41072
     2010.92402         5.61577         6.30880
     2010.92676         0.94524         6.37234
     2010.92950        -8.68184         6.29992
     2010.93224        -0.29138         6.41053
     2010.93498        -1.18540         6.47537
     2010.93771        -2.52912         6.37307
     2010.94045        -2.85871         6.45535
     2010.94319       -12.99115         6.77268
     2010.94593       -14.20956         6.38369
     2010.94867        -9.45655         6.41467
     2010.95140        -2.45031         8.31724
     2010.95414        -8.01488         6.47017
     2010.95688       -16.58224         6.64147
     2010.95962        -0.69957         6.60876
     2010.96235         0.86641        10.09025
     2010.96783        19.76664        13.40721
     2010.97057         4.42466         6.46884
     2010.97331        -3.97376         6.42510
     2010.97604        -7.05829         6.42611
     2010.97878        -9.48011         6.23073
     2010.98152       -12.03404         6.29502
     2010.98426       -13.40928         6.60225
     2010.98700         1.00661         6.43370
     2010.99247         4.17938         6.43242
     2010.99521        11.21385         6.31475
     2010.99795        10.80028         6.52478
