# ================= DQRFIT RESULTS ================
# INPUT FILE: series/BEA2.rad
# OUTPUT: LDETRENDED
# FILTER FUNCTION: f(t)
# f(t)=+line(t)+annual(t)+jumps(t)
# line(t)=+P 1+P 2*t
# annual(t)=+P 3*sin(2*pi*t+P 4)
# jumps(t)=+P 5*heav(t-2003.9398  )
# heav(t)=(t<0?0:1)
# TOTAL OBSERVATIONS MTOT= 2254
# INITIAL TIME INTERVAL= 2010.8802 - 2003.0335 =  7.8467
# TOTAL OBSERVATIONS AFTER PREFILTER M= 2236
# TIME-SPAN= 2010.8802 - 2003.0335 =  7.8467
# OBSERVATIONS: USED M=  2236 REJECTED MTOT-M=    18 %USED=   99.2014
# N=  5 PARAMETERS
# MAXSIG= 175.00000
# MAXRES=  32.36110
# SCALE FACTOR FOR LENGTHS: SCL=  10.00000
# SCALE FACTOR FOR SIGMAS: SCLSIG=   1.00000
# CHI^2=   3929.386 DOF=  2231 CHI^2/DOF=   1.76127
# RMS=      8.119 SDEV=      8.120 MEAN=    0.02896
#  P #       PARAMETER +-    SIGMA %error PARAMETER NAME
# P 1 =      -977.93025 +-  165.142  16.89 YZERO                              
# P 2 =         0.48296 +-    0.082  17.07 SLOPE                              
# P 3 =         6.46856 +-    0.244   3.77 ANNUAL AMPLITUDE                   
# P 4 =        -2.73759 +-    0.049   1.80 ANNUAL PHASE                       
# P 5 =         7.32828 +-    0.996  13.59 OFFSET 2003.9398                   
#       T            LDETRENDED       SIG_OBS
     2003.03353       -24.16568         8.36090
     2003.03627       -15.70400         8.46176
     2003.03901       -17.31732         8.69799
     2003.04175       -20.70465         8.62765
     2003.04449       -19.55497         8.43389
     2003.04722       -14.16129         8.73250
     2003.04996       -19.06561         9.04703
     2003.05270       -10.25193         8.64889
     2003.05544        -9.59326         8.98598
     2003.05817       -13.50358         8.33303
     2003.06091        -9.63190         8.82142
     2003.06365        -5.77822         8.89839
     2003.06639        -5.70055         9.51152
     2003.06913         0.69513         8.85194
     2003.07186        -7.63619         8.63694
     2003.07460       -10.20551         8.73250
     2003.07734         3.77217         8.59448
     2003.08008         2.65184        10.54801
     2003.08282        -0.85148         8.84530
     2003.08555        -3.60180         8.95678
     2003.08829         7.19388        12.91162
     2003.09103        -0.78845         9.07357
     2003.09377         1.24223         9.28989
     2003.09650        -1.35409         8.81345
     2003.09924        -3.58341         9.15983
     2003.10198        -4.68474         9.21823
     2003.10472        -9.27006         8.78160
     2003.10746        -4.18738         9.08551
     2003.11019        -3.32170         9.96009
     2003.11293        -2.67802         9.65485
     2003.11567        -9.12735         9.15585
     2003.11841       -15.56667         8.81611
     2003.12115       -16.34699         9.00987
     2003.12388        -8.96431         9.66547
     2003.12662       -16.77564         8.55864
     2003.12936       -10.04596         8.91431
     2003.13210        -8.25228         9.39739
     2003.13483        -9.52460         9.03906
     2003.13757        -4.25092         8.52414
     2003.14031        -9.72325         8.34763
     2003.14305        -9.39857         8.78956
     2003.14579       -12.95889         8.40204
     2003.14852        -1.76721         8.59580
     2003.15126        -5.88854         8.54935
     2003.15400        -8.69686         9.47171
     2003.38798        12.57214        56.47325
     2003.38945         4.01143         8.78027
     2003.39219         4.14510         8.43788
     2003.39493        14.75178         8.08751
     2003.39767         7.82546         8.05964
     2003.40041         6.27714         8.84928
     2003.40314         4.11582         9.53541
     2003.40588         2.09449        10.77362
     2003.40862        12.17517         8.79487
     2003.41136         4.38785         8.18439
     2003.41410         4.21953         8.20032
     2003.41683        -0.15680         9.50356
     2003.41957        -3.70712         8.81213
     2003.42231        -4.99644         8.52812
     2003.42505        -1.03176         8.32507
     2003.42778         7.57691         8.54006
     2003.43052        -0.03841         8.23482
     2003.43326         3.44627         8.98465
     2003.43600         0.60295         8.34763
     2003.43874         7.67963         8.24411
     2003.44147        12.77830         8.13396
     2003.44421         6.93498         8.12733
     2003.44695         1.83166         8.14193
     2003.44969         2.61034         8.73648
     2003.45243         4.28801         8.46176
     2003.45516        -0.79331         9.61238
     2003.45790        -1.37963         9.71988
     2003.46064         1.56605        10.02645
     2003.46338        -0.14527         8.11804
     2003.46611         6.67040         8.09415
     2003.46885         4.65008         8.69534
     2003.47159        -1.74724         8.22023
     2003.47433         6.59144         8.15387
     2003.47707         1.88111         9.49161
     2003.47980         4.43979         8.25473
     2003.48254        -0.16553         8.34100
     2003.48528         3.36715         8.96873
     2003.48802        -1.87817         8.91830
     2003.49076         1.78550         8.40072
     2003.49349         0.43218         8.27198
     2003.49623         2.80386         8.25739
     2003.49897         9.00154         8.17112
     2003.50171         9.92921         8.44584
     2003.50444         5.42089         9.02048
     2003.50718         1.46057         8.40602
     2003.50992         0.54125         8.21890
     2003.51266         4.01392         8.31976
     2003.51430        10.15013        16.27854
     2003.94078        14.66216        21.27650
     2003.94251        12.72133         8.53343
     2003.94524        13.78300         8.28260
     2003.94798        14.86068         8.58651
     2003.95072        10.24136         8.32640
     2003.95346        16.79104         8.39939
     2003.95619        19.82571         8.19634
     2003.95893         7.87839         8.16449
     2003.96167         3.48707         8.15254
     2003.96441        20.89775         8.25871
     2003.96715        15.69443         8.75771
     2003.97015         6.82197        10.94880
     2003.97262        11.94278         8.43788
     2003.97536         9.97446         8.02647
     2003.97810        11.29914         7.99992
     2003.98084         8.25181         7.96144
     2003.98357         5.84649         7.90835
     2003.98631        -6.89883         7.98532
     2003.98905        -6.09715         7.98665
     2003.99179        -5.57747         7.97073
     2003.99452         0.47820         7.90039
     2003.99726        -3.26312         8.04903
     2004.00274       -14.56976         8.28393
     2004.00548        -9.65709         8.98332
     2004.00821       -15.87841         8.50556
     2004.01095       -18.05873         8.54670
     2004.01369       -11.82905         8.68605
     2004.01643         0.34662         9.29785
     2004.01916         2.30330         8.23217
     2004.02090        10.19146        16.01975
     2004.03111        12.92654        18.17634
     2004.03285        -1.31331         8.32374
     2004.03559         3.41837         8.22288
     2004.03833         1.65205        11.36419
     2004.04654        35.53808        15.93482
     2004.04928        -4.34124        15.15712
     2004.05202         3.47444        17.33759
     2004.05476       -41.76789        18.20022
     2004.06571       -12.06118        21.40391
     2004.06845        -8.84150        12.43784
     2004.07118       -43.21682        16.24138
     2004.07392         2.26086        11.90964
     2004.07666        -3.31046        13.10140
     2004.07940       -32.81279        15.53270
     2004.08487         0.76057        11.87779
     2004.09035         0.61192        19.89895
     2004.09572         3.48033        20.00777
     2004.11797        -0.92241        26.60758
     2004.12347        -1.02607        10.03574
     2004.12594        -2.40827         8.21757
     2004.12868        -4.23959         8.27198
     2004.13142         1.37309         8.21094
     2004.13415        -1.39423         8.26269
     2004.13689         3.26745         8.01983
     2004.13963         0.18512         8.11140
     2004.14237        -1.01220         8.26668
     2004.14511         0.98948         8.10742
     2004.14784         2.23616         8.33038
     2004.15058        -2.27917         8.30118
     2004.15332        -3.30449         8.18572
     2004.15606        -1.39581         8.23881
     2004.15880        -4.63713         8.43655
     2004.16153         1.77454         8.28127
     2004.16427        -9.72278         8.35957
     2004.16701        -8.04010         8.37948
     2004.16975        -1.22742         8.53210
     2004.17248         7.61426         8.30251
     2004.17522         7.62093         8.34100
     2004.17796         2.12361         8.16847
     2004.18070         4.49429         8.17378
     2004.18344         0.07097         8.15652
     2004.18617        -1.17736         9.28724
     2004.18891         4.73032         9.34430
     2004.19165        -4.46900         8.67676
     2004.19439        -3.16932         8.43124
     2004.19713         3.75436         8.25606
     2004.19986        -2.13397         8.36621
     2004.20260         2.00271         8.26800
     2004.20534         2.76239         8.16316
     2004.20808        -4.69093         8.81080
     2004.21081        -2.90226         9.13064
     2004.21355        -8.90858         8.43124
     2004.21629       -19.42890         8.46973
     2004.21903       -15.61122         9.03110
     2004.22177       -10.95555         8.47769
     2004.22450        -3.01687         8.47105
     2004.22724         3.97581         8.34763
     2004.22998         3.42449         8.46575
     2004.23272        -5.68783         8.46707
     2004.23546        -2.10016         8.62500
     2004.23819        -1.00748         8.69401
     2004.24093        -4.34880         8.24942
     2004.24367         1.55288         8.40337
     2004.24641        -4.49345         8.15122
     2004.24914        -5.61277         8.46442
     2004.25188        -5.68009         8.26402
     2004.25462         5.60359         9.23946
     2004.25736         2.90327         8.34630
     2004.26010         1.26694         8.81080
     2004.26283        -9.04938         9.18770
     2004.26557         0.62430         8.30251
     2004.26831        -0.70402         8.44318
     2004.27105        -7.11535         8.41797
     2004.27379        -6.48567         8.27464
     2004.27652        -4.54999         8.15387
     2004.27926        -6.35231         8.41133
     2004.28200        -7.76764         8.40337
     2004.28474        -3.15296         8.41133
     2004.28747        -4.35228         8.12600
     2004.29021        -0.58660         9.11206
     2004.29295        -0.42392         8.06893
     2004.29569         4.51975         8.21492
     2004.29843        -2.34357         8.08088
     2004.30116        -3.09889         8.03443
     2004.30390        -1.03721         8.10875
     2004.30664         1.17046         8.10079
     2004.30938         0.36614         8.54272
     2004.31211         2.50582         8.29189
     2004.31485        -3.32050         8.34498
     2004.31759         0.74918         8.10079
     2004.32033         2.40785         8.12733
     2004.32307        -4.19747         8.08221
     2004.32580        -1.23179         8.04770
     2004.32854         0.44189         8.18439
     2004.33128         2.55656         8.49096
     2004.33402         6.68224         8.15918
     2004.33676        -4.50608         8.39275
     2004.33949        -5.15140         9.00058
     2004.34223         8.62828         8.72984
     2004.34497         0.76695         8.48963
     2004.34771         7.94463         8.62367
     2004.35044        -3.70469         8.44451
     2004.35318         3.53299         8.56661
     2004.35592        -1.08934         8.44318
     2004.35866         0.72234         8.39806
     2004.36140        -7.92998         8.66349
     2004.36413        -2.78630         8.57722
     2004.36687         2.32237         8.37550
     2004.36961         0.83705         8.56395
     2004.37235         0.69373         8.48167
     2004.37509         0.39141         8.41797
     2004.37782        -1.16491         8.16183
     2004.38056        -1.87524         8.21226
     2004.38330         2.06944         8.31843
     2004.38604        -0.76088         8.40735
     2004.38877         3.93080         8.08619
     2004.39151        11.83747         8.09282
     2004.39425        11.93615         8.09150
     2004.39699        13.98283         8.48432
     2004.39973        12.26951         8.14591
     2004.40246        15.13519         8.30384
     2004.40520        14.54786         8.33701
     2004.40794         7.39854         8.38612
     2004.41068         7.61022         8.23482
     2004.41342         9.02390         8.22952
     2004.41615         5.11457         8.18970
     2004.41889         6.14325         8.11273
     2004.42163         6.37693         8.02647
     2004.42437         3.34761         8.07822
     2004.42710         6.67928         8.17378
     2004.42984         6.07396         8.06761
     2004.43258         8.82264         8.08353
     2004.43532         5.58832         8.07026
     2004.43806         7.51900         8.17112
     2004.44079         3.52567         8.09946
     2004.44353         7.54535         8.24810
     2004.44627         9.59103         8.03841
     2004.44901         7.88371         8.01319
     2004.45175        10.89238         8.57324
     2004.45448         5.10506         8.55997
     2004.45722        -0.35926         8.30914
     2004.45996        -4.36358         8.40868
     2004.46270        -4.91990         8.26004
     2004.46543        -2.08123         8.04637
     2004.46817         5.02545         8.07159
     2004.47091        -0.12887         8.12069
     2004.47365         6.77781         8.20430
     2004.47639        13.94848         8.15254
     2004.47912         2.54016         8.07026
     2004.48186        -1.70216         8.16316
     2004.48437        10.89663         8.87185
     2004.48734         3.28019         8.10742
     2004.49008         8.08087         8.21492
     2004.49281         6.73155         8.66349
     2004.49555         7.47823         8.07822
     2004.49829         6.11691         8.08619
     2004.50103         5.78058         8.10079
     2004.50376        10.80326         8.09282
     2004.50650         3.42594         8.16847
     2004.50924         7.37362         8.09946
     2004.51198         9.20929         8.15254
     2004.51472         4.16097         8.39673
     2004.51745        10.31265         8.18307
     2004.52019         7.09133         8.15918
     2004.52293         4.75801         8.02779
     2004.52567         5.22368         8.11804
     2004.52841         5.57436         8.00789
     2004.53114         4.55204         8.00789
     2004.53388        10.98772         8.02647
     2004.53662         8.11939         8.00656
     2004.53936        10.73507         8.44451
     2004.54209        11.61675         8.53741
     2004.54483         4.80143         7.95215
     2004.54757        13.82710         8.15254
     2004.55031        22.07978         8.23881
     2004.55305        18.23646         7.99860
     2004.55578         8.87214         8.44849
     2004.55852        10.59882         9.69865
     2004.56126         8.96249         8.11538
     2004.56400         9.43317        14.63025
     2004.56674         9.08785         8.43124
     2004.56947         8.94453        12.64885
     2004.57221        18.72320         8.04106
     2004.57495         9.52588         7.91764
     2004.57769         8.28256         7.95480
     2004.58042         9.99124         8.22819
     2004.58316        10.04792         7.97471
     2004.58590        12.51959         8.02116
     2004.58864        15.09527         8.11406
     2004.59138        13.45695         8.08751
     2004.59411        11.23563         8.27066
     2004.59685        14.59130         8.21890
     2004.59959        10.34798         8.63694
     2004.60233        15.47766         8.04770
     2004.60507        12.36834         7.98267
     2004.60780        14.28802         8.06628
     2004.61054         8.22369         8.08884
     2004.61328         8.36837         7.96940
     2004.61602         8.23605         8.32640
     2004.61875        10.08973         7.98931
     2004.62149        10.79340         7.98532
     2004.62423        15.08708         8.12069
     2004.62697        12.40476         8.01319
     2004.62971        14.27044         8.11406
     2004.63244        10.14111         8.06761
     2004.63518        11.27279         8.83203
     2004.63792        18.12147         8.33701
     2004.64066        12.74715         8.39806
     2004.64339        18.92983         7.98267
     2004.64613        18.19650         8.02912
     2004.64887        16.19318         7.96940
     2004.65161        14.27286         7.96940
     2004.65435        19.51754         7.95878
     2004.65708        14.48321         8.20297
     2004.65982        11.29389         8.27331
     2004.66256        14.33657        10.53341
     2004.66530        11.39425         8.87052
     2004.66804        14.88693         8.04770
     2004.67077        18.40560         7.97205
     2004.67351        18.59628         8.00125
     2004.67625        21.04296         7.93357
     2004.67899        16.52064         8.11671
     2004.68172        10.11831         8.41001
     2004.68446        16.03299         8.21890
     2004.68720        12.06867         8.18439
     2004.68994        17.49335         7.94020
     2004.69268        19.68902         7.99860
     2004.69541        19.31370         8.01054
     2004.69815        20.92238         8.00789
     2004.70089        22.22206         8.06097
     2004.70363        21.65674         8.69136
     2004.70637        21.15541         7.93357
     2004.70910        20.28509         8.12600
     2004.71184        17.56777         8.19634
     2004.71458        13.99445         8.06230
     2004.71732        16.34512         8.02248
     2004.72005        24.79380         8.05699
     2004.72279        20.46748         8.25606
     2004.72553        26.00216         8.13396
     2004.72827        27.14684         8.07955
     2004.73101        20.82851         8.01319
     2004.73374        20.87219         7.99196
     2004.73648        24.88287         7.95878
     2004.73922        22.10755         8.10875
     2004.74196        17.29722         7.99594
     2004.74470        15.22890         8.18041
     2004.74743        10.66158         7.92030
     2004.75017        12.90526         7.91366
     2004.75291        15.62993         8.12069
     2004.75565        17.58761         8.47902
     2004.75838        17.94529         8.12069
     2004.76112        22.32397         7.90570
     2004.76386        24.22565         8.20563
     2004.76660        22.37332         7.88314
     2004.76934        22.23900         8.18439
     2004.77207        23.36168         8.18307
     2004.77481        24.26636         8.03974
     2004.77755        19.95903         8.15785
     2004.78029        13.35371         8.02779
     2004.78303        19.04239         9.08817
     2004.78576        17.25807         8.48300
     2004.78850        15.47975         8.14856
     2004.79124        14.82642         7.92826
     2004.79398        17.52210         7.95480
     2004.79671        15.45878         7.94817
     2004.79945        16.51446         8.08353
     2004.80219        12.03613         8.45911
     2004.80493        16.87881         8.06230
     2004.80767        17.89849         8.03443
     2004.81040        17.77417         7.96011
     2004.81314        20.56184         7.85394
     2004.81588        17.93552         8.06363
     2004.81862        14.57320         8.13131
     2004.82136        20.79088         8.01585
     2004.82409        21.45656         7.97471
     2004.82683        25.13023         8.02248
     2004.82957        24.85491         8.44053
     2004.83231        21.76659         8.03974
     2004.83504        15.68627         8.01054
     2004.83778        12.56994         7.96409
     2004.84052        20.48862         8.19103
     2004.84326        22.37230         7.88048
     2004.84600        18.20998         7.84996
     2004.84873        13.23666         7.89243
     2004.85147        11.39433         8.48963
     2004.85421        11.58701        10.97534
     2004.85695        19.43969        12.93418
     2004.85969        14.78737        12.39271
     2004.86242        14.49504         8.04372
     2004.86516        15.02172         8.39408
     2004.86790        14.60540         7.99461
     2004.87064        16.37508         7.92826
     2004.87337        19.68376         7.97736
     2004.87611        20.22943         8.01319
     2004.87885        17.91911         7.91764
     2004.88159        14.51079         8.09282
     2004.88433        14.58347         8.24146
     2004.88706        18.54114         8.46176
     2004.88980        18.35782         8.50954
     2004.89254        12.60550         8.08486
     2004.89528        18.55918         8.01983
     2004.89802        20.29485         8.16183
     2004.90075        19.44953         8.57324
     2004.90349        16.00621         7.99461
     2004.90623        11.53689         8.03841
     2004.90897        12.51257         8.16183
     2004.91170        15.42624         7.90172
     2004.91444        11.11192         7.88314
     2004.91718        12.79660         8.16449
     2004.91992        17.04328         8.07557
     2004.92266        10.51295         8.01187
     2004.92539        -3.29037         7.97869
     2004.92813         0.61831         7.87517
     2004.93087         0.08399         8.47503
     2004.93361         1.42367         8.15918
     2004.93634        -0.03166         8.15122
     2004.93908         6.50902         7.99594
     2004.94182         0.79170         8.25340
     2004.94456        -4.34062         8.03443
     2004.94730        -8.18995         8.59448
     2004.95003        -7.90627         7.95613
     2004.95277        -3.43359         8.08751
     2004.95551        -8.25491         8.04903
     2004.95825        -2.09124         8.07690
     2004.96099         0.12644         7.88844
     2004.96372        -1.30988         7.87385
     2004.96646         7.23680         7.76502
     2004.96920        -0.53652         7.79156
     2004.97194        -6.46385         8.41531
     2004.97467        -4.04717         8.30649
     2004.97741         0.34751         7.88712
     2004.98015         1.17719         7.83536
     2004.98289        -5.44014         7.87650
     2004.98563        -6.74546         8.17378
     2004.98836        -0.35878         8.12600
     2004.99110         5.77690         8.46973
     2004.99384        -3.54642         8.80416
     2004.99658         0.42525         8.60642
     2004.99932        -0.24907         8.33303
     2005.00479         2.39729         8.77629
     2005.00753         7.98496         8.42991
     2005.01027         2.92264         8.36090
     2005.01300        -1.26268         8.21890
     2005.01574         0.76200         8.42328
     2005.01848        -0.68733         8.43522
     2005.02122       -11.40865         8.77762
     2005.02396        -8.96797         8.02116
     2005.02669       -11.41129         8.05964
     2005.02943        -4.25261         8.14989
     2005.03217       -17.74894         9.12931
     2005.03491       -11.97226         8.11406
     2005.03765       -13.51058         8.09150
     2005.04038       -15.83590         8.27597
     2005.04312       -10.49423         7.99063
     2005.04586       -17.34155         9.65883
     2005.04860       -13.35087        10.13793
     2005.05133       -14.02519        10.14854
     2005.05407       -13.35951         8.38081
     2005.05681       -11.80584         8.50158
     2005.05955        -8.12216         8.39010
     2005.06229       -10.36548         8.21094
     2005.06502        -9.55080         8.12202
     2005.06776        -9.56713         7.99196
     2005.07050       -11.14145         7.98798
     2005.07324        -8.88677         7.99860
     2005.07598       -10.86409         8.13662
     2005.07871       -13.97342         8.11804
     2005.08145        -6.30374         8.13131
     2005.08419        -8.40806         8.14458
     2005.08693       -10.98738         7.90835
     2005.08966       -12.30070         8.01054
     2005.09240       -12.59503         8.16581
     2005.09514       -16.49435         7.98267
     2005.09788       -16.70867         7.96542
     2005.10062       -18.07999         8.07424
     2005.10335        -5.59432         8.41531
     2005.10609        -0.14464         8.41930
     2005.10883         4.78804         8.30782
     2005.11157        -0.70828         8.12865
     2005.11431        -0.58660         7.99860
     2005.11704        -6.97493         7.86986
     2005.11978        -9.80225         7.90968
     2005.12252       -12.65757         7.86456
     2005.12526       -14.59389         7.87650
     2005.12799       -16.11322         8.34100
     2005.13073       -12.18554         8.12600
     2005.13347       -13.65186         9.20894
     2005.13621       -10.81118         8.29056
     2005.13895       -17.07250         7.93888
     2005.14168        -4.02783         8.04372
     2005.14442        -9.16415         7.92295
     2005.14716        -5.21147         8.00390
     2005.14990        -6.01979         8.03576
     2005.15264        -7.15912         8.02248
     2005.15537        -6.58744         7.98400
     2005.15811         0.64524         8.07557
     2005.16085         6.14992         8.05301
     2005.16359         0.85859         8.13396
     2005.16632         1.73227         8.06495
     2005.16906         2.92095         7.98665
     2005.17180         7.00063         8.00390
     2005.17454        12.52531         8.03708
     2005.17749         2.76588        10.66214
     2005.18001         9.23866         9.07622
     2005.18275         3.93034         8.61571
     2005.18549         1.27302         8.35028
     2005.18823         8.25869         8.16183
     2005.19097         4.45237         8.03310
     2005.19370         2.81405         8.06495
     2005.19644        -1.52027         8.00656
     2005.19918        -4.67059         8.78426
     2005.20192        -1.72392         8.16051
     2005.20465         1.37476         8.16714
     2005.20739        -1.04256         8.49229
     2005.21013        -7.46088         8.08353
     2005.21287        -4.70521         8.06230
     2005.21561         0.87847         8.05035
     2005.21834        -1.28385         8.07159
     2005.22108         0.87583         8.01319
     2005.22382         2.04650         7.98267
     2005.22656        -1.16082         8.06495
     2005.22930         4.93686         8.37948
     2005.23203         5.20454         8.22155
     2005.23477        15.40922         8.11406
     2005.23751        16.45589         8.03576
     2005.24025        11.84257         8.20430
     2005.24298         8.56525         8.03576
     2005.24572         8.55193         8.31445
     2005.24846        10.15860         8.10344
     2005.25120         9.19628         7.99196
     2005.25394         9.08796         8.08088
     2005.25667         8.35364         8.33038
     2005.25941         5.61032         8.94218
     2005.26215         6.99799         7.96675
     2005.26489         6.60667         7.96011
     2005.26762         3.81135         8.00523
     2005.27036         5.30603         7.91366
     2005.27310         4.41270         7.89641
     2005.27584         1.41538         7.96409
     2005.27858         0.59106         8.76833
     2005.28131         2.58974         8.96474
     2005.28405         1.11441         8.56395
     2005.28679         2.78109         8.14193
     2005.28953         5.09177         7.98267
     2005.29227         4.56445         8.02647
     2005.29500         7.49313         8.09150
     2005.29774         4.85980         7.98665
     2005.30048        -0.85352         8.57722
     2005.30322         1.94716         8.01054
     2005.30595         0.01784         7.94817
     2005.30869        -3.95549         8.05301
     2005.31143         1.69819         8.08486
     2005.31417         1.95887         8.01718
     2005.31691         2.54855         7.98134
     2005.31964        -1.31977         7.99196
     2005.32238        -0.80510         8.08088
     2005.32512        -0.90242         7.99727
     2005.32786        -4.23474         8.19634
     2005.33060         3.48494         8.52016
     2005.33333         3.00261         8.02647
     2005.33607        -2.64671         8.12733
     2005.33881         2.49497         8.08884
     2005.34155         0.91665         8.01187
     2005.34428         1.74832         7.95613
     2005.34702         3.89100         7.97338
     2005.34976         0.82368        10.54535
     2005.35250         3.90736         7.96409
     2005.35524         9.70804         8.49627
     2005.35797         5.73671         8.42726
     2005.36071         4.82939         8.17909
     2005.36345         7.21407         8.44186
     2005.36619        13.54575         8.35161
     2005.36893        -0.75858         9.54470
     2005.37166        10.98610         9.61238
     2005.37440        13.72678         9.34696
     2005.37714        14.23446         8.84265
     2005.37988        14.96814         8.28127
     2005.38261         4.99881         8.95147
     2005.38535         6.11149         9.02314
     2005.38809         7.66817         8.39143
     2005.39083        11.82285         8.26933
     2005.39357         6.50752         8.28260
     2005.39630        -2.83180         8.25473
     2005.39904         3.63688         8.18970
     2005.40178        10.03056         8.21890
     2005.40452         8.79124         8.20696
     2005.40726        12.53191         8.38214
     2005.40999         5.49659         9.96142
     2005.41273        -0.49073         8.48167
     2005.41547         4.53095         7.93888
     2005.41821         7.81862         7.92826
     2005.42094         6.50830         7.93755
     2005.42368         8.52898         8.24810
     2005.42642         7.41266         8.12865
     2005.42916         7.55733         8.01452
     2005.43190         9.99101         8.12998
     2005.43463         8.49169         7.92826
     2005.43737        15.16937         8.15387
     2005.44011        12.85005         8.19501
     2005.44285        13.92372         8.17909
     2005.44559        10.24340         8.67941
     2005.44832         9.10208         8.99527
     2005.45106         9.23276         8.13396
     2005.45380        15.13743         8.69667
     2005.45654        15.26711         8.89043
     2005.45927         9.48879         8.31976
     2005.46201        15.95647         7.97604
     2005.46475        11.99615         8.06230
     2005.46749         4.62082         8.02248
     2005.47023         3.52550         8.02779
     2005.47296        12.99518         8.02116
     2005.47570         5.52286         9.55134
     2005.47844        10.46353         8.03708
     2005.48118        10.06321         7.97073
     2005.48392         4.55689         7.99063
     2005.48665         9.24457         8.01187
     2005.48939         4.51124         8.02116
     2005.49213         6.78792         7.99860
     2005.49487         6.28760         8.03045
     2005.49760        13.63328         8.08619
     2005.50034        16.38196         8.06628
     2005.50308        12.26463         7.99461
     2005.50582         9.14031         7.90968
     2005.50856        12.30499         8.03841
     2005.51129        11.63367         8.00921
     2005.51403         9.65734         8.04106
     2005.51677        12.56302         7.97604
     2005.51951        14.07770         9.40668
     2005.52225        12.28038         9.66149
     2005.52498        11.23406         8.24146
     2005.52772         6.80573         9.70926
     2005.53046         9.26641         8.60244
     2005.53320         5.25009         8.04372
     2005.53593         6.43477         7.95746
     2005.53867        11.72744         8.23881
     2005.54141        10.66112         8.48963
     2005.54415         5.23380         8.91564
     2005.54689         9.75448         8.00656
     2005.54962         8.26315         8.32374
     2005.55236         4.54883         8.26668
     2005.55510         5.38851         7.98798
     2005.55784        10.29919         7.99860
     2005.56057         4.10887         8.19899
     2005.56331        10.54254         8.26137
     2005.56605         9.12222         8.52547
     2005.56879        14.63690         8.37815
     2005.57153        12.94058         9.05764
     2005.57426         7.22825         8.42593
     2005.57700        10.13893         8.27862
     2005.57974        13.18161         8.18174
     2005.58248        11.07029         8.32374
     2005.58522         7.35397         8.10875
     2005.58795        14.99464         8.05964
     2005.59069        12.51932         8.17112
     2005.59343         5.88100         7.99594
     2005.59617         8.81768         8.45380
     2005.59890         7.25735         8.05035
     2005.60164         3.67203         8.05301
     2005.60438         4.26171         8.00258
     2005.60712         2.36339         8.89839
     2005.60986         0.05506         8.24677
     2005.61259         6.81474         8.28924
     2005.61533         8.06942         8.06363
     2005.61807         5.90010         7.98267
     2005.62081        13.33378         8.06893
     2005.62355        15.80145         8.36886
     2005.62628         7.33613         8.09548
     2005.62902        17.08181         7.99063
     2005.63176        13.72149         8.06230
     2005.63450        17.95816         8.00789
     2005.63723        15.07884         8.04239
     2005.63997        12.76752         8.04239
     2005.64271        11.81820         8.08221
     2005.64545        15.01488         9.39606
     2005.64819        15.95455         8.25208
     2005.65092        13.74223         8.12998
     2005.65366        11.32891         8.04106
     2005.65640        13.26759         8.01983
     2005.65914        14.15726         8.06893
     2005.66188        18.52294         8.01187
     2005.66461        16.70362         9.48498
     2005.66735        17.90330         8.54006
     2005.67009        16.97598         8.69003
     2005.67283        16.47265         8.37948
     2005.67556        15.76333         9.21292
     2005.67830        16.01001         8.06495
     2005.68104        14.74369         8.08884
     2005.68378        18.40536         8.36488
     2005.68652        13.67604         8.28658
     2005.68925         9.99472         8.78293
     2005.69199        14.91540         9.55664
     2005.69473        11.90807        11.99590
     2005.69650        13.32222        23.13714
     2005.72060        33.18358        29.87364
     2005.72211        16.09985         8.24013
     2005.72485        13.54153         8.12998
     2005.72758        16.52921         8.11538
     2005.73032        25.03489         8.18970
     2005.73306        17.88956         8.22155
     2005.73580        17.48324         8.39541
     2005.73854        21.75992         8.50423
     2005.74127        24.08760         8.25075
     2005.74401        26.22127         8.19236
     2005.74675        21.39295         8.19103
     2005.74949        18.89863         8.09017
     2005.75222        14.24031         8.37019
     2005.75496        10.29198         8.09415
     2005.75770        10.65866         8.17378
     2005.76044        17.77434         8.00390
     2005.76318        25.73802         7.94020
     2005.76591        19.76170         8.10211
     2005.76865        22.11737         8.68870
     2005.77139        25.98005         7.97736
     2005.77413        25.11673         8.04770
     2005.77687        24.50241         8.09946
     2005.77960        30.30508         8.10079
     2005.78234        15.42076         8.24942
     2005.78508        10.54044         8.01187
     2005.78782        14.22412         8.00789
     2005.79082        16.02667         9.73979
     2005.79329        24.97847         8.43920
     2005.79603        26.16015         8.11671
     2005.79877        21.06683         8.19501
     2005.80151        17.62351         8.08884
     2005.80424        20.86418         7.98267
     2005.80698        27.64886         8.05035
     2005.80972        27.13554         8.05699
     2005.81246        21.00522         8.05832
     2005.81520        15.46489         8.58651
     2005.81793        13.97257         8.22288
     2005.82067         9.38625         8.11538
     2005.82341        10.99693         8.06097
     2005.82615        11.79061         8.07292
     2005.82888         5.72328         8.09017
     2005.83162         5.78496         9.05764
     2005.83436         9.46064         8.20696
     2005.83710        13.75332         8.16980
     2005.83984        14.36499         8.57855
     2005.84257         8.87567         8.47902
     2005.84531         5.05135         8.21625
     2005.84805         2.82103         8.26269
     2005.85079         1.53771         8.22686
     2005.85352         5.34238         8.20828
     2005.85626        10.98406         8.19501
     2005.85900         7.99474         8.16980
     2005.86174         6.00542         8.09017
     2005.86448         6.99809         8.25606
     2005.86721         4.28977         8.29985
     2005.86995         0.40245         8.21226
     2005.87269         0.93713         8.17112
     2005.87543         0.86780         8.09017
     2005.87817         7.57148         8.01718
     2005.88090        14.49316         8.13662
     2005.88364        19.10084         8.14591
     2005.88638        19.87652         8.33967
     2005.88912        17.79119         8.40204
     2005.89185        13.42187         8.19634
     2005.89459        14.09455         8.27597
     2005.89733        18.02323         8.17112
     2005.90007        18.87590         8.14193
     2005.90281         2.44058         8.26004
     2005.90554        -0.94074         8.06363
     2005.90828        -2.10506         8.27995
     2005.91102        -2.34738         8.07690
     2005.91376        -6.08571         8.12202
     2005.91650        -0.78903         8.43920
     2005.91923         0.88165         8.32374
     2005.92197         3.55633         8.03443
     2005.92471        -2.79600         7.97736
     2005.92745        -8.46332         7.96675
     2005.93018        -1.69964         8.07026
     2005.93292         2.43804         8.07690
     2005.93566         8.93372         8.09415
     2005.93840         4.99839         8.10344
     2005.94114        11.61807         8.04372
     2005.94387        -0.52325         8.50954
     2005.94661         2.37943         8.08486
     2005.94935        -8.73190         8.06893
     2005.95209       -11.90522         8.08353
     2005.95483        -4.39954         8.22023
     2005.95756         0.41514         8.09150
     2005.96030        -1.09419         7.98931
     2005.96304        -9.05451         7.96675
     2005.96578        -4.19383         8.38612
     2005.96851        -1.43815         8.22288
     2005.97125         2.00453         8.18572
     2005.97399         3.19620         8.14856
     2005.97673         7.66188         8.21757
     2005.97947         5.14156         8.17510
     2005.98220         1.13624         8.26535
     2005.98494         6.31591         8.14591
     2005.98768         5.86959         8.27729
     2005.99042         6.24827         8.26402
     2005.99316         6.87395         8.24013
     2005.99589         9.57363         8.12600
     2005.99863        10.39530         8.31843
     2006.00411         5.14766         8.18307
     2006.00684        10.39134         8.12733
     2006.00958         3.30501         8.05964
     2006.01232         8.19969         8.13794
     2006.01506         7.19437         8.27331
     2006.01780        12.79305         8.17776
     2006.02082        12.20459        10.15651
     2006.02327        13.44540         8.40868
     2006.02601        12.19208         8.47769
     2006.02875        12.86176         8.09150
     2006.03149         9.83144         8.21226
     2006.03422        10.78011         8.29056
     2006.03696         8.30179         8.22023
     2006.03970         8.78347         8.15785
     2006.04244         9.60015         8.41531
     2006.04517         7.85282         8.40470
     2006.04791         6.21150         8.19501
     2006.05065         4.81818         8.24279
     2006.05339         1.97886         8.17245
     2006.05613         5.22754         8.09680
     2006.05886        14.22321         8.09946
     2006.06160        -2.75111         8.49760
     2006.06434        -1.71243         8.16316
     2006.06708        -6.75575         7.91764
     2006.06982       -10.35408         7.98002
     2006.07255       -10.02540         7.89110
     2006.07529        -2.53672         7.87915
     2006.07803        -6.98004         7.92428
     2006.08077         4.76763         7.75971
     2006.08350         7.49331         7.75573
     2006.08624        11.41999         7.74910
     2006.08898         7.58867         7.81280
     2006.09172         7.90535         7.80749
     2006.09446         0.93602         7.84200
     2006.09719         2.74170         7.83801
     2006.09993        14.43638         7.98931
     2006.10267         8.49206         7.87517
     2006.10541        -1.34327         7.85394
     2006.10815        -7.41959         8.00258
     2006.11088         1.20709         8.17643
     2006.11362         7.32277         7.86323
     2006.11636         9.93845         7.82209
     2006.11910         6.56512         7.91631
     2006.12183        -2.85020         7.96144
     2006.12457        -6.23952         7.99063
     2006.13005        -6.58517         7.83801
     2006.13279        -1.24049         7.91631
     2006.13552         3.83919         7.90968
     2006.13826         5.39087         8.35028
     2006.14100         4.38454         8.08486
     2006.14374        -0.49678         7.88977
     2006.14648        -2.26210         7.80616
     2006.14921         3.78358         7.92030
     2006.15195        -2.48974         7.83403
     2006.15469        -9.36307         7.85129
     2006.15743        -1.22039         7.81811
     2006.16016        -5.30271         7.92295
     2006.16290        -5.85903         8.25606
     2006.16564        -8.28736         7.85261
     2006.16838        -9.10668         8.05699
     2006.17112        -8.32600         7.84863
     2006.17385        -6.29432         7.84598
     2006.17659         0.52136         7.76104
     2006.17933         9.33803         8.08353
     2006.18207        15.80771         7.84465
     2006.18480         5.25539         7.90039
     2006.18754         2.20607         7.94020
     2006.19028        -3.29426         8.17643
     2006.19302         0.18542         8.07690
     2006.19576        -0.71190         8.13264
     2006.19849         0.88978         8.17510
     2006.20123         2.25846         8.16316
     2006.20397        -1.42187         8.31445
     2006.20671        -2.47619         8.21226
     2006.20945        -1.22851         8.72188
     2006.21218         9.84017         8.51087
     2006.21492         4.97684         8.29322
     2006.21766         8.81352         8.10609
     2006.22040        -0.03280         8.32374
     2006.22313         0.40888         8.15122
     2006.22587         3.77755         8.11671
     2006.22861         5.73023         8.15652
     2006.23135         6.43191         8.13662
     2006.23409         4.32559         8.14458
     2006.23682         3.75527         7.79555
     2006.23956         7.53994         7.80351
     2006.24230         5.44262         7.85659
     2006.24504         9.12330         7.85261
     2006.24778         4.96998         7.79156
     2006.25051         4.55365         7.81147
     2006.25325         6.56533         7.81943
     2006.25599         9.04601         7.95215
     2006.25873         4.25069         9.29520
     2006.26146         9.12737         8.50954
     2006.26420         7.69104         8.18838
     2006.26694         5.48972         7.99860
     2006.26968         9.06240         8.70065
     2006.27242        10.43008         8.19368
     2006.27515         6.27375         8.17510
     2006.27789         9.11743         8.21094
     2006.28063        12.38111         7.96807
     2006.28337        15.36279         9.58982
     2006.28611        16.11746         8.22952
     2006.28884        10.59714         7.89906
     2006.29158        15.43582         7.84996
     2006.29432        13.38450         7.84730
     2006.29706        10.96618         7.79687
     2006.29979         8.88885         7.96675
     2006.30253         9.14253         7.92693
     2006.30527        11.60221         8.28526
     2006.30801        15.71589         7.88446
     2006.31075        13.31056         7.88314
     2006.31348         9.61124         7.95613
     2006.31622        12.51392         7.83934
     2006.32170         9.17528         8.36621
     2006.32444        10.80695         7.91233
     2006.32717         8.90663         8.11538
     2006.32991         4.85931         7.92428
     2006.33265         5.16799         7.89641
     2006.33539         9.35366         7.89508
     2006.33812         8.37334         8.80947
     2006.34086        14.44202         8.10742
     2006.34360        18.53270         8.55732
     2006.34634        17.47437         8.03576
     2006.34908        13.08005         7.85792
     2006.35181         8.16773         8.05566
     2006.35455        10.38341         7.87650
     2006.35729         9.39309         8.07822
     2006.36003         6.19276         7.93755
     2006.36277         2.99144         7.87252
     2006.36582        -1.50603         9.86985
     2006.36824        -2.96420         7.94020
     2006.37098         5.31947         8.12069
     2006.37372        12.16815         8.32242
     2006.37645        10.15283         8.12998
     2006.37919         4.35151         7.95347
     2006.38193        10.75019         8.06893
     2006.38467         7.73186         8.01187
     2006.38741        15.44654         8.12865
     2006.39014        11.41422         8.05035
     2006.39288         6.12490         8.02248
     2006.39562         9.31357         8.32905
     2006.39836        11.27525         8.30118
     2006.40110         6.10693         8.05301
     2006.40383        10.53561         8.01054
     2006.40657        11.57228         8.08353
     2006.40931         9.00196         8.05168
     2006.41205         6.88564         8.03310
     2006.41478         5.56932         8.08751
     2006.41752         6.90800         8.31976
     2006.42026        11.42267         8.24942
     2006.42300        10.94035         8.26004
     2006.42574        11.56103         8.27198
     2006.42847        13.80971         8.74842
     2006.43121         5.97338         8.53608
     2006.43395         8.97306         8.15387
     2006.43669         7.77074         8.07557
     2006.43943         8.98042         8.10211
     2006.44216        10.62510         8.19368
     2006.44490        10.49877         8.01718
     2006.44764         8.53645         8.04106
     2006.45038        13.10313         8.14060
     2006.45311        12.71281         8.58784
     2006.45585         8.76648         8.30384
     2006.45859        12.04616         8.04372
     2006.46133        11.92984         8.37815
     2006.46407         7.53952         8.23748
     2006.46680         7.25220         8.13529
     2006.46954        10.90487         8.26004
     2006.47228         8.36155         8.33303
     2006.47502        10.63123         8.14989
     2006.47775         7.79091         8.13396
     2006.48049         2.42158         8.29720
     2006.48323         5.33226         8.25606
     2006.48597        14.06794         8.23217
     2006.48871        15.29062         8.45247
     2006.49144        10.32629         8.22288
     2006.49418        10.87197         8.27066
     2006.49692         2.57965         8.29189
     2006.49966         4.93333         8.31313
     2006.50240         0.63301         8.24810
     2006.50513         2.18968         8.29985
     2006.50787         7.16536         8.29189
     2006.51061         3.89504         8.31843
     2006.51335        -0.48228         8.29455
     2006.51608         7.87139         8.24411
     2006.51907         8.91895         9.21823
     2006.52156        13.15175         8.51883
     2006.52430        11.07043         8.24279
     2006.52704        16.22611         8.32507
     2006.52977        18.04378         8.35028
     2006.53251        15.78646         8.34100
     2006.53525        19.37614         8.34763
     2006.53799        11.55982         8.21359
     2006.54073         7.95549         8.36488
     2006.54346         7.73817         7.95215
     2006.54620         8.00985         7.86588
     2006.54894        11.44353         7.84863
     2006.55168         8.21920         7.88712
     2006.55441         7.52488         7.85527
     2006.55715         9.80356         7.88446
     2006.55989        17.21624         7.91631
     2006.56263        13.87992         7.83138
     2006.56537        16.00959         7.83801
     2006.56810        10.65227         7.86057
     2006.57084         9.03995         8.30251
     2006.57358        15.67763         7.90039
     2006.57632        13.75630         7.90437
     2006.57906        15.47198         8.06495
     2006.58179        14.74966         8.21226
     2006.58453        13.95634         8.03841
     2006.58727        15.06002         8.00258
     2006.59001        11.21269         8.14060
     2006.59274        14.29837         7.92295
     2006.59548         8.90105         8.01054
     2006.59822        14.75673         9.66414
     2006.60096         7.64740         8.30251
     2006.60370         8.79608         7.94418
     2006.60643        11.04976         7.79156
     2006.60917        12.64744         7.93622
     2006.61191        14.52011         7.85792
     2006.61465        16.88179         7.89906
     2006.61739        15.98747         7.88844
     2006.62012        13.84015         8.22288
     2006.62286        14.26983         7.79555
     2006.62560        15.60050         7.86456
     2006.62834        20.93818         8.11538
     2006.63107        15.79486         8.57855
     2006.63381        21.29554         8.10211
     2006.63655        21.27821         8.17112
     2006.63929        14.10989         8.37019
     2006.64203        14.44657         8.04903
     2006.64476        12.55325         8.21492
     2006.64750        24.36993         8.26535
     2006.65024        13.61060         8.26933
     2006.65298        14.04028         8.76833
     2006.65572        14.71196         8.26800
     2006.65845        18.27564         8.35028
     2006.66119        20.40231         8.38214
     2006.66393        21.29599         8.48432
     2006.66667        16.10467         8.50290
     2006.66940        13.14635         8.35161
     2006.67214        18.62702         8.31976
     2006.67488        19.33670         8.83203
     2006.67762        14.44738         8.68339
     2006.68036        17.29706         8.40072
     2006.68309        21.81774         8.63562
     2006.68583        20.27541         8.56926
     2006.68857        28.38309         8.17643
     2006.69131        22.04877         8.14856
     2006.69405        18.69045         8.17378
     2006.69678        15.88212         8.17776
     2006.69952        16.04580         8.18174
     2006.70226        18.35648         8.38214
     2006.70500        14.04416         8.25340
     2006.70773        21.01884         8.06363
     2006.71047        20.39251         8.20961
     2006.71321        12.75319         8.82805
     2006.71595        17.19587         8.14591
     2006.71869        23.58355         8.12202
     2006.72142        19.32322         8.16714
     2006.72416        22.90290         8.38612
     2006.72690        21.52458         8.20696
     2006.72964        15.92726         8.86654
     2006.73238        16.37494         8.11538
     2006.73511        15.98261         8.14723
     2006.73785        21.48029         8.04372
     2006.74059        23.60897         8.09946
     2006.74333        21.92565         8.11273
     2006.74606        19.37532         8.28127
     2006.74880        14.49700         8.87981
     2006.75154        15.62568         8.23881
     2006.75428        16.09536         8.23217
     2006.75702        20.93003         8.11538
     2006.75975        14.55071         8.06761
     2006.76249        16.79139         8.11273
     2006.76523        14.59007         8.19103
     2006.76797        12.83575         8.27995
     2006.77070        18.12142         8.09813
     2006.77344        18.74610         8.13662
     2006.77618        20.53078         8.18174
     2006.77892        18.60046         8.14458
     2006.78166        15.57813         8.28791
     2006.78439        17.06481         8.21492
     2006.78713        20.21149         8.17643
     2006.78987        13.04717         8.03310
     2006.79261         8.89985         8.08088
     2006.79535        14.03652         8.00921
     2006.79808        17.70020         8.02116
     2006.80082        15.21388         8.26933
     2006.80356        10.83756         8.07424
     2006.80630        10.89223         8.02248
     2006.80903         7.88791         7.96409
     2006.81177         8.25059         8.09680
     2006.81451         7.31427         8.29853
     2006.81725         3.30994         8.26668
     2006.81999        -5.04538         7.97338
     2006.82272        -7.19870         8.01187
     2006.82546        -2.32202         8.33569
     2006.82820        -1.91934         7.98134
     2006.83094        -0.32867         7.94020
     2006.83368        -2.29499         7.91233
     2006.83641        -4.87431         8.03576
     2006.83915        -3.50563         8.06363
     2006.84189        -3.94996         8.29720
     2006.84463         0.67972         8.08884
     2006.84736         1.47640         7.97736
     2006.85010         5.35708         8.28526
     2006.85284         6.27576         8.44318
     2006.85558         8.16043         8.33569
     2006.85832         7.03711         9.42526
     2006.86105         5.38579         8.70596
     2006.86379         0.57947         8.47105
     2006.86653         3.72014         8.53210
     2006.86927         8.88182         7.99992
     2006.87201        13.22850         7.98002
     2006.87474        11.42118         7.91897
     2006.87748        16.43385         8.00258
     2006.88022        10.73653         8.01850
     2006.88296        15.34821         7.98267
     2006.88569         5.16889         8.01187
     2006.88843         2.04857         7.95347
     2006.89117         2.00024         7.92162
     2006.89391        -0.74908         8.39143
     2006.89665        -0.90340         8.24810
     2006.89938        -3.48372         8.04770
     2006.90212        -7.25805         8.02779
     2006.90486        -0.71437         8.14060
     2006.90760         4.29331         7.92959
     2006.91034        11.72199         7.98798
     2006.91307        14.60167         9.90435
     2006.91581         2.41534         7.98134
     2006.91855        -2.47298         7.90570
     2006.92129        -1.70030         7.94684
     2006.92402         6.39238         7.94286
     2006.92676         8.45405         8.06893
     2006.92950        10.43773         9.22486
     2006.93224        15.26541         8.24544
     2006.93498        23.88009         8.67941
     2006.93771        19.41376         8.03708
     2006.94045        20.71044         8.19368
     2006.94319        23.71612         8.12069
     2006.94593        23.55280         8.42859
     2006.94867        24.65248         7.94684
     2006.95140        23.21615         8.09150
     2006.95414        10.15683        11.80745
     2006.95688         9.00651         8.12335
     2006.95962        12.97319         7.95347
     2006.96235        18.42586         8.00523
     2006.96509        14.82654         8.45513
     2006.96783        21.03522         7.99196
     2006.97057        15.80590         7.84067
     2006.97331        11.33458         8.06893
     2006.97604        13.19325         7.89375
     2006.97878         8.71593         7.91764
     2006.98152        12.88561         7.94949
     2006.98426        11.39429         7.89906
     2006.98700         4.95796         8.15387
     2006.98973         3.86964         8.04505
     2006.99247         8.28532         8.15254
     2006.99521        10.33500         8.10477
     2006.99795         7.53168         8.08353
     2007.00342        17.53403         8.32905
     2007.00616        16.88771         8.19236
     2007.00890        13.70939         8.17112
     2007.01164        18.29906         8.14325
     2007.01437        15.15374         8.05964
     2007.01711         8.51742         8.15387
     2007.01985         4.80410         8.07292
     2007.02259         0.15377         8.06363
     2007.02533        -4.06155         8.11273
     2007.02806        -3.99787         8.24146
     2007.03080         1.21581         7.96144
     2007.03354         1.56549         7.82342
     2007.03628         4.84616         7.86986
     2007.03901         3.48484         7.98400
     2007.04175         1.56852         8.01585
     2007.04449         2.46620         8.00125
     2007.04723         3.50487         7.97736
     2007.04997        10.64255         8.01983
     2007.05270         8.34823         7.95082
     2007.05544        11.10191         7.89243
     2007.05818         6.36159         7.90039
     2007.06092         7.48426         7.84730
     2007.06366         8.13994         7.84200
     2007.06639         4.90762         8.00523
     2007.06913         6.24130         7.91631
     2007.07187         1.12197         7.89906
     2007.07461         4.65265         7.87252
     2007.07734        -2.70867         8.02514
     2007.08008        -1.11699         7.99461
     2007.08282         2.84968         7.91897
     2007.08556         0.88836         8.04239
     2007.08830         2.52704         8.03310
     2007.09103        11.05572         7.96807
     2007.09377         9.30140         7.87517
     2007.09651         4.59907         7.82872
     2007.09925         1.40375         7.90172
     2007.10198         3.75543         7.92428
     2007.10472         6.93711         8.14591
     2007.10746         5.94678         8.07822
     2007.11020         8.19346         7.84863
     2007.11294        12.65814         7.84332
     2007.11567        14.48082         7.88844
     2007.11841        16.98150         7.85925
     2007.12115        17.54917         7.86323
     2007.12389        19.11085         7.88844
     2007.12663        22.09253         7.85527
     2007.12936        19.70321         7.98267
     2007.13210        19.43988         7.80218
     2007.13484        25.00056         7.76237
     2007.13758        23.27224         7.83801
     2007.14031        17.81392         7.82076
     2007.14305        14.10559         7.83536
     2007.14579        16.66927         7.79156
     2007.14853        17.80295         7.79555
     2007.15127        18.24663         7.77298
     2007.15400        14.28831         7.80882
     2007.15674        15.41998         8.01983
     2007.15948        13.10566         8.35825
     2007.16222         6.75434         8.10344
     2007.16496        10.83102         8.05964
     2007.16769         5.76269         7.92560
     2007.17043         6.94137         7.87783
     2007.17317         9.74405         7.89773
     2007.17591        16.94973         7.94418
     2007.17864        21.83141         7.86588
     2007.18138        28.97708         7.84332
     2007.18412        26.96976         7.81545
     2007.18686        31.95944         7.92693
     2007.18960        27.36812         7.91233
     2007.19233        29.87479         7.88579
     2007.19507        28.07347         8.12202
     2007.19781        20.84515         7.79687
     2007.20055        11.41983         7.94684
     2007.20329        15.36050         7.93091
     2007.20602        24.67018         7.76768
     2007.20876        20.02786         7.75308
     2007.21150        19.38754         7.80218
     2007.21424        20.47622         7.89773
     2007.21697        24.32089         7.98267
     2007.21971        14.78857         7.83669
     2007.22245         9.88525         7.84465
     2007.22519        -3.83607         8.84663
     2007.22793       -11.49840         8.11007
     2007.23066       -16.35272         7.93888
     2007.23340       -30.12204         8.37683
     2007.23614       -25.35536         8.09017
     2007.23888       -10.28668         7.86854
     2007.24162         0.35199         8.11671
     2007.24435        -7.33533         7.88181
     2007.24709        -3.15065         8.89573
     2007.24983        -2.36897         8.45778
     2007.25257        -3.48030         7.80882
     2007.25530        -1.18062         7.86721
     2007.25804         1.58406         8.01187
     2007.26078         6.01274         8.07690
     2007.26352        13.50142         7.83536
     2007.26626        12.45109         7.78758
     2007.26899        17.96577         7.87517
     2007.27173        12.21945         7.89110
     2007.27447        17.99913         7.84730
     2007.27721        10.21180         7.94949
     2007.27995        13.49848         7.88844
     2007.28268        12.55816         8.01054
     2007.28542        11.38084         7.83271
     2007.28816        11.59751         7.78360
     2007.29090         8.61519         8.26800
     2007.29363         8.08987         7.92693
     2007.29637         6.39855         7.94153
     2007.29911         6.32123         7.90835
     2007.30185         5.00590         7.78227
     2007.30459        13.56858         7.96011
     2007.30732        16.16226         8.06363
     2007.31006        16.59494         8.00523
     2007.31280        13.95661         7.98665
     2007.31554        14.31429         7.78626
     2007.31828         8.02397         7.91897
     2007.32101        10.48565         8.21492
     2007.32375        14.66933         8.04372
     2007.32649        11.90000         7.96807
     2007.32923         9.90868         7.82076
     2007.33196         6.30936         7.93224
     2007.33470         7.48304         7.91101
     2007.33744         5.76671         7.84200
     2007.34018         4.94239         7.77564
     2007.34292         4.08007         7.77697
     2007.34565         5.00575         7.97604
     2007.34839         6.55842         7.83005
     2007.35113         6.03910         7.76104
     2007.35387         5.56278         8.18439
     2007.35661         2.71146         8.29189
     2007.35934         2.71614         7.76237
     2007.36208         4.07581         7.81280
     2007.36482         5.80749         7.94551
     2007.36756         8.12917         7.83801
     2007.37029         5.01085         7.77166
     2007.37303         9.50752         8.00258
     2007.37578         4.39320         8.61173
     2007.37851         4.86088         7.84863
     2007.38125         6.02756         7.75175
     2007.38398         2.18024         7.69999
     2007.38672         1.56491         7.82076
     2007.38946         6.76959         8.74710
     2007.39220         3.47727         8.20032
     2007.39493         0.96595         7.95480
     2007.39767         1.91562         8.02779
     2007.40041         4.86830         7.90437
     2007.40315         3.03198         7.75706
     2007.40589         7.67266         7.83801
     2007.40862         8.20833         7.87252
     2007.41136        10.35301         7.76768
     2007.41410         5.12069         7.78227
     2007.41684        -0.94963         7.79555
     2007.41958         3.45905         7.78095
     2007.42231         9.49972         7.84200
     2007.42505        18.67940         8.07955
     2007.42779         6.71008         7.77829
     2007.43053        13.26076         7.86323
     2007.43326         9.72643         7.77431
     2007.43600         1.67211         8.00523
     2007.43874         9.56879         7.84598
     2007.44148         7.13647         7.96675
     2007.44422         9.96415         7.98267
     2007.44695         4.55082         7.81280
     2007.44969         2.40050         8.07822
     2007.45243         3.19118         7.79422
     2007.45517         6.13686         7.80749
     2007.45791         4.00853         7.82209
     2007.46064         3.70221         7.96144
     2007.46338         9.92889         7.84067
     2007.46612         7.97257         7.86854
     2007.46886         9.99824         7.83669
     2007.47159         7.69092         8.10211
     2007.47433         7.43860         7.81545
     2007.47707         7.45328         7.86854
     2007.47981         2.81596         7.82474
     2007.48255         4.01763         7.76237
     2007.48528        -0.35469         7.79953
     2007.48802        -0.58201         7.88712
     2007.49076         6.34167         7.86986
     2007.49350        10.44934         7.92428
     2007.49624         4.21002         7.74910
     2007.49897        11.11570         7.82209
     2007.50171        -0.16962         7.90304
     2007.50445         8.37906         7.90835
     2007.50719         9.45473         7.79024
     2007.50992         8.03441         7.86721
     2007.51266         7.05709         7.73981
     2007.51540         3.42577         7.77697
     2007.51814         5.38244         7.81545
     2007.52088         9.95712         7.76237
     2007.52361         5.88980         8.23881
     2007.52635         6.93048         7.87517
     2007.52909         9.77716         7.78095
     2007.53183        14.16683         8.32905
     2007.53457         6.13951         7.85394
     2007.53730         5.93419         7.75308
     2007.54004         7.49287         7.79422
     2007.54278        11.05054         7.85792
     2007.54552        12.88122         7.89641
     2007.54825        10.15390         8.16316
     2007.55099         7.56858         7.86323
     2007.55373        13.12025         7.83271
     2007.55647        13.48193         7.83005
     2007.55921        12.53061         7.84332
     2007.56194        12.37629         7.76900
     2007.56468        10.86097         7.85394
     2007.56742        11.64364         7.94418
     2007.57016        10.43032         7.76369
     2007.57290        11.34500         7.91366
     2007.57563         9.14068         7.87783
     2007.57837        11.10135         7.92162
     2007.58111        11.96703         7.81413
     2007.58385         7.74371         7.76900
     2007.58658         7.00739         7.81678
     2007.58932        10.28707         7.76237
     2007.59206        10.85774         7.75839
     2007.59480        13.39642         7.92295
     2007.59754        13.34010         7.97338
     2007.60027         8.41778         7.69601
     2007.60301        11.29245         7.80616
     2007.60575        11.49213         7.98798
     2007.60849        10.57181         7.83138
     2007.61123         8.23649         7.79024
     2007.61396         5.37016         7.92295
     2007.61670         9.71884         8.47902
     2007.61944        10.89852         8.38214
     2007.62218        13.98620         8.14723
     2007.62491        18.76888         8.22421
     2007.62765        17.34055         8.14060
     2007.63039        20.11323         8.21492
     2007.63313        16.12291         8.08486
     2007.63587        16.52659         8.00656
     2007.63860        13.36026         7.96675
     2007.64134        18.72094         7.89375
     2007.64408        22.84462         8.41133
     2007.64682        18.11230         8.29189
     2007.64956        22.32398         8.35559
     2007.65229        17.84365         8.33834
     2007.65503        16.85433         8.25606
     2007.65777        19.17801         8.14856
     2007.66051        13.94369         8.19236
     2007.66324        16.61236         8.19899
     2007.66481        32.20761        23.47821
     2008.63904        14.61910        19.43711
     2008.64066        18.37431         7.60842
     2008.64339        16.28999         7.59117
     2008.64613        23.44367         7.72654
     2008.64887        17.05235         7.64956
     2008.65161        17.88903         7.66681
     2008.65435        18.11570         7.84996
     2008.65708        19.23738         8.02248
     2008.65982        13.75806         7.81280
     2008.66256        10.36574         7.79422
     2008.66530         9.90041         7.88048
     2008.66804        14.54809         7.86057
     2008.67077        12.73677         7.77431
     2008.67351        12.15845         7.90702
     2008.67625         9.50212         8.92891
     2008.67899        15.99780         7.84730
     2008.68172        10.10448         7.91101
     2008.68446         8.31716         7.95746
     2008.68720        10.09484         7.92030
     2008.68994        16.10451         7.85792
     2008.69268        16.58019         7.83403
     2008.69541        15.99487         7.80484
     2008.69815        16.02655         7.90172
     2008.70089        14.19822         7.84598
     2008.70363        12.89590         7.90437
     2008.70637        10.21058         8.44849
     2008.70910        11.43726         8.12335
     2008.71184        12.16494         8.28260
     2008.71458        14.52161         7.82076
     2008.71732        13.19329         7.65089
     2008.72005        13.48997         7.59780
     2008.72279        12.87065         7.68539
     2008.72553        11.03932         7.74777
     2008.72827        10.69800         7.59780
     2008.73101        11.79568         7.61771
     2008.73374        12.14236         7.61373
     2008.73648        11.11203         7.67743
     2008.73922        14.47471         7.74777
     2008.74470         2.71407         7.65487
     2008.74743         4.85875         7.57657
     2008.75017        13.30942         7.64293
     2008.75291        17.22910         8.02912
     2008.75565        18.24578         7.76104
     2008.75838        15.10146         7.64558
     2008.76112        18.03013         7.56064
     2008.76386        12.71681         7.59250
     2008.76660         9.07749         7.66814
     2008.76934         8.82217         7.74777
     2008.77207         7.11385         7.55932
     2008.77481         8.68052         7.47571
     2008.77755        13.00120         8.22952
     2008.78029         8.84888         7.60311
     2008.78303        11.32856         7.60179
     2008.78576        13.15223         7.57657
     2008.78850        14.07891         7.79953
     2008.79124        12.97059         7.77962
     2008.79398         4.74027         7.56330
     2008.79671         7.98094         7.67610
     2008.79945         6.43062         7.57126
     2008.80219        11.80730         7.49429
     2008.80493         8.56198         7.72786
     2008.80767         6.52666         7.71194
     2008.81040         0.87433         7.55666
     2008.81314         6.80901         7.59780
     2008.81588        -3.41431         7.58055
     2008.81862        -4.27963         7.56197
     2008.82136        -5.24796         7.55135
     2008.82409        -3.18028         7.71592
     2008.82683        -3.37560         7.98134
     2008.82957        -7.52092         7.68274
     2008.83231       -11.08924         7.64027
     2008.83504        -0.50557         7.56197
     2008.83778         6.01111         7.54737
     2008.84052         3.21279         7.82607
     2008.84326         6.33547         7.66151
     2008.84600         3.48714         7.60709
     2008.84873        -0.25618         7.74644
     2008.85147         9.44550         7.64027
     2008.85421        -0.06482         7.71061
     2008.85695         5.21385         7.78891
     2008.85969        14.82053         7.69203
     2008.86242        13.98521         7.71592
     2008.86516        18.05589         7.60842
     2008.86790        11.03557         7.61638
     2008.87064         9.54424         7.84598
     2008.87337         4.24392         7.75839
     2008.87611         3.71360         7.71725
     2008.87885         4.28928         7.64558
     2008.88159        -0.79205         7.63098
     2008.88433         0.94363         7.68407
     2008.88706         6.72431         7.88048
     2008.88980         9.60299         7.83536
     2008.89254        17.60467         7.69601
     2008.89528        10.98834         7.82872
     2008.89802        18.49402         7.88181
     2008.90075        15.04570         7.85394
     2008.90349        13.40738         7.75573
     2008.90623        15.25905         7.69867
     2008.90897        19.29673         7.75971
     2008.91170        19.94841         7.73317
     2008.91444        19.72709         7.74910
     2008.91718         6.95877         7.75308
     2008.91992         3.06144         7.80484
     2008.92266         2.70712         7.73981
     2008.92539        16.47180         7.78626
     2008.92813        11.93548         7.81943
     2008.93087        10.01015         7.89508
     2008.93361        16.54283         7.85261
     2008.93634        10.92551         7.81545
     2008.93908        13.38319         7.71061
     2008.94182        13.64486         7.65354
     2008.94456         3.92554         7.94153
     2008.94730        -0.53478         7.87915
     2008.95003         1.06190         7.60046
     2008.95277        -1.93842         7.57657
     2008.95551        -3.22375         7.54206
     2008.95825        -2.41607         7.57790
     2008.96099         2.18261         7.75573
     2008.96372        -0.97071         7.58586
     2008.96646         2.19296         7.65620
     2008.96920         1.76864         7.52879
     2008.97194         6.42032         7.56197
     2008.97467         8.99000         7.62169
     2008.97741        11.94468         7.62700
     2008.98015        16.79035         7.56993
     2008.98289        12.43503         7.60577
     2008.98563        12.95671         7.59780
     2008.98836        14.91939         7.56197
     2008.99110         2.69406         7.59117
     2008.99384         2.69474         7.61904
     2008.99658         2.51542         7.56064
     2008.99932         1.68510         7.64293
     2009.00479         0.26645         7.68938
     2009.00753         4.28513         7.69336
     2009.01027         5.58281         7.60975
     2009.01300         2.27649         7.58719
     2009.01574       -10.93184         7.57392
     2009.01848        -5.89316         7.70397
     2009.02122        -7.94148         7.74511
     2009.02396       -12.17680         7.64293
     2009.02669       -16.82013         7.52614
     2009.02943       -17.58245         7.52614
     2009.03217       -11.85677         7.51154
     2009.03491       -21.35309         7.56993
     2009.03765       -14.58141         7.59913
     2009.04038        -8.92274         7.58055
     2009.04312       -10.07806         7.62700
     2009.04586         2.46862         7.63496
     2009.04860         6.48830         7.58055
     2009.05133        27.47497         7.66151
     2009.06502       -27.82464         7.64823
     2009.06776       -28.00296         7.59117
     2009.07050       -24.84128         7.61240
     2009.07324       -22.32560         7.62169
     2009.07598       -20.34193         7.59648
     2009.07871       -18.47625         7.63496
     2009.08145        -7.48057         7.60311
     2009.08419        -1.58289         7.64956
     2009.08693        -5.28922         7.55932
     2009.08966        -4.54154         7.50358
     2009.09240        -8.04186         7.59913
     2009.09514        -7.25718         7.67478
     2009.09788        -7.00850         7.60179
     2009.10062        -4.22183         7.53543
     2009.10335       -10.12915         7.48234
     2009.10609       -22.84147         7.59913
     2009.10883       -28.98679         7.57126
     2009.11157       -24.69512         7.61771
     2009.11431       -24.41444         7.63629
     2009.11704       -19.84176         7.69999
     2009.11978       -26.75808         7.59913
     2009.12252       -25.92541         7.81545
     2009.12526       -19.24573         7.64691
     2009.12799       -16.82005         7.58055
     2009.13073       -14.50637         7.60444
     2009.13347       -15.43069         7.58321
     2009.13621       -14.17402         7.60311
     2009.13895       -16.56734         7.61506
     2009.14168       -11.88666         7.56197
     2009.14442       -12.27298         7.55799
     2009.14716       -11.05331         7.71194
     2009.14990       -12.65363         7.73450
     2009.15264        -8.70195         7.63496
     2009.15537        -4.22027         7.73981
     2009.15811        -6.96959         7.79953
     2009.16085        -8.40492         7.59117
     2009.16359       -12.77824         7.62833
     2009.16632        -8.73856         7.56595
     2009.16906       -10.25788         7.82872
     2009.17180       -16.06621         7.57392
     2009.17454       -16.70053         7.58719
     2009.17728        -9.35685         7.80218
     2009.18001       -15.90317         7.59780
     2009.18275       -22.13549         7.58055
     2009.18549       -19.69282         7.59382
     2009.18823       -16.88414         7.60179
     2009.19097       -16.28746         7.56728
     2009.19370       -14.65278         7.52348
     2009.19644        -7.01711         7.59515
     2009.19918        -7.09443         7.60709
     2009.20192        -7.06075         7.49429
     2009.20465        -9.03407         7.52614
     2009.20739        -0.31440         7.51021
     2009.21013        -3.03972         7.52481
     2009.21287        -0.75104         7.53941
     2009.21561        -1.30036         7.55268
     2009.21834        -4.11868         7.57524
     2009.22108         3.67999         7.70796
     2009.22382         2.35167         7.49561
     2009.22656         2.39235         7.55666
     2009.22930        -2.19997         7.58719
     2009.23203        19.61170         7.50092
     2009.23477         3.33238         7.66416
     2009.23751         2.70706         7.49296
     2009.24025         0.11274         7.55534
     2009.24298        12.91342         7.58055
     2009.24572         6.63809         7.59515
     2009.24846         5.60177         7.49960
     2009.25120         1.36645         7.63364
     2009.25394         1.83513         7.69070
     2009.25667         3.44080         7.46376
     2009.25941         1.34248         7.56197
     2009.26215         0.88016         7.47438
     2009.26489         0.82884         7.45580
     2009.26762         2.68851         7.46642
     2009.27036         6.09219         7.51154
     2009.27310         2.29387         7.63231
     2009.27584         6.01455         7.60577
     2009.27858         4.43523         7.55666
     2009.28131         3.28690         7.59913
     2009.28405         5.62358         7.56728
     2009.28679         1.34226         7.52481
     2009.28953         3.50594         7.67080
     2009.29227         1.25061         7.56861
     2009.29500         1.66129         7.59382
     2009.29774        -0.45103         7.53543
     2009.30048        -2.20835         7.51950
     2009.30322        -0.13067         7.58851
     2009.30595         0.65500         7.70796
     2009.30869        -7.06732         7.60046
     2009.31143        -3.25564         7.61771
     2009.31417        -4.92896         7.60046
     2009.31691        -9.90129         7.55932
     2009.31964        -9.99961         7.64027
     2009.32238        -8.87293         7.60709
     2009.32512        -6.06925         7.72654
     2009.32786        -7.94258         7.68672
     2009.33060        -5.38990         7.55534
     2009.33333        -4.28022         7.61506
     2009.33607        -0.58754         7.64425
     2009.33881         1.92414         7.58851
     2009.34155         3.91281         7.53012
     2009.34428         2.18149         7.54206
     2009.34702         0.51817         7.52879
     2009.34976        -2.74515         7.63629
     2009.35250        -6.25148         7.70265
     2009.35524        -8.46680         7.55268
     2009.35797        -7.76412         7.53941
     2009.36071         0.42056         7.87252
     2009.36345        -4.86776         7.62036
     2009.36619        -5.09509         7.59515
     2009.36893         7.24659         7.63894
     2009.37166        -0.63273         7.57657
     2009.37440        -7.25005         7.52747
     2009.37714        -5.70638         7.59117
     2009.37988        -4.63370         7.86854
     2009.38261         3.17298         7.67876
     2009.38535         0.40266         7.60842
     2009.38809        -3.20767         7.72388
     2009.39083        -4.43899         7.56993
     2009.39357        -2.52531         7.62169
     2009.39630        -3.37863         7.64160
     2009.39904        -0.93395         7.71061
     2009.40178         0.42672         7.60842
     2009.40452         2.46540         7.62567
     2009.40726         3.03008         7.57524
     2009.40999         4.53076         7.61240
     2009.41273         0.19943         7.70796
     2009.41547        -2.31089         7.60311
     2009.41821         1.83479         7.78758
     2009.42094        -4.82553         7.57126
     2009.42368        -2.33785         7.58984
     2009.42642        -4.42418         7.85792
     2009.42916         5.97150         7.79953
     2009.43190         6.82318         7.57790
     2009.43463         3.07686         7.59648
     2009.43737         7.39453         7.59913
     2009.44011         4.05021         7.60444
     2009.44285         7.60789         7.66814
     2009.44559         6.26557         7.66151
     2009.44832         6.71225         7.55401
     2009.45106         5.78592         7.51950
     2009.45380         5.52160         7.50889
     2009.45654         5.31628         7.61638
     2009.45927         4.83096         7.66681
     2009.46201         8.58363         7.53941
     2009.46475         7.54431         7.76237
     2009.46749         3.96999         7.79953
     2009.47023        10.24467         7.54472
     2009.47296        12.58734         7.58984
     2009.47570        12.41602         7.56463
     2009.47844         5.03570         7.56330
     2009.48118         6.94038         7.59515
     2009.48392         6.78306         7.76768
     2009.48665         4.93173         7.71725
     2009.48939         7.72741         7.73981
     2009.49213         5.98209         7.70265
     2009.49487         6.25777         7.69867
     2009.49760        -0.91356         7.73583
     2009.50034         3.22212         7.60179
     2009.50308         6.59580         7.69468
     2009.50582         4.30548         7.63098
     2009.50856         0.95116         7.69203
     2009.51129         1.30583         7.55401
     2009.51403         3.96951         7.59648
     2009.51677         5.41919         7.68274
     2009.51951         1.86487         7.72521
     2009.52225        -0.07346         7.62965
     2009.52498         0.47222         7.68938
     2009.52772         7.63090         7.60179
     2009.53046         5.66958         7.59913
     2009.53320         5.95325         7.66151
     2009.53593        15.76893         7.86588
     2009.53867         4.17861         7.59913
     2009.54141         8.87729         7.61771
     2009.54415        12.58797         7.62169
     2009.54689         3.74564         7.73184
     2009.54962        11.94232         7.77298
     2009.55236        11.06300         7.69999
     2009.55510         6.92568         8.61040
     2009.55784        15.78935         7.61506
     2009.56057         8.07103         7.94551
     2009.56331         5.96671         7.76237
     2009.56605         2.42539         7.80616
     2009.56879         2.12907         7.72255
     2009.57153         4.47274         7.62169
     2009.57426         8.88642         7.53941
     2009.57700         6.50110         7.76900
     2009.57974         8.40778         7.84730
     2009.58248        11.32245         8.03177
     2009.58522         6.07213         8.26137
     2009.58795         2.43681         7.63894
     2009.59069         9.34249         7.54339
     2009.59343        10.70616         7.98665
     2009.59617        12.34884         8.11273
     2009.59890         9.21152         7.62833
     2009.60164        12.18120         7.53676
     2009.60438         9.90288         7.58984
     2009.60712        14.89355         7.55135
     2009.60986        11.43623         7.64956
     2009.61259        11.54891         7.79555
     2009.61533         6.02459         7.62435
     2009.61807        12.99026         7.53676
     2009.62081        17.37294         7.58188
     2009.62355        17.98462         7.70928
     2009.62628        14.35230         7.69203
     2009.62902        15.83298         7.68009
     2009.63176        13.35465         7.77697
     2009.63450         5.71133         7.72388
     2009.63723         7.71901         7.76104
     2009.63997        11.52269         7.87385
     2009.64271        14.03236         7.87119
     2009.64545        15.71804         7.86986
     2009.64819        16.59572         8.01319
     2009.65092        12.38140         7.79289
     2009.65366        11.95607         7.83138
     2009.65640        11.52375         7.78360
     2009.65914        12.27243         7.73184
     2009.66188        10.18411         7.93091
     2009.66461        12.49079         7.81545
     2009.66735        11.04646         7.96807
     2009.67009        14.70714         7.83403
     2009.67283        14.76182         7.81147
     2009.67556        12.51750         7.81413
     2009.67830        14.94217         7.86057
     2009.68104        16.00685         7.86190
     2009.68378        11.10553         7.68672
     2009.68652        23.24421         7.72255
     2009.68925        21.31089         7.73052
     2009.69199        19.54756         7.69999
     2009.69473        20.96824         7.62435
     2009.69747        17.41892         7.67876
     2009.70021        17.81660         7.78360
     2009.70294        17.38127         7.69468
     2009.70568        14.03395         7.80218
     2009.70842        16.55563         7.58188
     2009.71116        18.52631         7.59913
     2009.71389        23.65499         7.99461
     2009.71663        15.69766         7.61108
     2009.71937        15.70134         7.70796
     2009.72211        17.24902         7.62302
     2009.72485        13.79870         7.77564
     2009.72758        14.98537         7.78360
     2009.73032        16.13005         7.65487
     2009.73306        19.81673         7.83536
     2009.73580        16.11341         7.64558
     2009.73854         9.21808         7.60311
     2009.74127         7.90576         7.79555
     2009.74401        11.68444         7.79820
     2009.74675        11.35812         7.62567
     2009.74949        15.25680         7.64956
     2009.75222         7.83947         7.59117
     2009.75496         8.32215         7.67080
     2009.75770         8.05783         7.60179
     2009.76044         7.44951         7.65885
     2009.76318        34.29518         8.13529
     2009.76591         5.14986         7.62567
     2009.76865         7.75054         7.81280
     2009.77139         4.43522         7.65354
     2009.77413         3.43490         7.74777
     2009.77687         9.11157         7.71194
     2009.77960        12.04025         7.63231
     2009.78234         9.96393         7.66681
     2009.78508        11.46161         7.70132
     2009.78782        12.36728         8.03443
     2009.79055        11.28796         8.04239
     2009.79329         9.81764         7.97338
     2009.79603         7.94432         8.01718
     2009.79877         8.74899         7.99063
     2009.80151         8.26367         7.96675
     2009.80424        12.05935         8.07292
     2009.80698        17.73703         8.49494
     2009.80972        20.18671         8.11804
     2009.81246        16.11638         8.17245
     2009.81520        19.36006         8.10477
     2009.81793        13.75874         8.20961
     2009.82067        12.56642         7.83934
     2009.82341         9.82109         7.79555
     2009.82615        12.93377         7.79156
     2009.82888         9.88145         7.98931
     2009.83162        10.95213         7.89641
     2009.83436         2.67081         7.85925
     2009.83710         7.45748         7.97338
     2009.83984         5.47516         7.77033
     2009.84257        15.60184         7.86057
     2009.84531        17.31452         8.10609
     2009.84805        21.86519         8.04637
     2009.85079        14.87487         7.96940
     2009.85352        16.05155         7.96409
     2009.85626         8.46423         8.07690
     2009.85900         6.21690         8.14989
     2009.86174        12.16958         7.99196
     2009.86448        22.90426         8.40337
     2009.86721        17.90994         8.20430
     2009.86995        29.33962         8.05699
     2009.87269        26.84229         8.11804
     2009.87543        22.29797         8.08353
     2009.87817        20.41365         8.35427
     2009.88090        18.55733         8.47371
     2009.88364        23.73300         8.05434
     2009.88638        22.35068         8.09680
     2009.88912        24.53036         7.75573
     2009.89185        21.87004         7.75971
     2009.89459        23.32472         7.72654
     2009.89733        22.74339         7.72123
     2009.90007        23.25807         7.78095
     2009.90281        24.45775         7.74910
     2009.90554        22.95843         7.68672
     2009.90828        24.65810         7.65487
     2009.91102        29.66378         7.65885
     2009.91376        25.76146         7.68672
     2009.91650        22.68314         7.70663
     2009.91923        20.78781         7.68938
     2009.92197        18.97449         7.59780
     2009.92471         5.39317         7.64823
     2009.92745         5.24185         7.66549
     2009.93018         9.78153         7.73450
     2009.93292        11.50620         7.72654
     2009.93566        11.65488         7.64823
     2009.93840        12.92156         7.77431
     2009.94114        16.18624         7.62169
     2009.94387        19.90591         8.03045
     2009.94661        17.88859         8.03974
     2009.94935        17.75727         7.66814
     2009.95209        19.96995         7.55135
     2009.95483        20.94063         7.59250
     2009.95756        28.29730         7.65089
     2009.96030        29.85298         7.70796
     2009.96304        31.00866         7.70397
     2009.96578        19.28234         7.75971
     2009.96851        18.39701         7.80484
     2009.97125        20.80469         7.88446
     2009.97399        20.26837         7.90702
     2009.97673        20.43805         7.77166
     2009.97947        16.95373         7.67080
     2009.98220        20.25640         7.69336
     2009.98494        19.80908         7.71990
     2009.98789        18.79766         8.78956
     2009.99042        17.80344         7.69468
     2009.99316       -17.95389         7.67876
     2009.99589       -18.84021         7.64027
     2009.99863       -17.81453         7.66681
     2010.00411        -9.92818         7.72123
     2010.00684       -13.88050         7.70928
     2010.00958       -15.16582         7.63496
     2010.01232       -19.62214         7.73317
     2010.01506       -11.72246         7.75042
     2010.01780       -13.56979         7.68539
     2010.02053        -7.95411         7.73583
     2010.02327        -8.13043         7.67743
     2010.02601        -4.38575         7.71061
     2010.02875        -3.38008         7.76635
     2010.03149         0.41860         7.75042
     2010.03422        -0.43372         7.88977
     2010.03696         1.96696         8.26535
     2010.03970         5.58964         8.01319
     2010.04244        10.02731         7.71061
     2010.04517        19.26499         7.77033
     2010.04791        16.15267         7.67080
     2010.05065        10.59335         7.77033
     2010.05339        10.88602         7.89508
     2010.05613         9.72470         7.73981
     2010.05886         7.31338         7.70397
     2010.06160         2.73306         7.69336
     2010.06434         5.01073         7.75706
     2010.06708         3.25241         7.61240
     2010.06982         1.48309         7.86986
     2010.07255         6.74277         8.09282
     2010.07529         9.51745         7.81545
     2010.07803         1.97212         7.65620
     2010.08077         6.11580         7.67212
     2010.08350         6.49648         7.64027
     2010.08624         9.94116         7.67212
     2010.08898        18.89783         7.71725
     2010.09172        15.32551         7.68805
     2010.09446        15.58119         7.88977
     2010.09719        18.87987         7.86323
     2010.09993        14.94755         7.74379
     2010.10267        19.20722         7.69203
     2010.10541        21.53390         7.88048
     2010.10815        18.57758         7.89375
     2010.11088        20.99326         7.83403
     2010.11362        17.79893         7.75440
     2010.11636        22.02461         7.73715
     2010.11910        18.93629         7.70397
     2010.12183        15.88097         7.69999
     2010.12457        12.96464         7.71990
     2010.12731        14.43432         7.86986
     2010.13005        10.99200         7.84200
     2010.13279         9.44568         7.88181
     2010.13552         5.89936         7.89773
     2010.13826        -3.56597         7.71857
     2010.14100         1.17771         7.71990
     2010.14374         3.09039         7.99196
     2010.14648        -3.13993         7.99063
     2010.14921         3.16674         7.93888
     2010.15195         6.01942         7.76237
     2010.15469         2.21110         7.74777
     2010.15743         5.83478         7.81678
     2010.16016         8.96846         7.67478
     2010.16290         8.04513         7.71990
     2010.16564         7.34481         7.73052
     2010.16838         6.70449         7.76369
     2010.17112        19.28217         7.81545
     2010.17385        20.68484         7.71725
     2010.17659        13.72252         7.70397
     2010.17933        12.23120         7.80749
     2010.18207        12.45588         7.74511
     2010.18480        18.72855         7.77033
     2010.18754        13.95123         7.77431
     2010.19028        15.24691         7.72919
     2010.19302        14.88559         7.63098
     2010.19576        11.79527         7.77298
     2010.19849        11.84994         7.71592
     2010.20123         3.36462         7.78493
     2010.20397        -3.71670         7.99594
     2010.20671        -2.50702         7.92428
     2010.20945        -1.98235         7.63762
     2010.21218         2.85833         7.74644
     2010.21492         3.44501         7.75839
     2010.21766         1.83369         7.71061
     2010.22040         0.52137         7.68141
     2010.22313        11.00304         7.67345
     2010.22587         6.61072         7.74644
     2010.22861         7.88940         7.75175
     2010.23135         5.67308         7.79953
     2010.23409         9.98875         7.81280
     2010.23956        13.03511         7.84200
     2010.24230        11.38079         8.20961
     2010.24504         5.71547         7.92295
     2010.24778         9.04914         7.94817
     2010.25051        10.72782         7.99329
     2010.25325         9.77050         7.77166
     2010.25599         9.47218         7.83536
     2010.25873        11.89085         8.51750
     2010.26146        13.04253         9.49958
     2010.26420        11.40021         8.35161
     2010.26694        10.64389         7.83271
     2010.26968         3.59456         7.95746
     2010.27242         2.82924         8.02248
     2010.27515         3.12592         7.85792
     2010.27789         4.71960         8.15652
     2010.28063         7.71828         7.79687
     2010.28337         6.44695         7.90172
     2010.28611         8.95463         7.83934
     2010.28884         9.40231         7.72388
     2010.29158         8.99799         8.03045
     2010.29432        13.94566         7.98400
     2010.29706        12.21034         7.73981
     2010.29979        10.58302         7.98665
     2010.30253        11.82370         7.85261
     2010.30527        17.15938         7.98665
     2010.30801        11.51005         7.83536
     2010.31075         9.70873         7.69203
     2010.31348        14.45441         7.80218
     2010.31622        17.46709         7.77829
     2010.31896        13.96376         7.89375
     2010.32170        12.35344         7.85129
     2010.32444         9.34712         7.82209
     2010.32717         7.16580         7.76237
     2010.32991         6.71347         7.73052
     2010.33265         9.17715         8.77762
     2010.33539        -1.10617         8.15520
     2010.33812         1.25851         7.80484
     2010.34086         0.40019         7.76900
     2010.34360        -1.70214         7.71061
     2010.34634        -4.38646         7.87252
     2010.34908         0.60622         7.78227
     2010.35181        -1.36210         7.75839
     2010.35455         3.29657         7.84465
     2010.35729         6.10825         7.75573
     2010.36003         7.35593         7.91499
     2010.36277         5.67361         7.71459
     2010.36550         4.14729         8.06097
     2010.36824         8.66496         7.94286
     2010.37098         5.20164         7.70928
     2010.37372         4.76232         7.68274
     2010.37645         7.74500         7.85261
     2010.37919         6.48067         8.12998
     2010.38193         2.27435         8.18705
     2010.38467         1.07903         8.12335
     2010.38741         6.68171         7.96409
     2010.39043         6.77325         9.43853
     2010.39288         3.77206         7.95746
     2010.39562         2.74374         7.90702
     2010.39836         3.46642         7.74511
     2010.40110         3.23210         7.90172
     2010.40383         5.14177         7.85792
     2010.40657         2.73645         9.92293
     2010.40931        12.40313         8.32905
     2010.41205         2.58281         8.15918
     2010.41478        11.11548         7.76635
     2010.41752        11.98216         7.80749
     2010.42026        19.35084         7.88712
     2010.42300        11.00852         7.86721
     2010.42574         7.64620         7.76369
     2010.42847         5.18687         7.71592
     2010.43121         2.99855         7.77829
     2010.43395         6.01923         7.78493
     2010.43669         3.15291         7.76502
     2010.43943        12.31658         7.81280
     2010.44216         8.97026         7.79820
     2010.44490        10.49794         7.72388
     2010.44764         3.31262         7.74644
     2010.45038         4.09829         7.72255
     2010.45311         5.31697         8.05301
     2010.45585         4.30265         8.27597
     2010.45859         9.47733         7.96542
     2010.46133         2.34301         7.93622
     2010.46407         8.31968         7.83669
     2010.46680         7.14036         7.80484
     2010.46954         2.86704         7.77564
     2010.47228         6.97772         7.72919
     2010.47502        10.21139         7.80616
     2010.47775        10.43707         8.00523
     2010.48049        12.11875         8.05035
     2010.48323         6.37543         8.01850
     2010.48597         8.02011         7.97604
     2010.48871         9.84378         7.82607
     2010.49144         8.74946         8.08353
     2010.49418         5.60814         7.82872
     2010.49692         6.29382         7.84730
     2010.49966         5.65749         7.80218
     2010.50240        17.71517         7.80484
     2010.50513        10.41885         7.81943
     2010.50787        10.61053         7.78493
     2010.51061         4.26421         7.90039
     2010.51335         6.16788         7.85394
     2010.51608        11.56856         7.80218
     2010.51882         9.75024         7.88181
     2010.52156         5.23492         7.98400
     2010.52430        13.64759         7.89906
     2010.52704         7.92527         7.72521
     2010.52977         3.35995         7.93357
     2010.53251         9.76963         7.76635
     2010.53525         9.99130         7.84465
     2010.53799         2.74498         7.82342
     2010.54073         7.42266         7.81545
     2010.54346         4.53534         7.77166
     2010.54620         4.05402         7.76900
     2010.54894         8.46269         7.77166
     2010.55168         8.32637         7.78758
     2010.55441         7.31705         7.78626
     2010.55715         9.37173         7.70796
     2010.55989         7.74940         7.75308
     2010.56298         3.76391         9.42526
     2010.56537         8.01976         7.84730
     2010.56810        12.45044         7.99992
     2010.57084         5.06412         7.88844
     2010.57358         3.67179         7.99461
     2010.57632         2.24947         7.93357
     2010.57906         9.37315         7.68009
     2010.58179        10.08683         7.77564
     2010.58453         3.11850         7.90437
     2010.58727        -3.99082         7.93224
     2010.59001         7.72786         8.39939
     2010.59274         9.21254         8.00125
     2010.59548        17.06621         7.81545
     2010.59822        15.90189         7.81014
     2010.60096        13.64957         7.79422
     2010.60370        11.82625         7.71061
     2010.60643        13.42793         7.71194
     2010.60917        10.15060         7.78227
     2010.61191         6.02428         7.77298
     2010.61465         6.91596         7.79555
     2010.61739         7.62364         7.74379
     2010.62012        12.26231         7.71061
     2010.62286        11.75299         7.87650
     2010.62560        12.01267         8.23217
     2010.62834        15.88435         7.87915
     2010.63107        10.40603         7.88579
     2010.63381        13.53470         7.67212
     2010.63655        15.39838         7.70397
     2010.63929        16.99706         7.76502
     2010.64203        12.84674         7.78493
     2010.64476        10.85541         7.97736
     2010.64750        14.45009         7.71326
     2010.65024        13.91177         7.75971
     2010.65298        13.04245         7.93622
     2010.65572        13.18612         7.64293
     2010.65845        13.89380         7.60311
     2010.66119        14.75348         7.63894
     2010.66393        19.69816         7.58586
     2010.66667        19.99684         7.59250
     2010.66940        17.23051         7.63231
     2010.67214        12.25919         7.62567
     2010.67488        18.87987         7.69468
     2010.67762        16.49555         7.54737
     2010.68036        10.91922         7.56463
     2010.68309         8.66190         7.72919
     2010.68583        19.37758         7.70132
     2010.68857         9.87626         7.54472
     2010.69131        10.29894         7.55401
     2010.69405         6.89261         7.79422
     2010.69678         9.11529         7.62169
     2010.69952         6.58297         7.60577
     2010.70226         5.98265         7.66681
     2010.70500         8.83932         7.65487
     2010.70773         9.65100         7.53012
     2010.71047         6.80968         7.60709
     2010.71321        10.84436         7.49694
     2010.71595         5.39903         7.60046
     2010.71869        10.55871         7.58321
     2010.72142        10.05039         7.70132
     2010.72416        11.90707         7.64425
     2010.72690        12.51375         7.69070
     2010.72964        14.86842         7.80882
     2010.73238        14.31910         7.54206
     2010.73511        16.00478         7.50889
     2010.73785        10.00546         7.79953
     2010.74059        12.53913         7.77298
     2010.74333         9.58381         7.49163
     2010.74606        12.39649         7.65752
     2010.74880        10.28417         7.62169
     2010.75154        16.88085         7.62567
     2010.75428        11.94952         7.59250
     2010.75702         8.53620         7.60444
     2010.75975        10.90388         7.58055
     2010.76249         0.54756         7.65885
     2010.76523        10.27323         7.54206
     2010.76797        14.39191         7.56463
     2010.77070        13.19559         7.57657
     2010.77344        14.54427         7.53676
     2010.77618        14.67195         8.63827
     2010.77892         7.05662         7.51154
     2010.78166         2.86630         7.50225
     2010.78439         3.64898         7.58851
     2010.78713         6.87666         7.61638
     2010.78987         8.93033         7.55799
     2010.79261         9.57201         7.65885
     2010.79535        13.12769         7.51818
     2010.79808        12.04637         7.57392
     2010.80082         6.50704         7.50092
     2010.80356         9.42072         7.47969
     2010.80630         6.30340         7.60577
     2010.80903        10.37708         7.92959
     2010.81177        12.97076         7.64160
     2010.81451        14.03443         7.49163
     2010.81725        12.96711         7.48500
     2010.81999         5.64879         7.53410
     2010.82272        11.36647         7.55135
     2010.82546        19.29514         7.60179
     2010.82820        21.85182         7.48500
     2010.83094        17.96850         7.71725
     2010.83368        16.06018         7.74910
     2010.83641        13.47386         7.55401
     2010.83915        10.38853         7.65885
     2010.84189        20.21021         7.63231
     2010.84463        19.59089         7.56993
     2010.84736        16.82757         7.58851
     2010.85010        15.07124         7.57392
     2010.85284        12.83692         7.63629
     2010.85558         9.99460         7.57922
     2010.85832         6.81228         7.52614
     2010.86105         7.97095         7.71326
     2010.86379        11.26063         7.71990
     2010.86653         8.22731         7.59913
     2010.86927         6.02299         7.65487
     2010.87201         6.16967         7.53941
     2010.87474         1.22934         7.69734
     2010.87748        -2.26898         7.69336
     2010.88022         2.89070         7.59117
