# ================= DQRFIT RESULTS ================
# INPUT FILE: series/BILI.rad
# OUTPUT: LDETRENDED
# FILTER FUNCTION: f(t)
# f(t)=+line(t)+annual(t)
# line(t)=+P 1+P 2*t
# annual(t)=+P 3*sin(2*pi*t+P 4)
# heav(t)=(t<0?0:1)
# TOTAL OBSERVATIONS MTOT= 3096
# INITIAL TIME INTERVAL= 2008.9446 - 1999.6769 =  9.2676
# TOTAL OBSERVATIONS AFTER PREFILTER M= 3077
# TIME-SPAN= 2008.9446 - 1999.6769 =  9.2676
# OBSERVATIONS: USED M=  3077 REJECTED MTOT-M=    19 %USED=   99.3863
# N=  4 PARAMETERS
# MAXSIG= 175.00000
# MAXRES=  22.23230
# SCALE FACTOR FOR LENGTHS: SCL=  10.00000
# SCALE FACTOR FOR SIGMAS: SCLSIG=   1.00000
# CHI^2=   8593.651 DOF=  3073 CHI^2/DOF=   2.79650
# RMS=      6.621 SDEV=      6.622 MEAN=    0.02112
#  P #       PARAMETER +-    SIGMA %error PARAMETER NAME
# P 1 =      1044.48609 +-   92.258   8.83 YZERO                              
# P 2 =        -0.52159 +-    0.046   8.82 SLOPE                              
# P 3 =         9.07166 +-    0.167   1.84 ANNUAL AMPLITUDE                   
# P 4 =        -2.07372 +-    0.013   0.61 ANNUAL PHASE                       
#       T            LDETRENDED       SIG_OBS
     1999.67693         4.25396         6.43232
     1999.67967         9.15744         6.35968
     1999.68241         7.01585         6.76573
     1999.68515         9.00385         6.65156
     1999.68789         1.19171         6.46868
     1999.69062         8.75225         6.72660
     1999.69336         4.42994         6.61191
     1999.69610         0.27720         8.86355
     1999.69884         5.80849         6.95423
     1999.70157         6.47705         6.61674
     1999.70431         9.62292         6.61412
     1999.70705         7.00730         7.28927
     1999.70979         8.99726         7.13087
     1999.71253         7.43704         6.64656
     1999.71800        -1.34974         6.75505
     1999.72074         8.99522         6.87543
     1999.72348         5.38198         7.35060
     1999.72621         4.03139         6.76579
     1999.72895         2.27015         6.89631
     1999.73169         1.34561         6.65598
     1999.73443         2.00119         6.90410
     1999.73717         7.66509         8.15887
     1999.73990        -2.18283         7.26189
     1999.74264         3.14926         6.91050
     1999.74538        -0.18508         7.36999
     1999.74812         7.43272         7.27072
     1999.75086         7.44382         7.10705
     1999.75359         5.91307         6.94008
     1999.75633         8.37712         6.86051
     1999.75907         6.40507         6.73324
     1999.76181        16.16922         6.76779
     1999.76454         4.72146         6.89732
     1999.76728        11.00636         6.83810
     1999.77002        10.32828         6.81006
     1999.77276         9.16682         7.51766
     1999.77550         7.40262         6.46268
     1999.77823         6.89278         7.84353
     1999.78097         7.98483         6.78853
     1999.78371         0.62875         6.96613
     1999.78645         3.28406         6.82193
     1999.78919        -5.90690         6.87790
     1999.79192         0.55919         6.88504
     1999.79466        12.54826         6.47841
     1999.79740         5.45675         6.75237
     1999.80014        -2.89267         6.63068
     1999.80287        -2.54863         6.81616
     1999.80561         5.49690         8.70262
     1999.80835         6.85134         6.86998
     1999.81109        -0.18796         7.15625
     1999.81383        -1.00486         6.76530
     1999.81656         4.73997         6.56056
     1999.81930        -3.66383         7.23068
     1999.82204         0.73072         7.13607
     1999.82478         5.36972         6.96606
     1999.82752         1.48520         6.49489
     1999.83025         5.86858         6.73203
     1999.83299         7.34744         6.66195
     1999.83573         6.47387         6.38089
     1999.83847        10.23648         6.35422
     1999.84120         9.26393         6.54656
     1999.84394         0.64069         6.67335
     1999.84668         2.02523         6.46158
     1999.84942        -4.40659         7.42137
     1999.85216         0.42217         7.31752
     1999.85489         8.95036         7.08725
     1999.85763         0.40530         6.41532
     1999.86037        -2.63931         6.78321
     1999.86311        -3.57730         6.40488
     1999.86585        -7.00283         8.71747
     1999.86858        -4.17967         6.41330
     1999.87132         1.58569         6.29417
     1999.87406        -3.50307         7.54908
     1999.87680        -0.93233         6.36687
     1999.87953         6.01246         6.73156
     1999.88227        -4.04016         6.79169
     1999.88501        -4.42791         6.46369
     1999.88775        -4.12607         6.80825
     1999.89049        -4.04348         6.65925
     1999.89322        -8.02422         7.64068
     1999.89596         5.44246         7.29200
     1999.89870       -11.75526         7.36013
     1999.90144       -11.55693         6.90461
     1999.90418        -8.53247         6.85734
     1999.90691         2.97953         6.50014
     1999.90965        -1.92117         6.50850
     1999.91239        -4.89139         7.10197
     1999.91513        -0.32598         6.79226
     1999.91786        -3.85640         6.72074
     1999.92060        -4.25270         7.17628
     1999.92334         6.36437         7.10599
     1999.92608        -4.10182         6.46408
     1999.92882        -1.89125         7.25930
     1999.93155        -0.46480         6.62758
     1999.93429        -3.71364         7.52647
     1999.93703       -10.89478         6.97845
     1999.93977       -12.27804         6.73347
     1999.94251       -18.11169         6.74569
     1999.94524       -13.37419         6.85649
     1999.94798       -12.40943         7.64233
     1999.95072       -10.93307         7.01229
     1999.95346        -0.57740         6.97565
     1999.95619        -7.65770         6.87553
     1999.95893        -9.10210         7.66724
     1999.96167        -1.83210         7.26970
     1999.98357        -2.87854         6.73416
     1999.98631        -1.50523        17.09774
     1999.98905        -3.37082         6.78579
     1999.99179        -7.67013         6.67594
     1999.99452       -10.36663         6.45340
     2000.00274       -12.50039         6.45567
     2000.00548       -14.02774         6.41813
     2000.02738       -22.28551         7.20601
     2000.03012       -21.08055         6.51965
     2000.03285       -13.97678         6.35703
     2000.03559       -17.54524         6.47239
     2000.03833       -22.06357         6.47821
     2000.04107       -16.99301         6.30679
     2000.04381       -20.28432         6.35569
     2000.04654       -18.04022         6.57450
     2000.04928       -21.82236         6.44769
     2000.05202       -22.14817         6.51226
     2000.05476       -19.41418         6.65384
     2000.06297       -19.70974         6.31285
     2000.06571        -9.47662         6.37655
     2000.07940       -16.79414         6.74061
     2000.08214       -14.27927         7.02517
     2000.08487       -16.04624         6.90076
     2000.08761       -14.90583         6.67812
     2000.09582       -20.91750         6.81494
     2000.09856       -31.60850         6.98104
     2000.10130       -26.85409         6.90599
     2000.10404       -24.99515         6.47611
     2000.10678       -14.79841         6.54025
     2000.10951        -5.28814         6.46712
     2000.11225        -1.35923         6.74704
     2000.11499       -15.91577         8.89022
     2000.11773        -9.46205         6.43991
     2000.12047        -6.10289         9.18884
     2000.12320        -6.91440         6.33571
     2000.12594        -5.17608         6.28867
     2000.13415        -7.69269         6.31640
     2000.13689       -13.05022         6.49504
     2000.13963       -13.92243         7.18169
     2000.14237       -14.77754         6.29292
     2000.14511        -4.00925         6.56121
     2000.14784       -10.38943         6.76598
     2000.15058        -8.72064         6.19306
     2000.15332        -6.98341         6.20510
     2000.15606        -9.25324         6.20555
     2000.15880        -5.72461         6.92483
     2000.16153         4.09839         6.24318
     2000.16427         4.20953         7.63911
     2000.16701         1.27511         6.38994
     2000.17522        -5.29236         6.46594
     2000.17796        -1.18718         6.91106
     2000.18070        -4.61276         7.18338
     2000.18344        -1.79961         8.21727
     2000.18617        -5.77336         6.65302
     2000.18891        -5.47813         8.37172
     2000.19165        -4.91425         7.35937
     2000.19439        -0.04838         7.10091
     2000.19713        -7.75876         6.95413
     2000.19986       -25.40152         7.33532
     2000.20260        -6.06496         6.95193
     2000.20534        -1.42476         6.69527
     2000.20808        -7.27811         6.86963
     2000.21081        -3.76850         6.57188
     2000.21355        -5.49741         6.48373
     2000.21629        -2.58502         6.86820
     2000.21903        -1.41075         6.54759
     2000.22177         5.03846         6.66565
     2000.22450        -9.99958         7.27356
     2000.22724        -3.46197         6.97611
     2000.22998         1.44452         6.72487
     2000.23272        -3.98385         7.15670
     2000.23546         3.61621         7.25973
     2000.23819        10.01262         6.54571
     2000.24093         4.90410         6.68296
     2000.24367         2.19943         6.65564
     2000.24641        -5.02731         7.99349
     2000.24914        -1.07996         7.06522
     2000.25188        -4.45727         7.49197
     2000.25462         1.10345         6.92961
     2000.25736         4.23156         7.16592
     2000.26010         6.59926         6.60417
     2000.26283         1.80789         8.33052
     2000.26557        -2.07713         7.26052
     2000.26831        -2.55978         6.73102
     2000.27105        -4.48530         6.82642
     2000.27379        -4.93992         7.24515
     2000.27652        -8.50232         6.55518
     2000.27926        -1.62502         6.88264
     2000.28200        -2.99282         6.70258
     2000.28474        -6.95846         6.53914
     2000.28747        -9.32093         6.43070
     2000.29021        -2.21629         7.45782
     2000.29295        -4.50464         6.39319
     2000.29569        -4.30359         6.28359
     2000.29843        -3.12557         7.04587
     2000.30116         1.46542         6.69658
     2000.30390         0.04980         6.73497
     2000.30664        -0.70795         6.33171
     2000.30938         3.89364         6.32426
     2000.31211        -4.27253         7.00565
     2000.31485        -8.19622         6.55278
     2000.31759        -2.53514         6.33983
     2000.32033        -3.69590         6.63847
     2000.32307        -1.46832         6.54471
     2000.32580        -3.01513         6.32607
     2000.32854        -1.84769         6.51864
     2000.33128         1.29756         6.58723
     2000.33402        -4.01914         6.74228
     2000.33676        -4.44119         6.77289
     2000.33949         3.29244         6.39514
     2000.34223         1.37904         6.42586
     2000.34497        -0.12489         6.44919
     2000.34771         3.95804         6.42335
     2000.35044         3.53670         6.39475
     2000.35318        -2.67132         6.42648
     2000.35592        -0.72097         6.38629
     2000.40246        10.63573         6.60339
     2000.40520         3.25130         6.53242
     2000.40794        -2.36257         6.66373
     2000.41068        -0.95056         6.44408
     2000.41342         1.39679         6.40431
     2000.41615        -0.60213         6.54911
     2000.41889         4.46736         6.26208
     2000.42163        -4.82029         6.29066
     2000.42437         2.75874         6.28011
     2000.42710         3.98928         6.49818
     2000.42984         3.28424         6.26065
     2000.43258         2.91081         6.32824
     2000.43532         0.09759         7.16485
     2000.43806         3.05551         6.30617
     2000.44079        10.46631         6.35256
     2000.44353        -0.39620         6.41875
     2000.44627         3.88179         6.16922
     2000.44901         4.99481         6.26796
     2000.45175         0.85557         6.28589
     2000.45448        -1.37816         6.41701
     2000.45722        10.37580         6.27824
     2000.45996         9.05427         6.25639
     2000.46270         6.74281         6.50693
     2000.46543         5.57140         6.42649
     2000.46817         7.00221         6.37935
     2000.47091         5.75787         6.48156
     2000.47365        23.92554         6.70717
     2000.47639         9.87450         6.60771
     2000.47912        -0.09935         6.21728
     2000.48186         4.63293         6.20400
     2000.48460         3.34113         8.03655
     2000.48734         3.42796         6.73745
     2000.49008         6.94089         6.54109
     2000.49281        20.47201         6.40049
     2000.49555        11.51769         6.42805
     2000.49829         6.84907         6.45221
     2000.50103        13.76352         6.56347
     2000.50376         0.70067         6.64976
     2000.50650         5.28003         6.32701
     2000.50924         9.23447         6.51815
     2000.51198        -1.30606         6.42628
     2000.51472        -1.13239         6.74826
     2000.51745         0.91392         6.38227
     2000.52019         3.80965         6.54131
     2000.52293        10.50638         6.58145
     2000.52567         9.00244         6.56774
     2000.52841         8.50158         6.41632
     2000.53114         9.24942         6.64342
     2000.53388         7.21835         7.16559
     2000.53662        -0.34064         8.31595
     2000.53936         5.80877         6.43818
     2000.54209        12.01900         6.48741
     2000.54483         6.02183         6.67457
     2000.54757        10.94085         7.16685
     2000.55031         6.56749         7.36399
     2000.55305         5.55658         6.40531
     2000.55578         5.05427         6.88886
     2000.55852         2.04978         7.30484
     2000.56126         2.04952         6.46100
     2000.56400         5.08027         6.58633
     2000.56674        11.47006         6.91027
     2000.56947         5.25210         6.73265
     2000.57221        10.43704         7.65862
     2000.57495        11.35064         7.53868
     2000.57769         3.38116         6.56465
     2000.58042         3.66177         6.73226
     2000.58316         8.90580         7.07609
     2000.58590         1.74417         6.62811
     2000.58864         7.29073         6.71227
     2000.59138        13.35203         6.99100
     2000.59411         3.61534         7.05179
     2000.59685         2.59177         6.85837
     2000.59959         3.58672         6.72341
     2000.60233         4.67349         6.56270
     2000.60507        15.72584         6.94615
     2000.60780         7.11627         7.42088
     2000.61054        12.19822         7.97079
     2000.61328        -1.11449         9.11562
     2000.61602         2.40149         6.80365
     2000.61875         4.69166         6.64204
     2000.62149         7.88891         6.70974
     2000.62423         9.46912         6.69304
     2000.62697        10.88063         6.75382
     2000.62971         5.16656         6.61526
     2000.63244        -4.45106         6.40728
     2000.63518         1.80487         6.48775
     2000.63792         5.94460         6.66450
     2000.64066        -3.41814         6.68754
     2000.64339        -4.14244         6.64208
     2000.64613        -1.55435         6.83432
     2000.64887         3.48659         6.62822
     2000.65161        11.92499         6.68279
     2000.65435         7.80761         6.45427
     2000.65708        15.31554         6.90272
     2000.65982        19.00641         6.57050
     2000.66256        11.86492         6.53781
     2000.66530        11.45673         6.59736
     2000.66804        14.54810         7.12546
     2000.67077        15.17570         7.34473
     2000.67351        16.91809         6.46137
     2000.67625        15.82145         6.90365
     2000.67899         9.76330         6.53851
     2000.68172        10.05877         6.67075
     2000.68446        10.51199         6.67768
     2000.68720         9.71549         6.86640
     2000.68994         5.16832         6.66802
     2000.69268        13.97799         6.67351
     2000.69541         9.89005         6.64128
     2000.69815         7.13832         7.97935
     2000.70089         5.79646         6.56439
     2000.70363         7.46451         6.71067
     2000.70637         5.84409         6.69096
     2000.70910        10.07399         7.01965
     2000.71184         7.53871         6.96081
     2000.71458         0.65744         6.79953
     2000.71732         5.72384         7.04337
     2000.72005        10.68738         6.51465
     2000.72279        11.24051         7.61596
     2000.72553         9.69078         6.41152
     2000.72827         9.94105         6.42957
     2000.73101        -2.63440         6.62072
     2000.73374         3.94079         6.91710
     2000.73648        -2.36201         6.97168
     2000.73922         2.77775         6.55462
     2000.74196         4.45214         6.96689
     2000.74470         2.63357         7.02550
     2000.74743        -4.33567         8.78614
     2000.75017         3.57078         6.53157
     2000.75291         6.44812         6.98037
     2000.75565         2.68827         7.80732
     2000.75838        -5.86273        10.01050
     2000.76112         3.11002        10.01576
     2000.76386         2.70183         6.38425
     2000.76660        -1.20923         6.46572
     2000.76934         6.95525         6.41130
     2000.77207         3.58576         6.55543
     2000.77481         9.62714         7.18060
     2000.77755        14.18476         7.02401
     2000.79398         4.36778         6.84538
     2000.79671         7.24496         6.82596
     2000.79945        -1.62847         6.86047
     2000.80219         6.72518         6.50595
     2000.80493         8.62144         6.50541
     2000.80767         7.37557         7.01633
     2000.81040         7.01413         6.87515
     2000.81314         8.91426         7.17228
     2000.81588         4.92891         6.75135
     2000.81862         4.54757         6.92958
     2000.82136        10.95245         6.77347
     2000.82409        10.36882         7.28053
     2000.82683        14.58163         9.11268
     2000.82957         6.36703         6.92165
     2000.83231         6.46991         7.17107
     2000.83504         4.58443         6.67149
     2000.83778         2.50461         6.67938
     2000.84052         0.30535         6.92036
     2000.84326         3.67391         8.97762
     2000.84600         1.79550         6.74437
     2000.84873        13.10897         9.82202
     2000.85147        12.41924         7.83015
     2000.85421         1.53404         6.67004
     2000.85695        15.51264         6.76039
     2000.85969        19.17456         8.32999
     2000.86242        17.85290         7.09667
     2000.86516         8.67623         6.71651
     2000.86790         0.99655         6.74355
     2000.87064         8.02339         6.69475
     2000.87337         1.77440         6.48656
     2000.87611         0.77962         6.56715
     2000.87885         8.41637         6.45401
     2000.88159         3.10243         6.82440
     2000.88433        -3.18138         6.78706
     2000.88706        -2.87565         6.64241
     2000.88980        -2.69167         6.83401
     2000.89254        -1.22853         6.72649
     2000.89528         3.58645         6.65477
     2000.89802         2.73328         6.84593
     2000.90075        -1.26621         6.77964
     2000.90349        -1.74749         7.31632
     2000.90623         1.51503         7.43298
     2000.90897        -1.13749         9.08255
     2000.91170        -2.95738        10.02540
     2000.91444         2.05406         6.83666
     2000.91718        -4.87741         6.79515
     2000.91992        -4.36561         6.92265
     2000.92266         4.17804         6.89846
     2000.92539        10.01754         7.91242
     2000.92813         7.90531         6.81189
     2000.93087         2.80596         6.73087
     2000.93361         3.74059         6.88210
     2000.93634         1.52225         7.36870
     2000.93908         8.96550         7.07077
     2000.94182         6.85251         6.61728
     2000.94456        14.25204         6.58027
     2000.94730         7.39840         6.59600
     2000.95003         9.69374         6.49626
     2000.95277        11.74358         6.34967
     2000.95551         8.88301         6.28961
     2000.95825         6.09452         6.51133
     2000.96099         5.50681         6.63672
     2000.96372         1.36176         6.65032
     2000.96646         2.70342         6.85231
     2000.96920         7.34485         6.48005
     2000.97194         0.64070         6.52947
     2000.97467         3.45023         6.53984
     2000.97741        -3.99640         6.98401
     2000.98015        -6.90850         6.33638
     2000.98289        -5.29432         6.69320
     2000.98563        -3.86279         6.38133
     2000.98836        -2.56325         6.77132
     2000.99110        -4.14174         6.43976
     2000.99384         1.07982         6.30371
     2000.99658         3.51950         6.38362
     2000.99932        -1.92882         6.50741
     2001.00205        -7.41847         6.31201
     2001.00479       -13.21767         6.57004
     2001.00753        -7.19889         6.79067
     2001.01027        -9.06563         6.87722
     2001.01300        -0.78406         6.94859
     2001.01574        -2.21650         6.92999
     2001.01848         3.53793         6.56937
     2001.02122        -2.58844         6.53811
     2001.02396        -5.24413         6.81155
     2001.02669        -9.92489         6.63790
     2001.02943       -12.30677         7.30936
     2001.03217        -8.32952         6.73158
     2001.03491        -7.23518         6.83433
     2001.03765       -11.72997         6.62252
     2001.04038        -6.03537         6.77513
     2001.04312        -5.98917         6.83392
     2001.04586        -8.69215         7.04750
     2001.04860        -5.61699         7.16742
     2001.05133        -5.07728         7.00964
     2001.05407        -9.00814         6.57484
     2001.05681        -7.45559         7.21161
     2001.05955        -8.66839         6.49981
     2001.07050        -1.49330        10.43840
     2001.07324        -2.94833         6.74981
     2001.07598        -8.38204         6.74318
     2001.07871        -8.58006         6.73293
     2001.08145       -10.23360         6.41251
     2001.08419       -12.46020         8.22222
     2001.08693       -10.46791         6.52473
     2001.08966       -11.70598         6.42328
     2001.09240       -10.44807         6.42015
     2001.09514        -7.47358         6.78647
     2001.09788        -5.89385         6.48276
     2001.10062       -19.39140         6.85271
     2001.10335       -17.82528         6.47424
     2001.11157       -21.27600         6.63145
     2001.11431       -19.32205         6.68832
     2001.11704       -23.62509         6.66102
     2001.11978       -20.57506         6.76895
     2001.12252       -19.83064         6.80229
     2001.12526       -22.31801         6.40029
     2001.12799       -24.31736         6.40331
     2001.13073       -30.80904         6.43555
     2001.13347       -24.10688         6.54115
     2001.13621       -32.06850         6.48908
     2001.13895       -14.13399         6.92623
     2001.14168       -12.74426         6.60458
     2001.14442       -13.91437         6.57324
     2001.14716       -14.05216         6.93451
     2001.14990       -11.32065         6.78798
     2001.15264        -4.24799        15.33751
     2001.18001        12.92260        25.10132
     2001.18275         2.16791         6.90458
     2001.18549         4.26226         6.84851
     2001.18823         4.47080         6.70896
     2001.19097        -0.20125         6.95406
     2001.19370         5.57950         6.89485
     2001.19644         2.80169         6.79101
     2001.19918         5.21934         6.61392
     2001.20192         6.84173         6.50690
     2001.20465        -2.96898         6.97104
     2001.20739        -4.49159         6.89741
     2001.21013         3.21049         7.23597
     2001.21287        -4.22514         7.94032
     2001.21561       -15.68914        10.97316
     2001.21834        -7.44179         6.59772
     2001.22108       -14.86572         6.63043
     2001.22382        -9.58581         7.68346
     2001.22656        -8.09212         7.05116
     2001.22930        -4.00705         7.22376
     2001.23203        -6.67899         7.27184
     2001.23477        -5.38394         8.48307
     2001.23751        -6.37890         8.04959
     2001.24025        -1.38201         6.82032
     2001.24298        -3.08424         7.09226
     2001.24572        -2.85034        10.49804
     2001.24846        -3.36697         6.84477
     2001.25120         1.33345         7.41276
     2001.25394        -6.09980         6.85038
     2001.25667        -5.20460         6.77734
     2001.25941         0.34079         6.97509
     2001.26215         6.62851         7.01563
     2001.26489         8.25059         6.88408
     2001.26762         2.35902         7.47452
     2001.27036         7.75263         7.12921
     2001.27310         3.41618        17.14927
     2001.27584         7.06398        10.95077
     2001.27858        10.48451         7.99046
     2001.28131        -3.41731         7.37618
     2001.28405         7.90127         6.81547
     2001.28679         6.66568         6.75419
     2001.28953         6.51044         6.79348
     2001.29227        -3.43505         6.89485
     2001.29500        -5.50490         7.45145
     2001.29774         8.39095         7.04228
     2001.30048         6.23008         6.96910
     2001.30322         4.07814         6.63198
     2001.30595         4.09244         8.83415
     2001.30869         4.64208         6.94664
     2001.31143         8.67512         6.59030
     2001.31417         4.26339         6.67758
     2001.31691         6.43816         6.59393
     2001.31964         0.69536         6.54784
     2001.32238         5.20358         7.01333
     2001.32512         2.76958         6.55613
     2001.32786        -0.89067         6.71444
     2001.33060         2.80750         6.71399
     2001.33333         0.48722         6.60439
     2001.33607        -3.34367         6.52784
     2001.33881        -1.62503         6.49018
     2001.34155         1.68973         6.48425
     2001.34428        -3.15753         6.49837
     2001.34702        -1.01364         6.71687
     2001.34976         4.32160         6.88365
     2001.35250         0.24399         7.26955
     2001.35524         8.42806         6.51791
     2001.35797         6.27651         6.64153
     2001.36071        11.09452         7.29821
     2001.36345         6.60263         6.78616
     2001.36619         6.46818         6.41664
     2001.36893         1.23995         6.62049
     2001.37166        -0.59800         6.61608
     2001.37440        -7.61925         6.86838
     2001.37714         4.47809         6.56937
     2001.37988         4.30477         6.53888
     2001.38261         2.47540         6.53298
     2001.38535        -0.15038         6.50153
     2001.38809         8.12593         6.67865
     2001.39083         4.82313         6.52508
     2001.39357        -0.59003         6.60826
     2001.39630         8.13718         6.59919
     2001.39904        12.65998         6.39988
     2001.40178         5.38356         6.46044
     2001.40452        10.49445         6.96040
     2001.40726         1.08872         6.46619
     2001.40999        -1.30269         6.51446
     2001.41273         6.76890         6.52278
     2001.41547         4.82520         6.49294
     2001.41821         5.83444         6.65836
     2001.42094         5.55689         6.55709
     2001.42368         3.96361         6.66755
     2001.42642         2.65164         6.60749
     2001.42916        -2.98281         6.78951
     2001.43190        -3.36005         6.57926
     2001.43463         8.86591         6.53655
     2001.43737         4.85186         6.75522
     2001.44011         7.38134         6.65486
     2001.44285        12.03959         6.50557
     2001.44559         5.49425         6.46730
     2001.44832         7.11989         6.57887
     2001.45106         4.49818         6.51889
     2001.45380         4.04199         6.59200
     2001.45654        -0.80089         6.57468
     2001.45927         3.72488         6.56716
     2001.46201         1.62340         7.54473
     2001.46475         8.35633         6.59581
     2001.46749        12.91532         6.75212
     2001.47023        11.37753         6.64016
     2001.47296         5.61098         6.45793
     2001.47570        11.23101         6.49093
     2001.47844        10.40501         6.48060
     2001.48665         5.95315         6.60403
     2001.48939         5.20705         6.42775
     2001.49213        10.87123         6.43939
     2001.49487        11.10223         6.66773
     2001.49760         9.40637         6.52944
     2001.50034        12.76522         6.55194
     2001.50308         8.02218         6.59161
     2001.50582         1.08641         6.46252
     2001.50856         8.48775         6.49010
     2001.51129         4.30429         6.60161
     2001.51403        16.42253         6.75891
     2001.51677         9.82287         6.49160
     2001.51951        13.90872         6.60731
     2001.52225        13.10303         6.81443
     2001.52498        11.81299         6.78825
     2001.52772         8.69319         6.75931
     2001.53046        11.73644         6.92670
     2001.53320        19.90143         6.62349
     2001.53593        14.61291         6.48868
     2001.53867        15.47367         6.54836
     2001.54141         9.40731         6.56417
     2001.54415        10.61151         6.59727
     2001.54689        17.82555         6.50981
     2001.54962        22.56535         6.70285
     2001.55236        20.94336         6.63104
     2001.55510        11.34852         6.50444
     2001.55784         5.47675         6.61052
     2001.56057         6.74318         6.62225
     2001.56331         4.45302         6.59640
     2001.56605        15.87667         6.67221
     2001.56879         5.81972         7.04475
     2001.57153        14.23431         6.98460
     2001.57426         1.44574         6.81731
     2001.57700        12.89785         6.95358
     2001.57974         4.04323         7.47653
     2001.58248        -0.13465         6.73823
     2001.58522         9.61770         6.62807
     2001.58795        12.59015         6.77329
     2001.59069        13.96191         6.78975
     2001.59343        19.93868         7.06620
     2001.59617         3.21903         7.17556
     2001.59890        11.53539         7.08032
     2001.60164        16.12590         6.92506
     2001.60438        14.01297         6.88268
     2001.60712         3.85820         6.85390
     2001.60986        13.73551         6.62502
     2001.61259         9.68337         6.67614
     2001.61533         5.15429         6.64069
     2001.61807         8.12556         6.67670
     2001.62081         3.14558         6.74090
     2001.62355         3.93615         6.57843
     2001.62628         4.28916         8.08629
     2001.63176        14.40304         6.56485
     2001.63450        14.98108         6.73917
     2001.63723         8.74777         7.07598
     2001.63997        13.99828         6.85586
     2001.64271         5.22126         6.80663
     2001.64545         3.59664         6.65428
     2001.64819        11.96878         6.62875
     2001.65092        13.47373         6.76228
     2001.65366        13.05736         6.82945
     2001.65640         9.60460         6.86016
     2001.65914         7.91698         7.21123
     2001.66188        17.72785         7.47295
     2001.66461         6.47705         7.42416
     2001.66735         6.46269         6.86977
     2001.67009         6.51995         7.11038
     2001.67283         7.25835         6.95400
     2001.67556         6.94160         6.85870
     2001.67830         7.98334         7.07985
     2001.68104         4.71778         6.65453
     2001.68378        -0.95612         6.68912
     2001.68652         5.47477         6.65346
     2001.68925         1.22051         6.71616
     2001.69199         2.53084         6.48506
     2001.69473         2.88051         7.19255
     2001.69747         9.21276         7.36930
     2001.70021        12.31615         7.41699
     2001.70294         8.67417         6.39688
     2001.70568        11.42721         6.71653
     2001.70842        12.07149         6.86549
     2001.71116        17.02999         7.22182
     2001.71389        10.21330         7.02763
     2001.71663         6.43137         6.54593
     2001.71937         6.19929         6.72807
     2001.72211         3.61924         6.68117
     2001.72485         3.92098         7.09571
     2001.72758         4.55287         8.43318
     2001.73032         8.61198         6.55468
     2001.73306         6.12730         6.88360
     2001.73580        -1.97787         7.53838
     2001.73854        -2.99373         7.07283
     2001.74127        -7.08020         7.42929
     2001.74401         2.97200         7.58824
     2001.74675         6.33033         7.57224
     2001.74949         5.41851         9.22761
     2001.75222        10.64155         9.19104
     2001.75496         5.46516         9.42001
     2001.75770         1.32184         7.99070
     2001.76044         6.92612         6.75485
     2001.76318        -1.40279         6.60090
     2001.76591         3.92608         7.44427
     2001.76865        -2.92675         7.94471
     2001.77139         0.49951         7.67821
     2001.77413        13.28813         6.81310
     2001.77687         0.34609         7.64204
     2001.77960        -0.72766         7.03964
     2001.78234         1.10607         6.68186
     2001.78508        -0.71861         7.03690
     2001.78782         0.39663         6.94653
     2001.79055         4.62594         6.81378
     2001.79329         6.83399         6.74683
     2001.79603         2.11674         6.57605
     2001.79877         6.73917         8.05396
     2001.80151        -5.15028         7.33620
     2001.80424        -2.64033         7.69836
     2001.80698        -7.64253         9.51166
     2001.80972        -1.39780         7.18877
     2001.81246        -4.66681         6.90598
     2001.81520        -7.81715         6.99010
     2001.81793         2.13713         7.21196
     2001.82067         3.72628         7.33622
     2001.82341         4.79362        10.73460
     2001.82615         6.32719         7.31964
     2001.82888         3.33540         7.03687
     2001.83162        -2.89991         6.90597
     2001.83436        -4.70466         9.57291
     2001.83710        -9.41739         6.71982
     2001.83984        -2.26754         6.66346
     2001.84257         0.06737         7.35147
     2001.84531        -4.35119         7.76893
     2001.84805        -2.42704        15.76900
     2001.85079         8.61882         6.81383
     2001.85352         6.57971         6.82178
     2001.85626         1.83392         6.73267
     2001.85900         4.38748         6.73878
     2001.86174        -5.46632         7.74554
     2001.86448        -2.65639         6.55878
     2001.86721        -6.28742         6.94491
     2001.86995        -1.87233         6.65808
     2001.87269         6.91464         7.06074
     2001.87543         6.51419         7.08032
     2001.87817        -2.70256         6.94291
     2001.88090        -3.76365         7.45455
     2001.88364         2.55317         7.19368
     2001.88638         0.52875         7.05562
     2001.88912        -4.48605         7.25345
     2001.89185        -5.50165         6.73670
     2001.89459         0.79324         7.18063
     2001.89733        -6.93257         9.29181
     2001.90007        -5.02921         6.86947
     2001.90281         4.17804         6.87372
     2001.90554         3.09994         6.69476
     2001.90828        -3.38824         6.56933
     2001.91102         5.37393         7.14498
     2001.91376         3.18929         6.79091
     2001.91650         0.57398         6.55702
     2001.91923        -0.40154         6.76475
     2001.92197        -8.79610         6.83020
     2001.92471       -10.19847         6.96417
     2001.92745        -9.96249         7.35440
     2001.93018        -5.41352         7.11184
     2001.93292       -11.54391         7.49369
     2001.93566        -9.36201         6.60827
     2001.93840        -7.94899         6.45258
     2001.94114        -0.88327         6.79630
     2001.94387        -3.54136         6.98528
     2001.94661        -3.38274         7.79023
     2001.94935        -0.76313         6.58407
     2001.95209        -0.24873         6.74558
     2001.95483        -6.35615         6.71986
     2001.95756        -6.51232         6.67872
     2001.96030        -0.68191         7.49536
     2001.96304         2.71092         6.81240
     2001.96578        -0.78030         6.68603
     2001.96851         0.30252         6.76281
     2001.97125        -1.68982         7.32730
     2001.97399         7.02071         6.74085
     2001.97673         7.37975         6.62750
     2001.97947         7.05366         8.71285
     2001.98220        10.29936         6.51228
     2001.98494         4.52439         6.88716
     2001.98768         1.41286         7.01681
     2001.99042         4.41754         6.61497
     2001.99316         6.20167         6.91368
     2001.99589         0.76978         7.48810
     2001.99863         0.90806         7.82996
     2002.00137         2.77170         6.89563
     2002.00411        -3.96971         7.11178
     2002.00684        -4.39192         7.00787
     2002.00958         3.18982         7.33996
     2002.01232         2.81765         6.70343
     2002.01506        -4.38192         6.82215
     2002.01780        -3.21462         7.35243
     2002.02053         3.49336         7.36360
     2002.02327        -0.21038         7.13538
     2002.02601        -2.25856         7.78380
     2002.02875         4.88584         7.81918
     2002.03149         6.77892         7.51340
     2002.03422         0.79561         6.81630
     2002.03696         3.05951         7.60561
     2002.03970         4.30964         7.02827
     2002.04244         6.25538         6.76252
     2002.04517         3.36319         6.93049
     2002.04791         4.23346         6.69800
     2002.05065         2.47530         7.64147
     2002.05339        -2.18173         6.62558
     2002.05613        -4.99942         6.61415
     2002.05886       -10.05873         6.47454
     2002.06160        -9.02069         6.76413
     2002.06434       -22.98541         6.69275
     2002.06708       -14.87091         7.70097
     2002.06982       -25.27423         6.65476
     2002.07255       -21.90123         6.94655
     2002.07529       -27.66974         6.84479
     2002.07803       -19.59035         6.54845
     2002.08077       -25.38150         6.55757
     2002.08350       -26.35855         6.50143
     2002.08624       -28.89831         7.71764
     2002.08898       -18.62711         7.96358
     2002.09172       -20.99833         6.46757
     2002.09446       -13.48253         6.67568
     2002.09719       -15.70704         7.50837
     2002.09993       -25.96685         7.23513
     2002.10267       -31.91323         6.74271
     2002.10541       -32.38758         7.04569
     2002.10815       -36.50465         6.85657
     2002.11636       -30.22250         6.77145
     2002.12457       -36.30477         7.01010
     2002.12731       -29.24946         6.63252
     2002.13005       -16.14062         6.99421
     2002.13279       -18.84024         6.83504
     2002.13552       -23.01022         6.86694
     2002.13826       -23.09344         6.64930
     2002.14100       -22.63518         7.04847
     2002.14374       -26.80828         7.29907
     2002.14648       -22.27340         6.68912
     2002.14921       -19.55554         6.71601
     2002.15195       -18.96912         7.11735
     2002.15469       -26.67631         7.38216
     2002.17112       -14.10804         6.61829
     2002.17385        11.67618         7.06603
     2002.17659        -4.69631         7.48386
     2002.17933        -1.41515         7.02159
     2002.18207         1.33990         6.93741
     2002.18480         6.64226         6.95118
     2002.18754        -1.82456         7.32606
     2002.19028         7.36637         6.75367
     2002.19302         1.88791         6.54842
     2002.19576         5.21906         6.51172
     2002.19849        -1.72173         6.36866
     2002.20123         2.60919         6.53565
     2002.20397        -3.69815         6.62618
     2002.20671         1.60452         6.53947
     2002.20945         5.47617         6.94350
     2002.21218        -0.91663         7.08944
     2002.21492        -7.41722         6.61387
     2002.21766        -2.39780         6.51349
     2002.22040        -6.75447         6.73781
     2002.22313        -5.24367         6.82908
     2002.22587        -4.60875         9.10138
     2002.22861        -7.90407         6.67987
     2002.23135        -8.35123         6.55857
     2002.23409        -9.96772         6.48714
     2002.23682        -9.23265         6.66404
     2002.23956        -3.16166         6.54352
     2002.24230         5.36690         7.13870
     2002.24504         0.92093         6.78950
     2002.24778        -0.67030         6.93303
     2002.25051        -8.89899         6.61458
     2002.25325        -6.54019         7.20682
     2002.25599       -11.01866         6.55315
     2002.25873       -16.35479         7.15007
     2002.26146       -16.24229         6.68626
     2002.26420       -11.00186         6.52451
     2002.26694       -21.58138        12.98634
     2002.28337        -8.61136         7.05148
     2002.28611       -17.11216         6.58779
     2002.28884       -11.38811         6.54090
     2002.29158       -11.59594         8.44801
     2002.29432       -17.20644         9.17413
     2002.29706        -5.26024         8.98947
     2002.29979        -2.59360         7.95911
     2002.30253        -3.13170         6.46380
     2002.30527        -8.37537         6.61195
     2002.30801        -3.68373         7.06077
     2002.31075         6.91991         6.36125
     2002.31348         4.35598         6.61990
     2002.31622         7.42859         6.30339
     2002.31896         3.82872         6.33719
     2002.32170         4.97541         6.48778
     2002.32444         5.82794         6.48440
     2002.32717         2.39383         6.48880
     2002.32991         6.91833         6.46848
     2002.33265         5.45272         6.32971
     2002.33539         7.18665         6.36901
     2002.33812         6.70616         6.28526
     2002.34086         3.14882         6.33617
     2002.34360         4.98825         6.66111
     2002.34634         4.24773         6.59646
     2002.34908         6.45895         6.39445
     2002.35181         4.73049         6.27516
     2002.35455        -2.70283         6.33156
     2002.35729         6.34730         7.36789
     2002.36003         5.89337         6.53741
     2002.36277         1.53742         6.45388
     2002.36550         1.23048         6.89836
     2002.36824         7.08096         6.32258
     2002.37098         5.86542         6.33917
     2002.37372         3.76705         6.45538
     2002.37645         5.16551         6.43137
     2002.37919         1.96534         6.43409
     2002.38467         1.78468         6.30724
     2002.38741         0.11687         6.59851
     2002.39014         5.48947         6.86108
     2002.39288        -1.96394         6.51600
     2002.39562        10.29208         6.46577
     2002.39836         9.22844         6.28758
     2002.40110         5.34450         6.92840
     2002.40383         3.74873         6.34209
     2002.40657         9.38349         6.35352
     2002.40931         3.90846         6.45562
     2002.41205         3.88740         6.42451
     2002.41478         8.22466         6.53334
     2002.41752         8.31406         6.49249
     2002.42026         9.96099         6.34543
     2002.42300        13.36841         6.58655
     2002.42574         9.07196         6.51803
     2002.42847        13.29587         6.52675
     2002.43121         4.32387         6.74491
     2002.43395         0.96481         6.54369
     2002.43669         0.28067         6.54056
     2002.43943         4.60424         6.63393
     2002.44216         0.24851         6.44743
     2002.44490        11.50921         6.45379
     2002.44764         8.11071         6.59677
     2002.45038         9.65060         6.63166
     2002.45311         9.18779         6.46942
     2002.45585         1.90677         6.40542
     2002.45859         1.46519         6.40705
     2002.46133         2.65877         6.45024
     2002.46407       -16.21203         6.76181
     2002.46680        -5.56046         6.47845
     2002.46954        -7.63439         6.64897
     2002.47228       -12.93316         6.54994
     2002.47502        -9.03815         6.45651
     2002.47775         1.93598         6.35752
     2002.48049         6.54321         6.31878
     2002.48323        10.25410         6.66716
     2002.48597         7.14746         6.71512
     2002.48871         5.63194         6.64745
     2002.49144         8.17103         6.45549
     2002.49418         8.11371         6.60610
     2002.49692         1.68462         6.55064
     2002.49966         2.97687         6.47710
     2002.50240        -3.47518         6.60331
     2002.50513         2.73361         6.57786
     2002.50787         4.01432         6.45046
     2002.51061         7.63716         6.44411
     2002.51335         4.87899         6.40878
     2002.51608         8.92472         6.34802
     2002.52156         7.63187         6.63215
     2002.52430         6.86307         6.37079
     2002.52704         5.93513         6.71943
     2002.52977        13.89630         6.40085
     2002.53251         8.40516         6.39115
     2002.53525         8.09250         8.24476
     2002.54073         4.44102         6.44404
     2002.54346         3.32137         6.82885
     2002.54620         7.27127         6.73356
     2002.54894         1.78495         6.32520
     2002.55168        -1.67430         6.63200
     2002.55441         5.55720         6.40320
     2002.55715        10.59097         6.59230
     2002.55989         6.66148         6.46461
     2002.56263         4.17981         6.42663
     2002.56537         9.29917         6.69223
     2002.56810        10.82928         6.34808
     2002.57084        10.23007         6.75710
     2002.57358        12.70809         6.45660
     2002.57632        11.05221         6.64253
     2002.57906        13.32888         6.59265
     2002.58179         9.95677         6.70386
     2002.58453        12.47656         6.52629
     2002.58727        -3.41276         6.88184
     2002.59001         9.93583         6.83877
     2002.59274        10.18703         6.38738
     2002.59548        -7.18624         6.41870
     2002.59822        12.87419         6.59675
     2002.60096         8.28969         6.34682
     2002.60370         2.84659         6.60187
     2002.60643         8.23836         6.44491
     2002.60917         1.99976         6.98295
     2002.61465         7.03148         6.54729
     2002.61739        11.72853         6.51694
     2002.62012        16.83525         6.62965
     2002.62286        -0.24921         6.55215
     2002.62560         3.77615         9.51385
     2002.62834         1.34047         6.52258
     2002.63107         2.90599         6.86858
     2002.63381        -1.35689         6.55944
     2002.63655         6.50992         6.79753
     2002.63929         8.69659         6.37555
     2002.64203         6.97804         6.44514
     2002.64476        10.76328         6.47324
     2002.64750         8.01164         6.58958
     2002.65024        -1.59714         7.02939
     2002.65298         9.90027         6.60435
     2002.65572        12.12148         6.48234
     2002.65845         8.47289         6.57992
     2002.66119         6.05853         6.59770
     2002.66393        10.49959         6.96298
     2002.66667        12.53451         6.41378
     2002.66940         9.11537         6.37301
     2002.67214         0.62397         6.58696
     2002.67488         3.80530         7.47944
     2002.67762        16.60185         6.47647
     2002.68036         4.59991         6.68840
     2002.68309         5.91092         7.39316
     2002.68583         1.47628         6.57034
     2002.68857        -0.51288         6.60544
     2002.69678        17.09663         6.45649
     2002.69952        14.81476         6.45861
     2002.70226        10.33905         6.60707
     2002.70500        17.49605         6.53738
     2002.70773         8.68726         6.51557
     2002.71047         3.35408         6.61494
     2002.71321         3.72582         6.75775
     2002.71595         1.25035         6.67749
     2002.71869         5.45542         6.48260
     2002.72142         1.21824         6.82832
     2002.72416         3.64410         6.48960
     2002.72690         5.48280         6.29747
     2002.72964         9.33976         6.52071
     2002.73238         7.71174         6.44391
     2002.73511         7.32233         6.52983
     2002.73785         8.52691         6.77033
     2002.74059        10.98636         6.61926
     2002.74606         5.37000         7.15565
     2002.74880         4.22962         9.42341
     2002.75154         1.26536         6.93719
     2002.75428         3.45379         7.64133
     2002.75702        -0.54977         8.16359
     2002.75975         7.98036         7.18788
     2002.76523         5.33356         8.66665
     2002.76797         2.89174         7.13073
     2002.77070         5.51910         6.80624
     2002.77344        11.67232         6.99508
     2002.77618         9.44726         6.97421
     2002.77892         7.74033         6.91239
     2002.78166         5.47651         6.78492
     2002.78439        -0.69597         7.65607
     2002.78713         3.11338         6.95787
     2002.78987         6.92693         8.02093
     2002.79261         3.03222         6.91033
     2002.79535         5.23826         6.84135
     2002.79808         4.33713         6.67756
     2002.80082        -1.63887         6.69386
     2002.80356         3.86677         6.77239
     2002.80630         0.31588         6.66577
     2002.80903         8.20374         6.57786
     2002.81177        -0.14626         8.56161
     2002.81451        10.49834         7.03109
     2002.81725         6.76009         6.94880
     2002.81999         0.76339         9.32146
     2002.82272         3.35532         6.74954
     2002.82546         2.71971         6.52360
     2002.82820         2.84080         6.68298
     2002.83094         0.09206         6.68712
     2002.83368        -0.93894         6.46823
     2002.83641        -5.72524         7.94745
     2002.83915        10.40023         7.43409
     2002.84189        10.32915         6.93357
     2002.84463         9.78876         6.83293
     2002.84736         6.27864         7.28833
     2002.85010         6.43289         6.69593
     2002.85284         8.02440         6.67754
     2002.85558         6.54627         6.74921
     2002.85832         2.72839         7.08842
     2002.86105         7.32137         7.24310
     2002.86379         4.21755         7.14287
     2002.86653         7.50582         6.89122
     2002.86927         3.18986         6.79950
     2002.87201         6.58415         6.88970
     2002.87474        -0.69990         6.83367
     2002.87748         3.00276         6.78191
     2002.88022        -0.69473         6.99666
     2002.88296         3.80484         6.64135
     2002.88569         4.51073         6.99097
     2002.88843         7.14768         8.34678
     2002.89117        -0.04073         6.78124
     2002.89391         0.43960         6.67597
     2002.89665        -0.59134         6.81850
     2002.89938         1.88448         6.53035
     2002.90212        -0.35329         6.89560
     2002.90486        -1.08602         6.67622
     2002.90760        -5.43444         6.71736
     2002.91034        -0.07430         6.43299
     2002.91307         2.48577         6.61869
     2002.91581        -5.23922         6.44576
     2002.91855        -7.89712         6.55583
     2002.92129       -13.31719         6.54589
     2002.92402        -0.18068         7.07068
     2002.92676        -3.82727         6.71582
     2002.92950        -5.13209         7.00426
     2002.93224         4.45145         6.95737
     2002.93498         2.84217         7.00166
     2002.93771        -8.09676         6.58568
     2002.94045        -5.20380         6.73118
     2002.94319         0.30869         7.03191
     2002.94593        -6.20172         6.76489
     2002.94867        -7.56893         6.73425
     2002.95140        -0.42117         6.98587
     2002.95414         8.79216         7.36161
     2002.95688         1.09597         7.03770
     2002.95962        -3.75422         6.74886
     2002.96235        -9.03476         7.22717
     2002.96509         4.57376         9.29222
     2002.96783         1.42032         7.23513
     2002.97057        -2.03004         7.26344
     2002.97331        -0.74792         6.87376
     2002.97604        -1.04492         7.43045
     2002.97878        -7.91050         7.35215
     2002.98152       -12.20666         7.09471
     2002.98426       -18.64610         7.08629
     2002.98700       -14.58432         8.64463
     2002.98973       -12.93569         6.80289
     2002.99247       -13.14356         8.07339
     2002.99521       -10.99810         7.66347
     2002.99795       -18.19406         6.81455
     2003.00068        -6.67835         6.73775
     2003.00342       -12.17991         6.96965
     2003.00616        -8.26149         7.31957
     2003.00890        -5.81798         6.74878
     2003.01164        -6.76963         7.34420
     2003.01437       -11.73811         6.76960
     2003.01711        -1.47396         6.98664
     2003.01985        -4.65826         6.67344
     2003.02259         3.59841         6.65464
     2003.02533        -3.47796         7.05903
     2003.02806        -2.64512         6.56888
     2003.03080        -2.47138         6.52691
     2003.03354        -5.16213         6.64126
     2003.03628        -7.87284         6.64620
     2003.03901        -5.78173         6.85408
     2003.04175        -6.26464         6.62178
     2003.04449        -9.04276         6.64512
     2003.04723        -1.06326         6.75287
     2003.04997        -3.52329         7.37705
     2003.05270        -1.62727         6.67492
     2003.05544       -10.27687         6.85831
     2003.05818       -10.73897         6.56997
     2003.06092        -8.37524         6.80305
     2003.06366        -5.26152         6.86352
     2003.06639         4.65446         7.09028
     2003.07187        -6.82025         6.70829
     2003.07461        -4.93979         6.92893
     2003.07734         1.33025         7.05966
     2003.08008        -8.94149         7.54774
     2003.08282       -13.51460         7.19725
     2003.08556        -9.37954         7.17621
     2003.08830         2.06665         8.69078
     2003.09103        -8.09312         6.99869
     2003.09377        -6.95049         7.89252
     2003.09651       -14.63145         6.80429
     2003.09925        -6.66364         7.07062
     2003.10198        -7.54179         7.11602
     2003.10472        -3.26020         7.59639
     2003.10746        -6.60620         7.37408
     2003.11020       -11.23477         7.26054
     2003.11294       -14.92926         7.10369
     2003.11567        -8.09594         6.75320
     2003.11841        -3.50303         6.97984
     2003.12115        10.04057         7.93349
     2003.12389         4.44414         7.45108
     2003.12663        -8.81289         6.81459
     2003.12936       -10.91961         6.80845
     2003.13210        -6.33504         6.80150
     2003.13484        -8.39010         6.64481
     2003.13758        -2.12596         6.52197
     2003.14031        -5.43078         6.51030
     2003.14305        -1.56686         6.86762
     2003.14579        -0.40784         6.63060
     2003.14853        -7.29818         6.43328
     2003.15127        -5.69410         6.54413
     2003.15400        -2.67223         6.85107
     2003.15674        -0.91440         9.12865
     2003.15948         3.06528         6.81182
     2003.16222        -2.30877         6.78843
     2003.16496         2.79817         6.62675
     2003.16769        -4.02252         7.10004
     2003.17043         4.26678         7.85985
     2003.17317         0.58790         6.78493
     2003.17591         8.55864         7.23890
     2003.17864        -6.52125         6.65269
     2003.18138        -6.38749         6.81946
     2003.18412        -8.83173         6.90889
     2003.18686        -3.93770         7.21015
     2003.18960       -12.10351         6.49732
     2003.19233       -10.54989         6.45093
     2003.19507        -7.90761         6.88817
     2003.19781        -4.00372         7.39198
     2003.20055        -3.13783         6.93127
     2003.20329         1.68799         7.22737
     2003.20602         8.30100         7.30773
     2003.20876         3.99567         6.75670
     2003.21150        -7.89400         6.43626
     2003.21424         1.90590         7.58749
     2003.21697        -4.79876         6.88827
     2003.21971         4.40977         6.59358
     2003.22245         0.85709         6.52595
     2003.22519        -8.27436         6.60911
     2003.22793        -3.93453         6.67131
     2003.23066         1.61386         6.50937
     2003.23340        -3.33697         8.32953
     2003.23614         1.87694         7.23994
     2003.23888         3.05181         8.55814
     2003.24162         0.63764         7.10978
     2003.24435        -0.56581         8.10327
     2003.24709         1.16914         6.70668
     2003.24983         3.09285         6.80416
     2003.26626        -8.76767         9.75520
     2003.26899         0.74935         7.09521
     2003.27173        -2.79752         6.91439
     2003.27447         2.29176         6.40434
     2003.27721         3.78688         6.34027
     2003.27995         2.42196         6.37742
     2003.28268        -0.77993         6.65692
     2003.28542         0.52569         6.33693
     2003.28816         9.25404         6.47143
     2003.29090         1.12645         6.60208
     2003.29363         0.42132         6.71048
     2003.29637         1.20951         6.29383
     2003.29911         4.35131         6.29690
     2003.30185         5.22246         6.54953
     2003.30459         0.29758         6.79089
     2003.30732         4.86537         6.60440
     2003.31006         8.80688         7.28971
     2003.31280        13.91892         6.76651
     2003.31554         2.49709         6.52886
     2003.31828         2.77848         6.59085
     2003.32101         1.26955         7.34388
     2003.32375        -0.50742         6.85453
     2003.32649         1.02304         8.07873
     2003.32923        12.94300         6.83959
     2003.33196        16.80697         6.49926
     2003.33470        11.79275         6.35752
     2003.33744         4.34425         6.35932
     2003.34018         0.67935         6.32748
     2003.34292        -1.33446         6.43106
     2003.34565        -3.63087         6.82983
     2003.34839        10.66582         6.66841
     2003.35113        -5.52350         6.68956
     2003.35387         1.81375         6.75847
     2003.35661         4.55206         6.59569
     2003.35934         3.20479         6.22161
     2003.36208         4.12016         6.39577
     2003.36482         5.18155         6.42261
     2003.36756        -3.02286         6.54668
     2003.37029         4.15066         6.33680
     2003.37303        -0.59133         6.31995
     2003.37577         4.61650         6.28697
     2003.37851        -2.46236         6.31092
     2003.38125         9.18627         6.43563
     2003.38398         2.31246         6.59476
     2003.38672        -0.57179         6.31508
     2003.38946         7.07344         6.38897
     2003.39220         0.70521         6.50466
     2003.39493         5.21026         6.31625
     2003.39767         0.55405         6.32049
     2003.40041         2.33058         6.49434
     2003.40315         8.59346         6.57247
     2003.40589        -4.48004         7.78881
     2003.40862         7.20265         6.57876
     2003.41136        14.07747         6.33140
     2003.41410         5.15271         6.33771
     2003.41684        13.13690         7.42843
     2003.41958         2.79873         6.58719
     2003.42231         7.25045         6.55515
     2003.42505        12.35710         6.40323
     2003.42779        13.55898         6.65730
     2003.43053        -1.49670         6.65409
     2003.43326         8.96214         6.65428
     2003.43600        11.09409         6.47416
     2003.43874         4.29606         6.37921
     2003.44148         3.96166         6.27865
     2003.44422         4.80291         6.43332
     2003.44695         2.41103         6.43993
     2003.44969        -0.56806         6.82905
     2003.45243         4.48746         6.59331
     2003.45517        -0.82012         6.80612
     2003.45791         3.70145         7.49924
     2003.46064        -7.97894         7.87229
     2003.46338        -3.32824         6.47640
     2003.46612        -2.02724         6.35270
     2003.46886         0.18962         6.60103
     2003.47159         9.53855         6.57014
     2003.47433         7.17443         6.31384
     2003.47707         7.70153         6.89303
     2003.47981        10.33247         6.47018
     2003.48255         3.56374         6.41816
     2003.48528         9.29346         6.52828
     2003.48802        11.61421         6.90626
     2003.49076         6.65824         6.40155
     2003.49350        12.75594         6.48902
     2003.49624        -0.41096         8.02969
     2003.49897         3.76327        30.34835
     2003.50171         3.35652         6.52386
     2003.50445         9.23946         6.61058
     2003.50719         9.60943         6.66670
     2003.50992         0.24801         6.38562
     2003.51540         8.41218         6.39721
     2003.51814        11.26590         6.29365
     2003.52088         5.93588         6.54793
     2003.52361         2.62030         8.44060
     2003.52635        12.81118         6.97681
     2003.52909         7.61997         6.41208
     2003.53183         0.92495         6.51398
     2003.53457         6.23903         6.68666
     2003.53730         2.35720         7.63364
     2003.54004         6.96609         6.68357
     2003.54278         6.72204         6.37528
     2003.54552         7.08189         6.45683
     2003.54825         0.77000         6.60876
     2003.55099         1.31163         6.66456
     2003.55373         1.87325         6.74999
     2003.55647        -1.07974         6.34357
     2003.55921         5.83085         6.25358
     2003.56194        14.03231         6.64727
     2003.56468         7.99023         7.38530
     2003.56742        -2.10929         6.69591
     2003.57016        -1.93273         7.09067
     2003.57290        -0.23560         7.35117
     2003.57563        -2.19472         6.61502
     2003.57837        -2.79514         6.79115
     2003.58111        -1.09206         7.07522
     2003.58385        -3.38507         6.60053
     2003.58658         9.09243         6.67347
     2003.59206         6.00229         6.24173
     2003.59480        12.85334         6.70930
     2003.59754         5.62198         7.05922
     2003.60027        11.90879         6.44890
     2003.60301         3.96054         6.27936
     2003.60575         9.28525         6.24710
     2003.60849        -2.04510         6.31781
     2003.61123        -0.30784         6.35976
     2003.61396        -4.41591         6.30598
     2003.61670        -7.20198         6.23078
     2003.61944        -0.40892         6.21714
     2003.62218        -0.35237         6.28402
     2003.62491         6.01205         6.40195
     2003.62765         9.94748        10.08770
     2003.63039         0.87480         6.39420
     2003.63313         1.49501         6.23371
     2003.63587        -2.74767         7.00585
     2003.63860         5.44586         6.72167
     2003.64134        16.50552         6.62773
     2003.64408         6.19130         6.40045
     2003.64682        13.53495         6.23504
     2003.64956         5.82427         6.26567
     2003.65229         7.03345         6.34402
     2003.65503         5.20400         6.38584
     2003.65777         7.44706         6.45525
     2003.66051         5.01789         6.28082
     2003.66324         2.56469         6.26031
     2003.66598        11.38417         6.49346
     2003.66872         3.97791         6.39677
     2003.67146         5.98768         6.32375
     2003.67420         1.98187         6.44217
     2003.67693         3.39173         6.29656
     2003.67967        10.06616         6.28557
     2003.68241         0.99791         6.24334
     2003.68515         4.66374         6.30998
     2003.68789        -7.03377         6.66058
     2003.69062        -1.87839         6.40368
     2003.69336        -3.04943         6.34193
     2003.69610         6.96102         6.31531
     2003.69884         2.63348         6.47407
     2003.70157        -0.37615         6.37336
     2003.70431         2.45320         6.36354
     2003.70705         8.79582         7.61540
     2003.70979         3.59177         7.08644
     2003.71253         0.78036         6.57272
     2003.71526         5.81092         6.82589
     2003.71800         6.90323         6.41990
     2003.72074        12.04045         6.52947
     2003.72348        10.24137         6.65652
     2003.72621         8.74477         6.64833
     2003.74264         3.15238         6.55009
     2003.74538        -0.04005         6.67521
     2003.74812        -3.91527         6.68822
     2003.75086         5.26044         6.62491
     2003.75359         1.27057         6.85845
     2003.75633        -0.74115         6.57793
     2003.75907        -1.34874         6.49601
     2003.76181        -3.03571         6.64202
     2003.76454        -2.99854         7.07427
     2003.76728       -19.20676         6.59180
     2003.77002        -4.44075         6.54482
     2003.77276        -4.26322         6.49387
     2003.77550        -4.69275         6.39698
     2003.77823        -6.30010         6.43197
     2003.78097        -3.97329         6.52946
     2003.78371         0.02597         7.96727
     2003.78645         4.04989         7.46523
     2003.78919        -2.26370         6.47877
     2003.79192        -2.88502         6.48747
     2003.79466         1.39958         6.46913
     2003.79740         5.89275         6.94576
     2003.80014        -0.57539         6.60402
     2003.80287        -8.78542         7.15198
     2003.80561       -11.10632         7.18831
     2003.80835       -11.07826         6.53716
     2003.81109        -1.66426         7.02207
     2003.81383        -6.63725         6.50683
     2003.81656       -16.17337         6.40785
     2003.82204       -21.49363         6.68779
     2003.82478        -6.92914        11.43762
     2003.82752        -9.44901         9.46320
     2003.83025       -13.47016         6.97819
     2003.83299        -9.74655         6.45775
     2003.83573       -10.11493         6.60579
     2003.83847        -5.09637         6.26631
     2003.84120        -1.75196         6.51565
     2003.84394        -2.79453         6.28008
     2003.84668         2.01383         6.33621
     2003.84942        -4.36313         6.27507
     2003.85216         6.56987         6.26477
     2003.85489        -5.96510         6.60724
     2003.85763        -7.91707         8.13391
     2003.86037        -3.67128         7.95523
     2003.86311        -9.41932         6.70906
     2003.86585       -12.69604         7.22828
     2003.86858        -9.18589         7.00267
     2003.87132        -9.30138         7.31323
     2003.87406       -14.44653         6.85966
     2003.87680       -12.47525         7.09500
     2003.87953        -0.76297         6.87366
     2003.88227        -1.93701         6.48992
     2003.88501        -7.36634        10.04274
     2003.88775       -10.52901         6.74271
     2003.89049       -13.03334         7.59771
     2003.89322        -6.40839         6.71375
     2003.89596       -29.20072         6.44586
     2003.89870       -26.94793         6.60560
     2003.90144       -15.63691         6.34585
     2003.90418        -4.09307         6.41287
     2003.90691        -9.71259         6.33245
     2003.90965       -23.88546         6.28745
     2003.91239       -10.37031         7.49265
     2003.91513       -11.36965         6.50238
     2003.91786       -18.51926         6.60161
     2003.92334       -12.90293         6.61237
     2003.92608        -9.02290         7.79614
     2003.92882        -1.28807         6.48167
     2003.93155        -9.38999         6.46123
     2003.93429        -8.81275         6.77711
     2003.93703        -9.50602         6.41881
     2003.93977        -7.41079         7.54489
     2003.94251        -6.79342         7.27507
     2003.94524        -7.34134         6.62422
     2003.94798       -11.90157         6.45732
     2003.95072       -27.73159         7.06804
     2003.95346       -18.24585         6.94948
     2003.95619       -22.05408         6.79995
     2003.95893       -21.13645         6.70830
     2003.96167       -15.69209         6.92718
     2003.96441       -12.98932         6.83683
     2003.96715       -14.42125         6.89203
     2003.96988       -15.48010         6.65630
     2003.97262        -5.40954         6.58405
     2003.97536       -31.62496         6.36363
     2003.97810       -18.77146         6.76580
     2003.98084       -19.14202         6.53096
     2003.98357        -9.79531         6.33198
     2003.98631        -8.56534         6.38756
     2003.98905        -3.19233         6.29431
     2003.99179        -8.94774         6.30378
     2003.99452        -9.06857         6.28058
     2003.99726       -15.60544         6.75087
     2004.00000        -6.63413         6.42865
     2004.00274       -15.11803         6.33838
     2004.00548       -18.13893         6.71687
     2004.00821       -17.18721         6.64185
     2004.01095       -23.49141         6.53562
     2004.01369       -24.25281         6.51508
     2004.01643       -18.05530         6.82070
     2004.01916       -18.59557         6.30873
     2004.02190       -13.05257         6.62095
     2004.02464       -12.42997         6.47078
     2004.02738       -14.40430         7.11957
     2004.03012       -10.16644         6.35254
     2004.03285       -17.88240         6.55278
     2004.03559        -6.57991         6.40774
     2004.03833       -11.64769         6.88649
     2004.04107       -13.96296         6.75708
     2004.04381        -8.94776         6.42888
     2004.04654       -14.61366         6.73127
     2004.04928       -15.26544         6.48487
     2004.05202       -15.51388         6.85165
     2004.05476       -15.10513         6.43364
     2004.05749       -14.21710         8.30464
     2004.06023        -8.97653         7.34329
     2004.06297        -7.97236         6.56535
     2004.06571        -8.34696         7.81756
     2004.06845       -17.91886         6.62295
     2004.07118       -10.97190         7.07570
     2004.07392       -20.88931         6.75027
     2004.07666       -19.16999         6.51633
     2004.07940       -13.30276         6.83989
     2004.08214       -19.45386         6.57301
     2004.08487       -15.91265         6.56407
     2004.08761       -11.04719         6.24436
     2004.09035       -14.70998         6.68815
     2004.09309       -17.47565         6.70469
     2004.09582       -20.77887         6.24121
     2004.09856       -16.11086         6.41113
     2004.10130       -12.14106         6.38208
     2004.10404       -12.98238         6.62382
     2004.10678       -18.19309         6.28749
     2004.10951       -15.55717         6.36377
     2004.11225        -9.24176         7.39464
     2004.11499        -8.26257         6.94488
     2004.11773        -9.60441         6.48564
     2004.12047       -10.25073         6.62603
     2004.12320       -11.83519         6.68029
     2004.12594       -18.23585         6.38141
     2004.12868        -8.24782         6.44082
     2004.13142        -4.46318         6.36816
     2004.13415        -5.62954         6.41622
     2004.13689        -3.06061         6.39150
     2004.13963         2.37980         6.27422
     2004.14237        -6.38286         6.41365
     2004.14511        -8.13753         6.39315
     2004.14784        -5.74932         6.58389
     2004.15058        -8.24581         6.38006
     2004.15332        -3.27167         6.31542
     2004.15606        -6.55776         6.38726
     2004.15880        -1.12789         6.38698
     2004.16153        -7.61510         6.46317
     2004.16427        -3.22648         6.41808
     2004.16701         0.53944         6.43506
     2004.16975         3.19614         6.71106
     2004.17248        -0.57522         6.52337
     2004.17522        -6.42906         6.57355
     2004.17796        -9.83872         7.28708
     2004.18070        -9.02076         6.44525
     2004.18344        -2.82792         6.39075
     2004.18617       -10.43598         7.30524
     2004.18891        -2.47124         6.70786
     2004.19165        -5.27649         6.87063
     2004.19439        -6.30831         6.44495
     2004.19713        -4.22075         6.43883
     2004.19986         0.37700         6.58554
     2004.20260        -2.89635         6.40323
     2004.20534       -13.94794         6.41014
     2004.20808       -19.63557         6.89718
     2004.21081       -13.97610         6.92751
     2004.21355        -4.54114         6.55500
     2004.21629        -5.77589         6.72835
     2004.21903        -3.14745         6.77144
     2004.22177        -7.44598         6.53167
     2004.22450        -3.31056         6.88859
     2004.22724        -2.17595         6.69052
     2004.22998        -2.01529         6.52622
     2004.23272        -5.31696         6.54836
     2004.23546        -1.77728         6.61988
     2004.23819        -7.23528         6.54068
     2004.24093        -9.69354         6.58526
     2004.24367        -7.08002         6.55357
     2004.24641        -8.59535         6.35428
     2004.24914        -6.81555         6.49369
     2004.25188        -2.71091         6.89044
     2004.25462         2.35058         7.48089
     2004.25736         3.08441         6.31972
     2004.26010        10.93998         6.78929
     2004.26283         2.58488         6.54638
     2004.26557         2.59605         6.36289
     2004.26831        -2.08405         6.24593
     2004.27105         0.37940         6.30456
     2004.27379         2.44035         6.19992
     2004.27652         0.85024         6.21742
     2004.27926         1.89025         6.24739
     2004.28200         1.34650         6.34207
     2004.28474         5.56494         6.35944
     2004.28747        -1.11507         6.15443
     2004.29021         4.43833         6.31406
     2004.29295         7.82792         6.18899
     2004.29569        -0.53829         6.24236
     2004.29843         1.45077         6.26419
     2004.30116        -4.52005         6.24351
     2004.30390        -2.76575         6.28054
     2004.30664        -2.05546         6.28470
     2004.30938        -0.92253         6.46651
     2004.31211        -1.78173         6.29092
     2004.31485         4.16000         6.24200
     2004.31759         9.61591         6.21289
     2004.32033        12.30200         6.25684
     2004.32307         5.45587         6.22861
     2004.32580         1.98410         6.19977
     2004.32854         1.82577         6.26217
     2004.33128         3.88015         6.33005
     2004.33402         2.02614         6.26138
     2004.33676       -10.56625         6.50453
     2004.33949        -4.50277         6.45558
     2004.34223         5.38489         6.54404
     2004.34497        10.96496         6.42308
     2004.34771         6.79688         6.35311
     2004.35044         4.40961         6.31306
     2004.35318        -0.50765         6.54313
     2004.35592         7.61714         6.28958
     2004.35866         7.25972         6.31020
     2004.36140         0.49397         6.29884
     2004.36413        -2.22545         6.67484
     2004.36687        -1.50336         6.28405
     2004.36961        -0.26495         6.27175
     2004.37235         4.53653         6.33675
     2004.37509         3.76444         6.33398
     2004.37782         4.76689         6.19378
     2004.38056        -0.36743         6.50293
     2004.38330        -0.03444         6.33233
     2004.38604        -0.55155         6.44685
     2004.38877        -2.14727         6.21591
     2004.39151         4.79849         6.15884
     2004.39425         8.66452         6.15011
     2004.39699         5.58113         6.32507
     2004.39973         7.50349         6.24198
     2004.40246        10.89679         6.35334
     2004.40520         4.21282         6.35782
     2004.40794         7.50362         6.20400
     2004.41068         5.69930         6.19452
     2004.41342         4.14486         6.21327
     2004.41615         8.43854         6.21188
     2004.41889         4.55758         6.21677
     2004.42163         5.66026         6.16211
     2004.42437        -1.36286         6.19476
     2004.42710         1.83390         6.24232
     2004.42984        -2.55156         6.21714
     2004.43258         3.56144         6.32003
     2004.43532         0.28207         6.28021
     2004.43806         5.17594         6.27472
     2004.44079         5.04439         6.26557
     2004.44353         4.28027         6.18251
     2004.44627         4.87443         6.14520
     2004.44901         2.88795         6.24679
     2004.45175         9.38513         6.42602
     2004.45448        11.14698         6.50160
     2004.45722         1.96566         6.29699
     2004.45996         3.77682         6.32968
     2004.46270         1.92038         6.28295
     2004.46543         6.09673         6.20842
     2004.46817         7.24164         6.26936
     2004.47091         3.55694         6.21898
     2004.47365         5.00533         6.29133
     2004.47639         0.65576         6.13973
     2004.47912         4.10816         6.23645
     2004.48186        13.07204         6.34577
     2004.48460         4.49372         6.36062
     2004.48734         1.46820         6.26699
     2004.49008         3.85339         6.27252
     2004.49281        11.95433         6.39515
     2004.49555         7.09815         6.20059
     2004.49829         2.46060         6.28336
     2004.50103        -0.27394         6.22303
     2004.50376         1.63764         6.17763
     2004.50650         7.48881         7.28784
     2004.50924         4.75666         6.22140
     2004.51198         5.21949         6.22213
     2004.51472         6.26714         6.33898
     2004.51745         4.17955         6.22295
     2004.52019         6.81491         6.14339
     2004.52293         0.62877         6.07220
     2004.52567         3.72641         6.17363
     2004.52841         2.33289         6.19240
     2004.53114        -4.07054         6.09483
     2004.53388         0.37633         6.05167
     2004.53662        -0.07304         6.10653
     2004.53936         0.76210         6.53176
     2004.54209         4.70603         6.17883
     2004.54483         4.96694         6.12159
     2004.54757        -0.63489         6.25044
     2004.55031         2.06287         6.26969
     2004.55305         4.94047         6.17134
     2004.55578         2.99240         6.40331
     2004.55852        13.34304         6.80763
     2004.56126        10.27319         6.22613
     2004.56400         2.85510         9.45391
     2004.56674         0.05513         6.34579
     2004.56947         5.53142         8.85029
     2004.57221         4.16585         6.27803
     2004.57495         2.37867         6.26639
     2004.57769         1.80033         6.10360
     2004.58042         2.75067         6.11829
     2004.72827         6.18919         6.22739
     2004.73101         4.24091         6.22366
     2004.73374        -0.94001         6.16703
     2004.73648         4.21730         6.14518
     2004.73922         1.40041         6.13667
     2004.74196         2.87979         6.17766
     2004.74470         8.31434         6.24153
     2004.74743         5.57006         6.16974
     2004.75017         9.52628         6.13821
     2004.75291         8.90349         6.21517
     2004.75565         6.52920         6.28014
     2004.75838         5.95332         6.19439
     2004.76112        -0.42599         6.18540
     2004.76386        -1.28503         6.16319
     2004.76660         7.76440         6.17766
     2004.76934        10.31053         6.32828
     2004.77207         5.01430         6.37475
     2004.77481         3.42538         6.40045
     2004.77755         4.50987         6.39265
     2004.78029         8.76507         6.36443
     2004.78303        16.72278         7.10610
     2004.78576        19.27287         6.51182
     2004.78850        19.78820         6.45302
     2004.79124        12.38273         6.32062
     2004.79398         8.30504         6.18166
     2004.79671        13.13277         6.25512
     2004.79945        12.87561         6.32862
     2004.80219         2.78042         6.43319
     2004.80493         0.75143         6.28679
     2004.80767        -0.01729         6.25131
     2004.81040         0.21217         6.17738
     2004.81314         4.85094         6.17900
     2004.81588        -4.79729         6.35834
     2004.81862        -1.42739         6.41184
     2004.82136        -1.90790         6.54812
     2004.82409        -1.77459         6.38969
     2004.82683        -8.62000         6.28604
     2004.82957        -2.89344         6.58300
     2004.83231        -3.83104         6.21508
     2004.83504        -2.03026         6.49451
     2004.83778        -1.26224         6.42058
     2004.84052        -2.03522         6.64441
     2004.84326        -3.92299         6.25589
     2004.84600        -6.00152         6.31910
     2004.84873       -11.13178         6.35760
     2004.85147        -9.40003         6.67374
     2004.85421         4.62775         8.65365
     2004.85695         0.86105         8.87229
     2004.85969        -3.34656         8.14158
     2004.86242         5.36242         6.18993
     2004.86516         8.05456         6.35338
     2004.86790         6.45473         6.19484
     2004.87064        10.46071         6.44777
     2004.87337        -0.62439         6.27710
     2004.87611        -2.37378         6.21377
     2004.87885         3.91188         6.35260
     2004.88159         0.24870         6.41329
     2004.88433        -7.63887         6.61659
     2004.88706         2.03331         6.51801
     2004.88980        -3.22310         6.56553
     2004.89254        -4.15001         6.77332
     2004.89528        -4.65843         6.71049
     2004.89802        -6.34626         6.74844
     2004.90075        -1.63857         6.98777
     2004.90349        -2.78796         6.22390
     2004.90623       -10.24655         6.29259
     2004.90897       -12.32717         6.21437
     2004.91170        -5.89793         6.67753
     2004.91444       -12.11228         6.21524
     2004.91718        -7.83980         6.48172
     2004.91992        -8.74363         6.41858
     2004.92266       -11.70017         6.48279
     2004.92539       -10.30266         6.41354
     2004.92813        -9.33981         6.44586
     2004.93087       -17.86863         6.72544
     2004.93361       -19.15224         6.41164
     2004.93634       -14.33448         6.97019
     2004.93908       -13.93677         6.36402
     2004.94182       -14.90307         6.53838
     2004.94456       -20.23346         6.86684
     2004.94730       -14.93337         6.91736
     2004.95003       -19.67658         6.21920
     2004.95277       -23.40849         6.43583
     2004.95551       -24.07217         6.45514
     2004.95825       -22.82565         6.50003
     2004.96099       -15.15456         6.25833
     2004.96372       -14.44745         6.15324
     2004.96646       -22.79272         6.35111
     2004.96920       -12.05306         7.38240
     2004.97194       -17.03668         6.48214
     2004.97467       -19.61707         6.40302
     2004.97741       -17.26397         6.12995
     2004.98015       -19.90714         6.29152
     2004.98289       -16.49849         6.21081
     2004.98563       -21.35746         6.42470
     2004.99110       -24.52856         6.45251
     2004.99384       -18.07981         6.52229
     2004.99658        -5.29055         6.42394
     2005.00205        -8.77874         6.50039
     2005.00479        -7.62320         6.62291
     2005.00753       -11.27713         6.89676
     2005.01027       -24.46054         6.47322
     2005.01300       -26.15335         6.34271
     2005.01574       -25.41149         6.92169
     2005.01848       -14.69902         6.60576
     2005.02122       -16.65980         6.50672
     2005.02396       -26.71247         6.51404
     2005.02669       -21.05132         6.97001
     2005.02943       -21.47537         6.34332
     2005.03217       -18.11365         6.77889
     2005.03491       -15.03928         6.26315
     2005.03765       -12.34973         6.79363
     2005.04038       -14.96822         6.67129
     2005.04312       -15.95926         6.51202
     2005.04586       -14.04438         7.76164
     2005.04860       -26.52929         7.25963
     2005.05133       -21.50125         7.36892
     2005.05407       -19.16989         6.73231
     2005.05681       -17.33673         7.21284
     2005.05955       -25.25016         6.33777
     2005.06229       -26.18473         6.16995
     2005.06502       -23.89356         6.23685
     2005.06776       -19.81580         6.32719
     2005.07050       -16.97520         6.16413
     2005.07324       -11.39691         6.13005
     2005.07598       -16.39703         6.41412
     2005.07871       -15.57459         6.34454
     2005.08145       -12.94593         6.29955
     2005.08419       -17.65496         6.22641
     2005.08693       -16.67187         6.32524
     2005.08966       -21.72785         6.12281
     2005.09240       -20.01546         6.45307
     2005.09514       -12.45785         6.10846
     2005.09788       -18.80526         6.20762
     2005.10062       -12.96461         6.15484
     2005.10335       -13.86257         6.37342
     2005.10609       -10.63237         6.66805
     2005.10883       -14.22669         6.42971
     2005.11157       -14.09556         6.12434
     2005.11431       -11.79599         6.39456
     2005.11704        -3.54724         6.24576
     2005.11978        -9.14875         6.25671
     2005.12252        -9.18835         6.12070
     2005.12526       -11.64191         6.19172
     2005.12799       -14.98954         6.78495
     2005.13073       -16.12914         6.46119
     2005.13347       -14.48964         6.51885
     2005.13621       -17.22751         6.36263
     2005.13895       -15.35796         6.30633
     2005.14168        -9.81375         6.16818
     2005.14442       -11.58778         6.42264
     2005.14716        -7.96714         6.53548
     2005.14990        -9.21529         6.44304
     2005.15264        -7.33545         6.55327
     2005.15537        -6.86796         6.40955
     2005.15811        -6.69537         6.58217
     2005.16085       -20.61125         6.45599
     2005.16359       -24.90496         6.53810
     2005.16632       -25.35503         6.44157
     2005.16906       -20.14291         6.54730
     2005.17180       -15.47096         6.47432
     2005.17454       -10.78953         6.59739
     2005.17728       -15.90301         6.80665
     2005.18001       -10.89090         6.80967
     2005.18275        -6.37216         6.45050
     2005.18549        -2.67280         6.78430
     2005.18823        -9.54964         6.59856
     2005.19097        -7.85856         6.44194
     2005.19370        -6.76865         6.22816
     2005.19644        -2.95589         6.34551
     2005.19918         1.26082         6.57479
     2005.20192         6.93803         6.59530
     2005.20465        -1.65687         6.57679
     2005.20739        -5.80091         6.57075
     2005.21013        -9.13911         6.38852
     2005.21287        -8.24253         6.21265
     2005.21561        -7.27686         6.23175
     2005.21834       -12.01437         6.28436
     2005.22108       -14.36024         6.38046
     2005.22382        -4.51309         6.15301
     2005.22656        -9.82799         6.22211
     2005.22930        -8.25203         6.32068
     2005.23203        -4.97206         6.30038
     2005.23477        -6.77575         6.45556
     2005.23751        -6.05708         6.11877
     2005.24025        -6.82286         6.38622
     2005.24298        -3.18652         6.19767
     2005.24572        -5.19300         6.60422
     2005.24846        -2.79278         6.37627
     2005.25120        -3.05485         6.17282
     2005.25394        -0.70159         6.32470
     2005.25667        -3.54906         6.43101
     2005.25941         6.10303         6.39257
     2005.26215        -1.12917         6.28564
     2005.26489        -5.17728         6.45469
     2005.26762        -1.36573         6.23120
     2005.27036        -5.10107         6.28498
     2005.27310        -2.84076         6.19369
     2005.27584        -4.81071         6.49454
     2005.27858        -0.56025         6.66490
     2005.28131        -1.80628         6.52600
     2005.28405        -5.46074         6.40927
     2005.28679       -14.58577         6.37803
     2005.28953        -6.11870         6.21393
     2005.29227        -5.86159         6.56468
     2005.29500        -3.08415         6.30364
     2005.29774        -2.55701         6.23282
     2005.30048        -6.37342         6.57736
     2005.30322        -2.31316         6.18641
     2005.30595         4.24347         6.39411
     2005.30869         0.35302         6.13468
     2005.31143         3.58881         6.20826
     2005.31417        11.44829         6.28308
     2005.31691         5.76565         6.43556
     2005.31964         4.95786         6.45213
     2005.32238         5.38585         6.67169
     2005.32512         5.76834         6.30592
     2005.32786         2.04041         7.04342
     2005.33060        -0.50817         6.41781
     2005.33333        -2.60802         6.26578
     2005.33607       -12.05742         6.33907
     2005.33881        -8.19430         6.26898
     2005.34155        -5.12781         6.21849
     2005.34428         4.38145         6.27146
     2005.34702        -1.51449         6.28611
     2005.34976         4.25866         8.37481
     2005.35250        -2.69128         6.20663
     2005.35524         2.02201         6.37663
     2005.35797         5.63114         6.44293
     2005.36071        -4.19375         6.70427
     2005.36345        -0.48921         6.64521
     2005.36619        -0.67795         6.29906
     2005.36893        -0.63201         7.72653
     2005.37166        -3.39308         6.77545
     2005.37440         3.11344         6.53195
     2005.37714         0.40650         6.57582
     2005.37988         2.30724         6.29238
     2005.38261         5.97572         6.65339
     2005.38535         5.29380         6.76118
     2005.38809         5.31320         7.65902
     2005.39083        13.59487         6.28201
     2005.39357        11.03463         6.27915
     2005.39630         6.11669         6.31892
     2005.39904         0.88443         6.38633
     2005.40178         4.11734         6.33199
     2005.40452         0.29812         6.28982
     2005.40726         2.41155         6.66453
     2005.40999         1.26024         8.15508
     2005.41273         1.15861         6.36469
     2005.41547         0.57798         6.42600
     2005.41821         1.70879         6.41351
     2005.42094         3.97499         6.20187
     2005.42368         8.46639         6.34608
     2005.42642         0.22639         6.26564
     2005.42916         8.31197         6.32536
     2005.43190         6.17568         6.25628
     2005.43463         5.50401         6.18289
     2005.43737         7.67972         6.33906
     2005.44011         1.77467         6.38801
     2005.44285         3.12809         6.46113
     2005.44559         7.79473         6.90128
     2005.44832        11.44872         6.68618
     2005.45106        13.86847         6.32431
     2005.45380         9.05976         6.20702
     2005.45654        11.69811         6.50363
     2005.45927        10.07953         6.35598
     2005.46201        11.27611         6.19650
     2005.46475        15.54853         6.19772
     2005.46749        12.58404         6.22854
     2005.47023         4.12363         6.24328
     2005.47296         4.00248         6.23257
     2005.47570        10.57548         7.65022
     2005.47844         3.86151         6.26507
     2005.48118         7.99411         6.16804
     2005.48392         4.41196         6.20434
     2005.48665         5.32828         6.12405
     2005.48939         3.32951         6.28184
     2005.49213         0.26754         6.29952
     2005.49487        -5.15873         6.19622
     2005.49760         0.68863         6.30933
     2005.50034         9.03738         6.21522
     2005.50308         4.80640         6.19386
     2005.50582         2.22718         6.25553
     2005.50856         1.66014         6.29013
     2005.51129         3.99842         6.25004
     2005.51403         3.52838         6.24871
     2005.51677         6.02372         6.51403
     2005.51951         8.83087         6.84295
     2005.52225        10.73393         7.45604
     2005.52498         9.31457         6.25826
     2005.52772         9.24278         6.64202
     2005.53046         4.26512         6.40015
     2005.53320         3.04715         6.23710
     2005.53593         9.77084         6.21938
     2005.53867         8.21344         6.20278
     2005.54141         1.08610         6.28843
     2005.54415        -3.45907         6.70904
     2005.54689        -0.69322         6.21309
     2005.54962         8.31285         6.43693
     2005.55236         2.67262         6.47756
     2005.55510         5.26230         6.23012
     2005.55784         6.46140         6.22203
     2005.56057         4.04418         6.26749
     2005.56331        14.80037         6.33447
     2005.56605        16.22872         6.39145
     2005.56879        12.10491         6.57701
     2005.57153        -0.51066         7.09106
     2005.57426         4.16740         6.40012
     2005.57700         8.59015         6.24433
     2005.57974        14.24193         6.34551
     2005.58248         4.97535         6.28735
     2005.58522         4.31716         6.28614
     2005.58795         9.70312         6.26192
     2005.59069         6.72939         6.21114
     2005.59343         8.24505         6.18491
     2005.59617        12.22111         6.54198
     2005.59890        13.09028         6.22943
     2005.60164        12.42373         6.27215
     2005.60438        13.15151         6.25681
     2005.60712        12.68161         6.89985
     2005.60986         4.57431         6.47035
     2005.61259         5.20100         6.44122
     2005.61533         4.06368         6.24710
     2005.61807         5.92202         6.23445
     2005.62081         2.34191         6.30261
     2005.62355         5.70504         6.73805
     2005.62628         7.72469         6.31588
     2005.62902         5.41090         6.27249
     2005.63176         4.72787         6.27265
     2005.63450         7.86669         6.23802
     2005.63723         3.67384         6.27443
     2005.63997         2.19283         6.70716
     2005.64271         5.77265         7.40964
     2005.64545         4.26777         7.56352
     2005.64819         3.21341         6.24979
     2005.65092         0.15998         6.27285
     2005.65366         6.30327         6.20191
     2005.66188         4.22835         6.23701
     2005.66461        -0.80296         7.16952
     2005.66735        -0.54440         6.20028
     2005.67009         6.49529         6.56456
     2005.67283         3.68082         6.34110
     2005.67556         1.78466         6.45409
     2005.67830         8.04535         6.20953
     2005.68104         1.88857         6.20336
     2005.68378         8.46814         6.38695
     2005.68652         1.51769         6.39724
     2005.68925         5.64404         6.72504
     2005.69199        -0.91202         6.83513
     2005.69473        14.95566         8.38165
     2005.69747        10.22359         7.20491
     2005.70021         0.53194         7.16159
     2005.70294         6.71853         6.56841
     2005.70568         6.88360         7.50983
     2005.70842         4.97727         6.62505
     2005.71116         4.90148         6.55376
     2005.71389         8.88235         6.22109
     2005.71663         7.84307         6.30308
     2005.71937         5.48221         6.21405
     2005.72211         8.29565         6.32528
     2005.72485        14.42328         6.23960
     2005.72758         5.74305         6.29493
     2005.73032         0.64275         6.35432
     2005.73306         4.31083         6.38781
     2005.73580        -2.26937         6.60540
     2005.73854         2.90430         6.51950
     2005.74127        -0.16915         6.42114
     2005.74401         3.33840         6.31450
     2005.74675        11.42394         6.25717
     2005.74949         1.63740         6.21948
     2005.75222         1.21976         6.62636
     2005.75496         8.64219         6.46079
     2005.75770        10.13155         6.42453
     2005.76044         4.71087         6.11393
     2005.76318        10.11026         6.15432
     2005.76591         9.96978         6.18610
     2005.76865        11.07130         6.28264
     2005.77139        14.66992         6.26314
     2005.77413        11.95987         6.23562
     2005.77687        12.62122         6.32224
     2005.77960         7.18930         6.51109
     2005.78234         6.40959         6.29767
     2005.78508        12.23282         6.28933
     2005.78782        23.49405         6.43012
     2005.79055        22.45070         6.23450
     2005.79329        19.90077         6.24548
     2005.79603        24.15315         6.38930
     2005.79877        19.40322         6.43264
     2005.80151        14.77965         6.34917
     2005.80424        19.37371         6.26683
     2005.80698        12.78825         6.23797
     2005.80972        13.80953         6.26877
     2005.81246         7.08236         6.28196
     2005.81520        13.45222         6.62317
     2005.81793         9.21238         6.40141
     2005.82067        -0.72346         6.16641
     2005.82341        -6.29155         6.26384
     2005.82615         1.18530         6.30944
     2005.82888         4.70720         6.25077
     2005.83162        10.14215         7.35951
     2005.83436         9.72783         6.72441
     2005.83710        12.06184         6.67550
     2005.83984         1.91172         6.68238
     2005.84257         1.49714         6.64315
     2005.84531         2.47609         7.05416
     2005.84805        -1.46630         6.73592
     2005.85079       -10.80067         6.62012
     2005.85352        -6.28816         6.72366
     2005.85626        -9.60685         6.92699
     2005.85900        -1.80146         6.70006
     2005.86174        -2.76905         6.58737
     2005.86448        -3.59843         6.71923
     2005.86721        -8.89624         6.95895
     2005.86995        -6.03068         6.66720
     2005.87269        -9.69870         6.46136
     2005.87543        -5.44961         6.41345
     2005.87817        -6.40032         6.29593
     2005.88090        -7.21009         6.35296
     2005.88364        -1.37122         6.43217
     2005.88638        -0.51927         6.86310
     2005.88912         9.45712         6.67197
     2005.89185         3.74059         6.26453
     2005.89459         7.83842         6.44089
     2005.89733         8.22348         6.33348
     2005.90007        -5.71248         6.25011
     2005.90281       -13.18178         6.49818
     2005.90554         3.24064         6.36132
     2005.90828         3.61394         6.32033
     2005.91102         0.51654         6.23206
     2005.91376        -9.85934         6.33974
     2005.91650       -14.72230         6.31338
     2005.91923       -15.88520         6.32956
     2005.92197        -4.62542         6.25990
     2005.92471        -4.52944         6.25556
     2005.92745        -9.41340         6.87184
     2005.93018        -2.02699         6.22024
     2005.93292        -8.86111         6.17951
     2005.93566        -9.96576         6.21394
     2005.93840       -11.48376         6.31016
     2005.94114        -6.03274         6.23745
     2005.94387        -6.49110         6.55401
     2005.94661        -4.38239         6.16357
     2005.94935       -16.37913         6.21195
     2005.95209       -13.24597         6.23626
     2005.95483        -9.90360         6.44260
     2005.95756        -8.72599         6.35524
     2005.96030        -7.20710         6.10252
     2005.96304        -9.50820         6.12069
     2005.96578        -8.11022         6.69631
     2005.96851        -7.16801         6.63211
     2005.97125        -7.18844         6.56710
     2005.97399        -6.46092         6.58057
     2005.97673        -0.41347         6.61440
     2005.97947        -4.20605         6.69922
     2005.98220        -7.63191         6.71850
     2005.98494        -6.98920         6.45149
     2005.98768        -9.91827         6.61707
     2005.99042        -7.96895         6.33822
     2005.99316        -8.39642         6.36074
     2005.99589        -7.88611         6.64800
     2005.99863        -9.63338         6.56316
     2006.00137        -6.12387         6.39787
     2006.00411       -15.33099         6.35375
     2006.00684       -14.06499         6.78224
     2006.00958       -16.90836         6.30125
     2006.01232        -7.74628         6.63737
     2006.01506       -13.93551         6.28690
     2006.01780        -6.18065         6.57779
     2006.02053        -8.47069         6.53167
     2006.02327       -13.72274         6.51441
     2006.02601       -11.13648         6.33484
     2006.02875       -17.87749         6.67943
     2006.03149       -16.07204         6.40033
     2006.03422       -15.33727         6.41515
     2006.03696       -11.79815         6.24189
     2006.03970       -12.00724         6.23137
     2006.04244        -8.51298         6.39004
     2006.04517       -15.74741         6.39601
     2006.04791       -15.93736         6.27996
     2006.05065       -18.59089         6.33035
     2006.05339       -18.39156         6.30161
     2006.05613       -15.60383         6.25401
     2006.05886       -15.59635         6.26657
     2006.06160       -13.05721         6.48913
     2006.06434       -11.69756         6.50729
     2006.06708        -7.93410         6.11146
     2006.06982       -11.25184         6.28072
     2006.07255        -9.57907         6.13878
     2006.07529        -9.15059         6.16570
     2006.07803        -6.84486         6.30804
     2006.08077       -10.31197         6.15932
     2006.08350        -8.20994         6.09643
     2006.08624       -23.63895         6.11554
     2006.08898       -20.21193         6.17303
     2006.09172        -7.65190         6.18223
     2006.09446        -4.99303         6.33082
     2006.09719        -5.24106         6.20211
     2006.09993         5.69674         6.38675
     2006.10267        -2.41138         6.35511
     2006.10541        -5.28114         6.42178
     2006.10815        -4.94789         6.29419
     2006.11088        -8.60619         6.66535
     2006.11362        -0.59179         6.16747
     2006.11636        -0.58299         6.31012
     2006.11910        -3.78747         6.33634
     2006.12183        -2.46154         6.22103
     2006.12457        -5.23751         6.25566
     2006.12731        -8.07797         6.14008
     2006.13005        -6.05382         6.27991
     2006.13279       -14.41344         6.41885
     2006.13552       -20.05047         6.35631
     2006.13826       -25.58957         6.48826
     2006.14100       -30.87099         6.20069
     2006.14374       -26.19533         6.26682
     2006.14648       -23.99057         6.24055
     2006.14921        -7.22491         6.16385
     2006.15195       -10.85244         6.28244
     2006.15469       -20.58642         6.26214
     2006.15743       -22.49250         6.27405
     2006.16016       -20.89790         6.28808
     2006.16290        -6.95822         6.44373
     2006.16564        -0.90823         6.25602
     2006.16838        -7.20491         6.31787
     2006.17112       -12.38431         6.09736
     2006.17385       -13.45572         6.09112
     2006.17659       -10.94725         6.04441
     2006.17933       -12.31442         6.09409
     2006.18207       -17.97292         6.14069
     2006.18480       -15.91059         6.11820
     2006.18754       -12.76177         6.11985
     2006.19028        -3.95112         6.29874
     2006.19302         2.26933         6.32807
     2006.19576         0.14450         6.33309
     2006.19849        10.16349         6.34256
     2006.20397         4.06907         6.42320
     2006.20671         4.80259         6.33075
     2006.20945         7.19709         6.65778
     2006.21218         4.98091         6.39542
     2006.21492        -3.81205         6.37127
     2006.21766        -9.91294         6.38588
     2006.22040        -4.37625         6.58077
     2006.22313        -7.14201         6.48110
     2006.22587        -1.77332         6.50956
     2006.22861        -4.59537         6.51819
     2006.23135        -3.54215         6.50143
     2006.23409         2.33312         6.46329
     2006.23682         6.43924         6.09008
     2006.23956         6.16629         6.05261
     2006.24230         8.85140         6.30232
     2006.24504         8.89548         6.16694
     2006.24778         5.86743         6.15395
     2006.25051         2.47282         6.09100
     2006.25325         1.37213         6.07287
     2006.25599         0.37986         6.19453
     2006.25873        -2.05688         7.05540
     2006.26146         6.40936         6.26066
     2006.26420         3.05702         6.39275
     2006.26694         5.85168         6.16749
     2006.26968         0.84781         6.76858
     2006.27242         5.61144         6.33162
     2006.27515        -2.47023         6.23779
     2006.27789         0.80084         6.31409
     2006.28063         0.44568         6.08295
     2006.28337        -3.94557         7.60468
     2006.28611         2.55189         6.23681
     2006.28884         0.74477         6.05510
     2006.29158         1.47054         6.13351
     2006.29432        -2.19979         6.13321
     2006.29706         2.28533         5.99361
     2006.29979         8.45908         6.40589
     2006.30253         2.58620         6.09001
     2006.30527         2.31146         6.14087
     2006.30801         0.43845         6.13243
     2006.31075        -0.60456         6.04909
     2006.31348        -4.52165         6.22070
     2006.31622        -0.99222         6.05322
     2006.31896        -8.20594         6.32754
     2006.32170        -4.44368         6.28999
     2006.32444         0.95053         6.22049
     2006.32717        -3.33908         6.03324
     2006.32991        -3.77090         6.04619
     2006.33265        -1.67410         6.08368
     2006.33539        -0.23961         6.10630
     2006.33812         3.49028         6.40822
     2006.34086         3.69222         6.11151
     2006.34360         2.97550         6.44212
     2006.34634         3.88041         6.18216
     2006.34908         2.47440         6.08954
     2006.35181         6.95577         6.20463
     2006.35455         7.31715         6.10368
     2006.35729        10.33417         6.11423
     2006.36003        17.31444         6.15245
     2006.36277        15.13978         6.10625
     2006.36550         9.19531         6.04523
     2006.36824         1.41084         6.00099
     2006.37098         1.25250         6.19521
     2006.37372         1.13947         6.23923
     2006.37645         9.24092         6.43936
     2006.37919         9.88407         6.16147
     2006.38193         3.30485         6.22624
     2006.38467        -0.97879         6.24542
     2006.38741        10.38190         6.16440
     2006.39014         2.74412         6.16010
     2006.39288         6.83548         6.14446
     2006.39562        -0.01005         6.40932
     2006.39836         4.03384         6.36369
     2006.40110         9.80354         6.28578
     2006.40383         2.59204         6.28985
     2006.40657         4.40710         6.22554
     2006.40931        -1.56002         6.26098
     2006.41205        -0.92295         6.29627
     2006.41478         1.49511         6.21889
     2006.41752        -4.46597         6.50427
     2006.42026         1.36583         6.53574
     2006.42300         4.88667         6.50477
     2006.42574         5.45796         6.44835
     2006.42847         8.74586         6.69163
     2006.43121         6.67855         6.44299
     2006.43669        20.27731         6.46046
     2006.43943        12.05339         6.20366
     2006.44216        10.77132         6.23382
     2006.44490         1.87949         6.13541
     2006.44764        -2.74888         6.20026
     2006.45038        -0.32796         6.12768
     2006.45311        -4.01391         6.20717
     2006.45585         1.34928         6.19675
     2006.45859         3.69429         6.18852
     2006.46133        -0.37800         6.39578
     2006.46407         3.91670         6.29948
     2006.46680         4.31943         6.86416
     2006.46954         5.26021         6.46362
     2006.47228         2.17935         6.34555
     2006.47502        -3.32986         6.36750
     2006.47775        12.28442         6.39529
     2006.48049         8.72617         6.37730
     2006.48323         4.64356         6.31952
     2006.48597        11.62578         6.65777
     2006.48871         4.06648         6.36866
     2006.49144         5.86297         6.24881
     2006.49692         4.53600         6.09260
     2006.49966         3.98182         6.15788
     2006.50240        -1.24908         6.24838
     2006.50513         3.95786         6.27543
     2006.50787         5.06682         6.24833
     2006.51061         5.38308         6.11157
     2006.51335         5.57347         6.15802
     2006.51608         8.33558         6.20891
     2006.51882        13.80860         6.23467
     2006.52156         9.64666         6.28707
     2006.52430         7.76517         6.14274
     2006.52704        -0.96617         6.17940
     2006.52977         9.09958         6.27415
     2006.53251         9.87839         6.39868
     2006.53525         5.75852         6.22090
     2006.53799         7.58987         6.17779
     2006.54073        11.93447         6.30187
     2006.54346         9.66425         6.06981
     2006.54620         6.66008         6.08916
     2006.54894         3.80248         6.05000
     2006.55168         7.38926         6.06779
     2006.55441         7.37735         6.03586
     2006.55715         4.43053         6.02846
     2006.55989         3.45876         6.10875
     2006.56263         8.91810         6.05384
     2006.56537        11.74415         6.04300
     2006.56810        13.35969         6.05698
     2006.57084        15.70746         6.09053
     2006.57358         8.57156         6.04997
     2006.57632        10.19416         6.25018
     2006.57906         6.91449         6.09012
     2006.58179        12.88194         6.13594
     2006.58453        13.15741         6.26053
     2006.58727        14.19044         6.21796
     2006.59001         8.77837         6.55917
     2006.59274         5.11154         6.27127
     2006.59548         5.24348         6.46748
     2006.59822         9.27748         6.83264
     2006.60096         5.40678         6.06374
     2006.60370        12.64123         6.09706
     2006.60643        12.87890         6.04939
     2006.60917         9.91087         6.03994
     2006.61191        16.31189         7.25576
     2006.62834        19.27481         6.56526
     2006.63107        17.19370         6.72567
     2006.63381        12.76773         6.06361
     2006.63655        11.97961         6.15164
     2006.63929        11.12390         6.23629
     2006.64203        11.74567         6.17964
     2006.64476         6.74572         6.18881
     2006.64750        15.53766         6.45064
     2006.65024        10.54252         6.53596
     2006.65298         5.81979         7.11241
     2006.65572         9.33032         6.60299
     2006.65845         0.78622         6.55019
     2006.66119         7.23639         6.51781
     2006.66393         3.71468         6.58179
     2006.66667         3.35120         6.65661
     2006.66940         9.54182         6.60471
     2006.67214        10.16760         6.60041
     2006.67488        13.42638         6.66842
     2006.67762         1.41221         6.95694
     2006.68036         3.36945         6.58278
     2006.68309        10.23695         6.71353
     2006.68583        13.50475         6.66573
     2006.68857         4.48125         6.29208
     2006.69131        -0.53445         6.33092
     2006.69405        16.31946         6.41051
     2006.69678        11.22540         6.39150
     2006.69952        20.58633         6.39420
     2006.70226        19.87720         6.57853
     2006.70500        14.59759         6.30156
     2006.70773        10.50110         6.20895
     2006.71047         8.15803         6.29496
     2006.71321         8.96269         6.29446
     2006.71595         7.48319         6.28331
     2006.71869         4.37408         6.16831
     2006.72142         7.92061         6.44053
     2006.72416        10.43011         6.60641
     2006.72690        13.36487         6.33472
     2006.72964        15.05310         6.45949
     2006.73238         7.60253         6.78291
     2006.74059        13.18491         6.21655
     2006.74333        12.30527         6.19980
     2006.74606        12.22915         6.26001
     2006.74880         6.09796         6.38581
     2006.75154        10.76777         6.53719
     2006.75428        11.63186         6.63976
     2006.75702         7.18029         6.30914
     2006.75975         5.98744         6.26479
     2006.76249        10.25895         6.30926
     2006.76523         9.28266         6.71111
     2006.76797         5.49369         6.50660
     2006.77070        11.83484         6.30468
     2006.77344        12.90380         6.28392
     2006.77618        11.48807         6.33504
     2006.77892        10.11794         6.34151
     2006.78166        11.61392         6.54503
     2006.78439        16.73374         6.31352
     2006.78713        15.58889         6.34496
     2006.78987        17.12060         6.40253
     2006.79261        19.75093         6.29165
     2006.79535        15.04846         6.18303
     2006.79808        17.57491         6.38954
     2006.80082         9.63991         6.65316
     2006.80356        10.87601         6.59995
     2006.80630         5.19965         6.34418
     2006.80903         9.68381         6.43660
     2006.81177        10.48111         6.46216
     2006.81451         8.33117         6.79079
     2006.81725         8.69132         6.50366
     2006.81999        12.50477         6.42091
     2006.82272         9.69200         6.41651
     2006.82546        10.49403         6.36605
     2006.82820         5.25073         6.44291
     2006.83094         4.53307         6.36037
     2006.83368         7.85306         6.55968
     2006.83641        10.11970         6.31779
     2006.83915        15.53445         6.66543
     2006.84189         1.62299         6.75795
     2006.84463        -0.01110         6.46985
     2006.84736        -2.95914         6.21534
     2006.85010        -2.49143         6.42985
     2006.85284         2.57943         6.51448
     2006.85558         5.24229         6.60588
     2006.85832         4.35216         6.77858
     2006.86105         0.86300         6.83418
     2006.86379        -5.57752         6.61011
     2006.86653        -8.51748         6.64996
     2006.86927        -0.08025         6.23529
     2006.87201         0.21168         6.22381
     2006.87474        10.80630         6.26067
     2006.87748        -2.72505         6.30869
     2006.88022        -4.95905         6.19373
     2006.88296         1.25854         6.18676
     2006.88569         0.92109         6.36464
     2006.88843        -5.48553         6.28220
     2006.89117        -8.78786         6.23289
     2006.89391       -11.30711         7.42907
     2006.89665        -3.14503         6.59598
     2006.89938        -0.69573         6.33325
     2006.90212         7.37642         7.55854
     2006.90486         2.14042         6.31087
     2006.90760         9.56938         6.15429
     2006.91034         4.58100         6.17660
     2006.91307         3.01180         6.84205
     2006.91581         2.16076         6.50175
     2006.91855        -4.95862         6.24633
     2006.92129       -10.24436         6.17223
     2006.92402         3.22647         6.29600
     2006.92676        -5.09027         6.32023
     2006.92950       -13.82553         6.87882
     2006.93224       -15.47157         6.27594
     2006.93498        -6.92633         6.70185
     2006.93771       -11.39746         6.43729
     2006.94045       -13.40629         6.16295
     2006.94319        -9.30151         6.29463
     2006.94593       -14.92519         6.26080
     2006.94867        -6.52027         6.39276
     2006.95140        -8.97741         6.47701
     2006.95414        -7.26502         8.08193
     2006.95688         0.90143         6.51560
     2006.95962        -5.60431         6.57636
     2006.96235        -6.69109         6.55978
     2006.96509        -6.99285         6.36912
     2006.96783        -2.43253         6.27697
     2006.97057        -3.87985         6.33498
     2006.97331        -0.96138         6.64130
     2006.97604        -6.36094         6.13658
     2006.97878        -9.95133         6.01469
     2006.98152       -16.79014         6.11972
     2006.98426        -3.09704         6.27748
     2006.98700       -11.85685         6.48851
     2006.98973       -13.59180         6.77648
     2006.99247       -15.74086         6.43924
     2006.99521       -17.78900         6.24248
     2006.99795       -10.29644         6.45279
     2007.00068        -6.78246         6.37552
     2007.00342        -2.91686         6.76797
     2007.00616        -4.82012         6.37245
     2007.00890        -4.93602         6.64562
     2007.01164        -3.04915         6.30809
     2007.01437       -14.54350         6.25680
     2007.01711       -14.46316         6.37851
     2007.01985       -13.91304         6.35138
     2007.02259       -15.90452         6.34226
     2007.02533       -12.80760         6.37690
     2007.02806       -15.60905         6.44892
     2007.03080       -16.03595         6.24317
     2007.03354       -16.80165         6.09832
     2007.03628       -14.33685         6.06616
     2007.03901       -20.47189         6.27258
     2007.04175       -21.36437         6.31281
     2007.04449       -20.02365         6.20225
     2007.04723       -21.31340         6.27270
     2007.04997       -17.70916         6.22949
     2007.05270       -17.25277         6.16920
     2007.05544       -13.35115         6.25318
     2007.05818       -17.25845         6.20060
     2007.06092       -17.10044         6.16911
     2007.06366       -16.39201         6.17599
     2007.06639       -14.28252         6.54171
     2007.06913       -10.18475         6.39409
     2007.07187        -6.08643         6.22355
     2007.07461       -10.22926         6.43687
     2007.07734       -12.36438         6.67296
     2007.08008       -20.29541         6.23659
     2007.08282       -13.57332         6.41987
     2007.08556        -4.41346         6.40729
     2007.08830        -4.31335         6.37960
     2007.09103        -2.10983         6.20687
     2007.09377        -5.71625         6.24642
     2007.09651       -26.69559         6.16606
     2007.09925       -27.28343         6.41559
     2007.10198        -7.04017         6.19401
     2007.10472         4.18636         6.50074
     2007.10746         1.42399         6.62687
     2007.11020         2.48327         6.08848
     2007.11294        -3.15054         6.55053
     2007.11567        -3.76450         6.37522
     2007.11841        -6.23733         6.33851
     2007.12115        -5.90825         6.08818
     2007.12389        -0.33005         6.27631
     2007.12663         3.28882         6.33457
     2007.12936        -0.25216         6.22920
     2007.13210        -3.61496         6.09001
     2007.13484        -1.29251         6.15582
     2007.13758        -2.80974         6.21370
     2007.14031        -5.86002         6.24115
     2007.14305         1.02764         6.04611
     2007.14579        -2.17572         6.08304
     2007.14853        -1.83379         6.06097
     2007.15127         0.01282         6.10285
     2007.15400        -8.70697         6.08501
     2007.15674        -8.55783         6.07613
     2007.15948        -7.20713         6.32195
     2007.16222       -11.57910         6.33153
     2007.16496        -3.60725         6.34016
     2007.16769       -11.00213         6.26103
     2007.17043        -8.17692         6.33886
     2007.17317        -4.52775         6.23617
     2007.17591       -20.00610         6.37706
     2007.17864       -19.83614         6.19380
     2007.18138       -17.51742         6.28254
     2007.18412       -12.57685         6.35722
     2007.18686        -5.59124         6.37111
     2007.18960        -6.31592         6.67344
     2007.19233        -6.79303         6.53984
     2007.19507        -7.32978         6.28947
     2007.19781        -5.64344         6.16276
     2007.20055        -8.36354         6.28186
     2007.20329        -9.03131         6.24652
     2007.20602        -6.70842         6.14215
     2007.20876        -3.74134         6.10843
     2007.21150       -12.40153         6.47237
     2007.21424       -10.26334         6.84354
     2007.21697        -2.92594         6.24514
     2007.21971        -5.22980         6.06310
     2007.22245        -5.36300         6.15813
     2007.22519       -11.96781         6.50433
     2007.22793       -11.45398         6.15883
     2007.23066        -5.81442         6.14531
     2007.23340        -0.47335         6.48286
     2007.23614        -1.77544         6.11642
     2007.23888        -6.87733         6.25938
     2007.24162        -9.21202         6.12451
     2007.24435         0.17805         6.12654
     2007.24709        -0.21357         6.39324
     2007.24983         1.54820         6.16963
     2007.25257        -1.68768         6.26059
     2007.25530        -1.75110         6.13943
     2007.25804         2.50292         6.11585
     2007.26078        -2.67498         6.25420
     2007.26352        -4.09486         6.10718
     2007.26626         2.85546         6.09227
     2007.26899        -3.13761         6.07495
     2007.27173        -4.23333         6.22383
     2007.27447        -4.63904         6.18505
     2007.27721        -4.36535         6.15480
     2007.27995        -2.36863         6.10976
     2007.28268        -7.22895         6.10451
     2007.28542        -3.16788         6.21859
     2007.28816         6.67071         6.03083
     2007.29090         5.95136         6.36315
     2007.29363         2.00655         6.08183
     2007.29637         4.68792         6.07915
     2007.29911        -3.45508         6.22708
     2007.30185         0.57225         6.07389
     2007.30459        -3.91115         6.28707
     2007.30732        -5.56532         6.18845
     2007.31006        -2.03872         6.40678
     2007.31280        -7.75629         6.21460
     2007.31554        -5.16933         6.06190
     2007.31828         2.06891         6.20994
     2007.32101        10.50494         6.10949
     2007.32375         8.22961         6.27222
     2007.32649         4.60593         6.18303
     2007.32923        -1.89531         6.10257
     2007.33196        -5.61241         6.14258
     2007.33470        -1.79602         6.19329
     2007.33744        -2.91634         6.07822
     2007.34018        -2.64246         6.26833
     2007.34292         1.03634         6.09997
     2007.34565        -0.50410         6.25094
     2007.34839         2.81087         6.16224
     2007.35113         1.13221         6.68874
     2007.35387        -6.22563         6.47582
     2007.35661        -6.74692         6.41025
     2007.35934       -10.02876         6.07655
     2007.36208        -2.49166         6.06586
     2007.36482         0.32465         6.07723
     2007.36756         1.21268         6.10809
     2007.37029        -1.43405         6.09279
     2007.37303        -3.93842         6.20997
     2007.37577        -1.94687         6.23565
     2007.37851        -0.96157         6.18938
     2007.38125         0.73945         6.19241
     2007.38398         1.48975         6.18992
     2007.38672        -1.29573         6.10163
     2007.38946        -1.43490         6.53258
     2007.39220        -1.02496         6.33715
     2007.39493        -7.59630         6.14946
     2007.39767         0.02847         6.14509
     2007.40041         3.58298         6.24003
     2007.40315        -2.56656         6.07651
     2007.40589        -0.01616         6.10327
     2007.40862         1.40917         6.21780
     2007.41136         7.23924         6.14734
     2007.41410         2.29647         6.08705
     2007.41684         9.46261         6.10843
     2007.41958         4.06617         6.09949
     2007.42231        -2.99178         6.09470
     2007.42505         3.07531         6.25831
     2007.42779         4.12990         6.10417
     2007.43053         6.27816         6.13458
     2007.43326         7.84262         6.14607
     2007.43600         8.21525         6.17915
     2007.43874         5.66840         6.20197
     2007.44148         6.19094         6.23324
     2007.44422         1.00026         6.22440
     2007.44695        -2.20414         6.08104
     2007.44969         4.70567         6.17327
     2007.45243         3.32928         6.12354
     2007.45517         9.61443         6.14756
     2007.45791         9.03085         6.19118
     2007.46064         2.12391         6.11999
     2007.46338         5.87522         6.16525
     2007.46612         7.78433         6.24660
     2007.46886         6.45281         6.22537
     2007.47159         6.84065         6.17584
     2007.47433         3.54655         6.14188
     2007.47707         4.37397         6.30099
     2007.47981         3.63697         6.12300
     2007.48255         7.84917         6.60185
     2007.48528         8.68628         6.11735
     2007.48802         9.48843         6.11916
     2007.49076        11.15642         6.14690
     2007.49350         6.12269         6.14258
     2007.49624         5.86768         7.39930
     2007.49897         3.32528         6.06583
     2007.50171         9.66660         6.06969
     2007.50445         6.35402         6.09843
     2007.50719        10.23538         6.18290
     2007.50992        14.69911         6.09811
     2007.51266         1.55386         6.08515
     2007.51540        16.38618         6.09555
     2007.51814        11.56916         6.35148
     2007.52088        12.78526         6.13498
     2007.52361        16.32963         6.30902
     2007.52635        16.25385         6.09921
     2007.52909        12.17519         6.26384
     2007.53183        15.92557         6.29081
     2007.53457        14.91369         6.15249
     2007.53730        12.12174         6.16730
     2007.54004         8.80689         6.12182
     2007.54278         8.90403         6.09799
     2007.54552        10.12849         6.08412
     2007.54825         8.02227         6.30321
     2007.55099        14.69858         6.15663
     2007.55373        13.08373         6.21247
     2007.55647        10.62568         6.18718
     2007.55921        12.11812         6.09759
     2007.56194         8.27832         6.11422
     2007.56468        13.85427         6.21933
     2007.56742         9.37909         6.10866
     2007.57016        10.02486         6.22234
     2007.57290         4.73456         6.08051
     2007.57563        11.04212         6.09083
     2007.57837         2.69426         6.09771
     2007.58111        14.48202         6.18123
     2007.58385        15.03034         6.12834
     2007.58658        15.76452         6.13061
     2007.58932        14.26855         6.02864
     2007.59206        -0.38659         6.05212
     2007.59480        12.21875         6.28043
     2007.59754         8.88897         6.33507
     2007.60027        13.05352         6.07605
     2007.60301        13.42363         6.07339
     2007.60575         4.07201         6.30900
     2007.60849         4.10274         6.10142
     2007.61123         9.90234         6.13782
     2007.61396         4.05076         6.11795
     2007.61670         7.31020         6.41492
     2007.61944         4.99665         6.45792
     2007.62218         7.52239         6.43044
     2007.62491        14.19091         6.42318
     2007.62765         8.93725         6.63403
     2007.63039        13.23723         6.59175
     2007.63313        10.65348         6.38393
     2007.63587        14.10595         6.48368
     2007.63860         6.92405         6.33819
     2007.64134         6.55964         6.32308
     2007.64408         4.25904         6.58128
     2007.64682         0.04216         6.35848
     2007.64956         4.48679         6.97183
     2007.65229         5.88684         6.62244
     2007.65503         8.15896         6.51902
     2007.65777        13.39595         6.35528
     2007.66051         6.14083         6.28621
     2007.66324         6.38165         6.33757
     2007.66598        12.06866         6.38044
     2007.66872         0.01675         6.42475
     2007.67146        15.68478         6.39351
     2007.67420         9.84869         6.25343
     2007.67693        12.47637         6.43176
     2007.67967        11.81286         6.38642
     2007.68241        11.37957         6.49325
     2007.68515         6.22818         6.53206
     2007.68789        15.30688         6.47779
     2007.69062         9.13099         6.26845
     2007.69336         9.50340         6.34181
     2007.69610        15.36983         6.36423
     2007.69884        11.84238         6.34226
     2007.70157        16.22288         6.36277
     2007.70431        20.77144         6.49417
     2007.70705         7.42748         6.30260
     2007.70979         9.80313         6.38079
     2007.71253         2.21575         6.30816
     2007.71526        15.71723         6.12006
     2007.71800        12.65252         6.04866
     2007.72074         5.73250         6.06625
     2007.72348        11.91974         6.12999
     2007.72621        15.36176         6.17910
     2007.72895        16.15844         6.23931
     2007.73169         8.28823         6.19585
     2007.73443         9.05889         6.15162
     2007.73717        15.67652         6.22505
     2007.73990        14.04412         6.16441
     2007.74264         5.23500         6.21022
     2007.74538         7.50430         6.10419
     2007.74812         5.34957         6.25033
     2007.75086         2.99087         6.37630
     2007.75359         3.34443         6.17473
     2007.75633         7.28210         6.26805
     2007.78919        -0.70243         7.05808
     2007.79192         2.40518         6.25838
     2007.79466        -2.82006         6.25888
     2007.79740        -2.06249         6.22187
     2007.80014         1.49016         6.19582
     2007.80287         0.71214         6.12272
     2007.80561        -4.73413         6.22363
     2007.80835        -1.12382         6.22766
     2007.81109        -2.89287         6.30183
     2007.81383        -1.45452         6.55455
     2007.81656         6.40742         6.41336
     2007.81930         1.36579         6.44839
     2007.82204        -3.05039         6.19398
     2007.82478        -3.40359         6.26284
     2007.82752        -7.11443         6.25437
     2007.83025        -5.70876         6.19902
     2007.83299        -1.98785         6.10543
     2007.83573         0.81234         6.16341
     2007.83847        -1.38990         6.11655
     2007.84120        -1.35891         6.19738
     2007.84394        -3.37076         6.15002
     2007.84668        -1.63210         8.31697
     2007.84942        -5.25985         6.10355
     2007.85216         0.17276         6.42147
     2007.85489         0.78244         6.27736
     2007.85763         6.35335         6.14190
     2007.86037        -0.98288         6.09164
     2007.86311         1.42564         6.13753
     2007.86585        -1.92460         6.14228
     2007.86858        -0.01169         6.11585
     2007.87132        -0.85988         6.08829
     2007.87406        -0.31039         6.08022
     2007.87680        -0.90239         6.11142
     2007.87953        -6.28252         6.20815
     2007.88227       -10.10094         6.13478
     2007.88501        -2.52368         6.99746
     2007.88775        -4.30513         6.54341
     2007.89049        -0.11770         6.44620
     2007.89322         1.08896         6.24423
     2007.89596        -1.88816         6.66221
     2007.89870         0.18369         6.32810
     2007.90144         1.65545         6.24792
     2007.90418        -7.43479         6.45908
     2007.90691        -0.85493         6.55427
     2007.90965        -3.22153         6.47944
     2007.91239         5.01547         6.43495
     2007.91513        -2.94642         6.15417
     2007.91786         6.16875         6.43744
     2007.92060         0.52327         6.56313
     2007.92334       -10.12983         6.17208
     2007.92608        -3.23586         6.46632
     2007.92882         2.30350         6.72858
     2007.93155        -6.01046         6.48112
     2007.93429        -2.59153         6.34378
     2007.93703        -9.28020         6.80980
     2007.93977        -4.60872         6.43626
     2007.94251        -0.93126         6.44850
     2007.94524        -4.00415         6.25247
     2007.94798        -6.16955         6.74448
     2007.95072       -10.00375         6.54100
     2007.95346       -15.31410         6.25035
     2007.95619        -5.83667         7.03061
     2007.95893       -10.25154         7.09607
     2007.96167       -10.96534         6.41802
     2007.96441       -14.78084         6.39931
     2007.96715       -14.59308         6.77660
     2007.96988        -8.85980         6.48057
     2007.97262       -10.54245         6.73946
     2007.97536       -16.93119         6.61222
     2007.97810       -18.90046         6.23100
     2007.98084        -9.71469         6.25754
     2007.98357        -6.05116         6.22727
     2007.98631        -7.66758         6.49935
     2007.98905       -10.79842         6.49429
     2007.99179        -7.69188         6.33004
     2007.99452       -12.89454         6.30592
     2007.99726        -0.12101         6.28840
     2008.00000        -2.50418         6.17829
     2008.00274        -3.61379         6.32679
     2008.00548        -6.67582         6.17279
     2008.00821        -9.90095         6.31301
     2008.01095        -7.93342         6.16597
     2008.01369        -4.10218         6.13037
     2008.01643       -10.31962         6.12275
     2008.01916       -13.12812         6.29053
     2008.02190       -14.87747         6.31815
     2008.02464       -16.27724         6.18661
     2008.02738       -10.03848         6.27030
     2008.03012       -11.36619         6.16269
     2008.03285       -12.15861         6.51291
     2008.03559       -11.78747         6.34493
     2008.03833       -12.37356         6.34260
     2008.04107       -10.57915         6.41921
     2008.04381        -9.78417         6.54382
     2008.04654        -9.09286         6.21697
     2008.04928        -4.35863         6.15324
     2008.05202         2.40809         6.36497
     2008.05476        -7.54164         6.26936
     2008.05749       -11.35251         6.40719
     2008.06023        -9.42561         6.38967
     2008.06297       -10.28394         6.58874
     2008.06571       -15.62119         6.21724
     2008.06845       -11.26671         6.36924
     2008.07118        -6.13989         6.25308
     2008.07392        -2.78898         6.42934
     2008.07666        -7.53246         6.53478
     2008.07940        -3.52976         6.66603
     2008.08214       -14.04763         6.64095
     2008.08487       -19.56893         6.27890
     2008.08761       -10.84894         6.24274
     2008.09035       -12.33683         6.26441
     2008.09309       -10.55672         6.25098
     2008.09582       -10.13329         6.32361
     2008.09856        -4.27083         6.54750
     2008.10130       -10.41208         6.47725
     2008.10404       -10.68693         6.13739
     2008.10678         2.59266         6.19407
     2008.10951        -2.61524         6.41421
     2008.11225        -1.88071         6.24142
     2008.11499        -0.00039         6.07031
     2008.11773         1.51068         6.17372
     2008.12047        -0.49936         6.07717
     2008.13415        -2.78880         6.09354
     2008.13689        -0.37929         6.06326
     2008.13963        -2.45484         6.13469
     2008.14237        -8.89760         6.18430
     2008.14511       -13.60414         6.11354
     2008.14784        -8.77345         6.07010
     2008.15058        -3.25410         6.10560
     2008.15332        -3.19679         6.25349
     2008.15606        -2.12539         6.04204
     2008.15880         0.07414         6.10407
     2008.16153        -3.12370         6.31723
     2008.16427        -4.26699         5.98055
     2008.16701        -0.32100         6.05800
     2008.16975         0.06102         6.00545
     2008.17248        -2.78227         6.13368
     2008.17522         3.85893         6.22383
     2008.17796        -0.62879         6.00117
     2008.18070        -1.04009         6.02332
     2008.18344        -2.35693         6.31985
     2008.18617         1.96636         6.21687
     2008.18891        -2.39189         6.00539
     2008.19165        -8.59973         6.20882
     2008.19439        -3.96927         6.05965
     2008.19713        -3.42048         6.05282
     2008.19986         2.08300         6.26673
     2008.20260         8.49494         6.16696
     2008.20534         1.72347         6.27932
     2008.20808        -1.72316         6.36479
     2008.21081        -7.46183         6.19288
     2008.21355         3.12076         6.19308
     2008.21629         3.46879         6.21078
     2008.21903        -1.16447         6.21074
     2008.22177         0.17561         6.15254
     2008.22450        -7.73401         6.22191
     2008.22724        -3.42611         6.10093
     2008.22998        -1.27339         6.15643
     2008.23272         6.32313         6.52736
     2008.23546        -1.04390         6.38192
     2008.23819        -2.29980         6.20381
     2008.24093        -0.71851         6.09513
     2008.24367         8.98211         6.03346
     2008.24641         8.92700         6.19834
     2008.24914        12.09546         6.00110
     2008.25188         6.18015         6.11849
     2008.25462         1.96712         6.18486
     2008.25736         3.82695         6.23902
     2008.26010         3.84686         6.87303
     2008.26283         6.42855         6.03374
     2008.26557         7.31404         6.02694
     2008.26831        -2.29945         6.09886
     2008.27105        -3.44697         6.07573
     2008.27379        -0.65555         6.09783
     2008.27652         5.93876         6.12479
     2008.27926        10.42761         6.10769
     2008.28200         3.85119         6.01426
     2008.28474        -0.45964         6.18661
     2008.28747        -2.09699         6.35820
     2008.29021        -6.31826         6.49879
     2008.29295         2.14987         6.15728
     2008.29569         3.66556         6.47672
     2008.29843         2.87801         6.13939
     2008.30116        -0.36791         6.21693
     2008.30390        -1.59881         6.22512
     2008.30664         1.25727         6.17096
     2008.30938         2.22902         6.42328
     2008.31211         2.00534         6.09998
     2008.31485         2.63076         6.05017
     2008.31759        -1.19571         6.23869
     2008.32033         2.60372         6.48879
     2008.32307         7.62414         6.14362
     2008.32580         1.34665         6.42288
     2008.32854        -3.13970         6.03411
     2008.33128        -0.07952         6.33941
     2008.33402         2.02202         6.27398
     2008.33676         4.02513         6.22023
     2008.33949         4.59482         6.25688
     2008.34223         2.17244         6.10512
     2008.34497        -1.62530         6.08167
     2008.34771         1.58533         6.15549
     2008.35044        -2.44063         6.10266
     2008.35318        -1.17198         6.07284
     2008.35592        -5.34029         6.17467
     2008.35866        -4.74209         6.16360
     2008.36140         1.94078         6.11841
     2008.36413         1.24558         6.04706
     2008.36687         1.53995         6.00898
     2008.36961         1.40934         5.98170
     2008.37235         2.31132         6.06310
     2008.37509         0.45374         6.00350
     2008.37782         2.23607         6.03104
     2008.38056         5.36075         6.05426
     2008.38330         1.31255         6.01549
     2008.38604         4.39924         6.05635
     2008.38877         0.52137         6.20723
     2008.39151         2.01517         6.20137
     2008.39425        -0.72075         6.10543
     2008.39699        -3.69141         6.24794
     2008.39973         6.79416         6.03028
     2008.40246         3.45977         6.04575
     2008.40520        -5.00294         6.05456
     2008.40794        -1.34111         5.99235
     2008.41068        -0.54270         6.05987
     2008.41342         2.09173         6.01395
     2008.41615         7.12857         6.03647
     2008.41889         2.19342         6.05221
     2008.42163         5.83644         6.08938
     2008.42437         4.95541         5.97806
     2008.42710         5.73914         5.98868
     2008.43258        11.88053         6.54387
     2008.43532        12.04248         6.33942
     2008.43806        11.95784         6.36933
     2008.44079        11.25705         5.98340
     2008.44353         8.90145         6.04125
     2008.44627         0.76235         6.13346
     2008.44901         3.19738         6.11858
     2008.45175         7.68276         6.11738
     2008.45448         4.81626         6.10707
     2008.45722         0.76368         6.02931
     2008.45996         8.90184         5.99717
     2008.46270         9.04939         6.13902
     2008.46543        10.43897         6.11711
     2008.46817         3.08348         5.97344
     2008.47091         0.01758         6.16634
     2008.47365         3.39588         6.05677
     2008.47639         5.60496         6.08837
     2008.47912         4.54785         6.09310
     2008.48186        -3.11861         6.07214
     2008.48460        -3.40968         6.11465
     2008.48734         3.62428         6.12695
     2008.49008         4.96733         6.04126
     2008.49281        13.27631         6.11275
     2008.49555         8.17293         6.11227
     2008.49829        19.07503         6.13711
     2008.50103         9.39924         6.16144
     2008.50376         8.11641         6.10623
     2008.50650        11.06877         6.19058
     2008.50924         5.99339         6.17378
     2008.51198         0.02778         6.03879
     2008.51472         6.37966         6.04524
     2008.51745         5.66124         6.10063
     2008.52019         6.03235         6.11548
     2008.52293         5.21882         6.17998
     2008.52567         3.91420         6.19927
     2008.52841         5.44140         6.18676
     2008.53114         8.30920         6.14775
     2008.53388         0.57715         5.98888
     2008.53662         3.94658         6.13090
     2008.53936        16.35715         5.99617
     2008.54209        11.78823         6.52100
     2008.54483        13.79356         6.35133
     2008.54757         6.42036         6.14174
     2008.55031         5.11999         6.05339
     2008.55305        10.57066         6.27490
     2008.55578         4.47696         6.06136
     2008.55852         0.83193         6.32215
     2008.56126         5.09414         5.97492
     2008.56400        11.11001         6.05254
     2008.56674         8.91241         6.02061
     2008.56947         6.90200         6.01868
     2008.57221         8.89569         6.24385
     2008.81862        -1.06941         6.02572
     2008.82136         7.70900         5.99583
     2008.82409         2.45857         6.17146
     2008.82683         7.42048         6.30711
     2008.85147       -14.16530         7.37794
     2008.85421       -15.05233         6.03961
     2008.85695        -4.96050         5.97060
     2008.85969         2.88314         6.33371
     2008.86242        -4.60991         6.17067
     2008.86516        -6.55603         9.28958
     2008.87611       -15.77046        14.65463
     2008.87885       -19.15498         6.35085
     2008.88159       -20.70832         6.05996
     2008.94456       -12.59805         8.16502
