# ================= DQRFIT RESULTS ================
# INPUT FILE: series/BLVU.rad
# OUTPUT: LDETRENDED
# FILTER FUNCTION: f(t)
# f(t)=+line(t)+annual(t)+jumps(t)
# line(t)=+P 1+P 2*t
# annual(t)=+P 3*sin(2*pi*t+P 4)
# jumps(t)=+P 5*heav(t-2007.9343  )+P 6*heav(t-2008.0110  )
# heav(t)=(t<0?0:1)
# TOTAL OBSERVATIONS MTOT= 1052
# INITIAL TIME INTERVAL= 2009.3384 - 2004.5530 =  4.7854
# TOTAL OBSERVATIONS AFTER PREFILTER M= 1045
# TIME-SPAN= 2009.3384 - 2004.5530 =  4.7854
# OBSERVATIONS: USED M=  1045 REJECTED MTOT-M=     7 %USED=   99.3346
# N=  6 PARAMETERS
# MAXSIG= 175.00000
# MAXRES=  33.44724
# SCALE FACTOR FOR LENGTHS: SCL=  10.00000
# SCALE FACTOR FOR SIGMAS: SCLSIG=   1.00000
# CHI^2=   1136.947 DOF=  1039 CHI^2/DOF=   1.09427
# RMS=      6.528 SDEV=      6.532 MEAN=    0.01420
#  P #       PARAMETER +-    SIGMA %error PARAMETER NAME
# P 1 =      5686.32679 +-  579.432  10.19 YZERO                              
# P 2 =        -2.81766 +-    0.289  10.25 SLOPE                              
# P 3 =         2.34697 +-    0.304  12.96 ANNUAL AMPLITUDE                   
# P 4 =        -2.62498 +-    0.163   6.23 ANNUAL PHASE                       
# P 5 =        -0.42830 +-    1.515 353.79 OFFSET 2007.9343                   
# P 6 =        -8.23562 +-    1.413  17.16 OFFSET 2008.0110                   
#       T            LDETRENDED       SIG_OBS
     2004.55302        -0.03906         6.07873
     2004.55551       -12.52205         6.69173
     2004.55852        -5.34558         6.11326
     2004.56125        -5.88786         5.99923
     2004.56400       -10.96613         6.09756
     2004.56673        -2.65443         6.13208
     2004.56947        -4.17872         6.18020
     2004.57221        -2.17300         6.15614
     2004.57494        -7.33029         6.06932
     2004.57768        -4.18258         6.11012
     2004.58042         0.15114         6.10803
     2004.58316        -3.87413         6.10384
     2004.58590         0.68557         6.20636
     2004.58863        -2.93672         6.21995
     2004.59137         3.73500         6.21577
     2004.59411        -7.24629         6.40511
     2004.59685        -7.85558         6.30050
     2004.59958        -1.07886         6.12476
     2004.60233        -1.71113         6.12162
     2004.60506        -7.89643         6.10279
     2004.60780       -10.10972         6.07037
     2004.61054        -7.34100         6.02643
     2004.61327        -0.72029         6.09861
     2004.61601         0.64242         6.27644
     2004.61875        -1.07486         6.09756
     2004.62149        -3.95013         6.12790
     2004.62423        -4.54943         6.40825
     2004.62696        -6.51472         6.09443
     2004.62973        -4.68292         6.43858
     2004.63244        -4.91829         6.14045
     2004.63507        -3.83188         6.33816
     2004.64147        18.06916        10.49317
     2004.64339         2.43557         6.53587
     2004.64613        -4.20672         6.31515
     2004.64887       -11.19500         6.29109
     2004.65160        -4.02629         6.12999
     2004.68994         2.45472         7.50663
     2004.69815         0.26387         6.10489
     2004.70089         4.65658         6.23460
     2004.70363         0.39031         6.33921
     2004.70637         6.63801         7.72526
     2004.71458         0.80515         6.13522
     2004.71732         5.72987         6.09233
     2004.71954        -2.84588         7.66877
     2004.72279        -2.01872         6.03585
     2004.72553        -6.97299         6.12790
     2004.73052         0.15006         7.71689
     2004.73374        -7.33386         6.22414
     2004.73648        -4.06613         6.12476
     2004.73921        -8.49843         6.02434
     2004.74196        -1.37370         5.94902
     2004.74470         0.43801         6.03585
     2004.74743        -1.35627         6.08815
     2004.75017        -4.91757         6.02852
     2004.75290        -2.00686         5.98459
     2004.75565        -5.76213         6.08710
     2004.75773       -10.93427         8.22946
     2004.76112         0.00528         6.11639
     2004.76386        -3.96199         6.41766
     2004.76660         2.25473         6.10384
     2004.76934        -1.98256         6.41557
     2004.77207        -0.61085         6.36117
     2004.77481         4.92987         6.19066
     2004.77755         3.03558         6.49403
     2004.78209        -8.64363        11.78611
     2004.78530        -8.27757         7.49198
     2004.79124         9.29915         6.12581
     2004.79398        11.63487         6.12685
     2004.79671        12.68558         6.14673
     2004.79945         8.16030         6.20217
     2004.80493         1.94473         6.09756
     2004.81314         4.41687         5.93438
     2004.81588         2.96558         6.21995
     2004.82409         3.59773         5.94484
     2004.82683        -3.67956         5.97204
     2004.82957        19.00016         6.16137
     2004.83231         6.42687         5.97936
     2004.83504        -6.59542         6.16765
     2004.84052         1.39601         6.10907
     2004.84326         7.01273         5.92078
     2004.84600         5.98844         5.97727
     2004.84873         4.83816         6.02329
     2004.85147         2.42987         6.14045
     2004.85421         1.94558         7.43340
     2004.85695         2.08930         6.06827
     2004.85969        -3.97899         6.17079
     2004.86242         3.57173         6.00656
     2004.86516        -0.59056         6.00237
     2004.87064        -9.59312         5.93961
     2004.87338        -0.59840         6.06200
     2004.87612         2.61331         6.00342
     2004.87885        -5.60097         5.98982
     2004.88159        -4.05227         6.34967
     2004.88706        -0.58884         5.93542
     2004.88980        -3.47213         5.97936
     2004.89254        -3.56742         5.97308
     2004.89528         5.99930         5.95216
     2004.89802         7.86601         6.05572
     2004.90075         8.07673         6.25971
     2004.90349         3.20444         5.91241
     2004.90623         4.02216         5.90299
     2004.90897        -2.54313         5.83918
     2004.91170        -4.24541         5.81722
     2004.91430         2.15291         6.15824
     2004.91992        -1.02327         5.99296
     2004.92266         8.14044         6.03271
     2004.92539         6.58216         6.00865
     2004.92813         6.98087         5.96053
     2004.93087         1.33359         5.94170
     2004.93361        12.45430         6.07246
     2004.93634        10.35401         6.10593
     2004.93908         3.20773         6.03585
     2004.94182        -2.03056         6.32247
     2004.94456        -3.35884         6.00133
     2004.94730        -9.75513         5.99923
     2004.95003        -1.20043         6.10175
     2004.95277        -0.17970         6.14150
     2004.95551       -10.72299         7.34344
     2004.96372        -4.53484         5.76177
     2004.96920        -8.83741         5.83082
     2004.97194        -1.55470         6.02957
     2004.97467        -2.84799         6.10489
     2004.97741        -6.65827         5.78270
     2004.98015        -0.99256         5.83395
     2004.98289         1.51716         5.86220
     2004.98836         0.21459         5.97204
     2004.99110         2.74030         6.05886
     2004.99384         3.75601         5.89986
     2004.99658         2.11273         5.93961
     2005.00479        -5.33513         6.03062
     2005.00753        -3.78141         5.95007
     2005.01027        -2.42070         5.92182
     2005.01300        -2.27498         6.10698
     2005.01848         9.97844         6.03480
     2005.02122        -2.58384         5.99505
     2005.02396        -5.23113         5.94275
     2005.02669        -4.54041         5.97936
     2005.02943         0.36330         5.96053
     2005.03217        -3.05998         6.04526
     2005.03491        -2.39227         7.20536
     2005.04312        -5.32313         6.04108
     2005.04586       -11.59441         6.07664
     2005.04860        -9.31170         6.77333
     2005.05133        -2.81398         6.42185
     2005.05407       -13.39627         6.27226
     2005.05681        -5.60356         6.06618
     2005.05955        -7.01384         6.22414
     2005.06230       -11.04909         6.23355
     2005.06502       -13.00541         6.31306
     2005.06776        -7.92870         6.08501
     2005.07050        -0.80098         6.02225
     2005.07324        -2.04427         6.03166
     2005.07598       -10.78156         6.19380
     2005.07871        -6.56984         5.96053
     2005.08145        -6.11113         5.93019
     2005.08419       -11.38041         6.15614
     2005.08693        -6.85170         5.88521
     2005.08966       -11.61498         5.92078
     2005.09240       -12.33027         6.09129
     2005.09469        -9.98981         7.09447
     2005.74959         5.57645         6.33084
     2005.75222        -2.21212         6.31724
     2005.75496         4.70060         6.31306
     2005.75770        -5.19069         6.24506
     2005.76044         5.88603         6.11744
     2005.76318         9.44774         6.30887
     2005.76591        10.49845         6.13313
     2005.76865         7.38217         5.95425
     2005.77139        10.29588         6.11639
     2005.77413         4.30360         6.37896
     2005.77687        11.45131         6.35176
     2005.77960        -3.61797         6.26703
     2005.78234         8.73674         6.50239
     2005.78508         1.90445         6.25448
     2005.78782         8.85917         6.11849
     2005.79055         7.85188         6.18125
     2005.79329        12.79660         6.19590
     2005.79603        15.26031         6.29213
     2005.79877        11.99803         6.33607
     2005.80151         6.46474         6.32038
     2005.80424         6.21345         6.17184
     2005.80698         3.28217         6.03898
     2005.80972         5.87588         6.06304
     2005.81246         4.53660         6.19380
     2005.81520         2.47031         6.14359
     2005.81793         9.65703         6.35594
     2005.82067         2.42674         6.12162
     2005.82341         9.99646         6.35176
     2005.82615         7.28317         6.00865
     2005.82888         3.14488         6.02120
     2005.83162         6.04660         6.40406
     2005.83436        -3.08069         6.33712
     2005.83710         4.86503         6.36327
     2005.83984         6.29374         6.24924
     2005.84257         3.41746         6.26075
     2005.84531        -0.76283         6.40616
     2005.84805        10.24188         6.39046
     2005.85079        -1.13640         6.28063
     2005.85352         2.86931         6.32352
     2005.85626         1.46003         6.34653
     2005.85892        -2.41447         6.41976
     2005.96304         3.39990         5.95007
     2005.97673         0.57447         6.42185
     2005.97947        -0.28883         6.31724
     2005.98221         0.09090         6.14464
     2005.98495         7.24661         6.05154
     2005.98768        -0.19867         6.21159
     2005.99042        -2.26196         6.24715
     2005.99316         1.60176         6.19380
     2005.99590        11.63047         6.07037
     2005.99863        13.74517         6.12372
     2006.00411         4.12761         6.33084
     2006.00685         0.16833         6.29527
     2006.00959        -6.47096         6.10489
     2006.01233        -7.01324         6.24297
     2006.01506        -8.46253         6.31096
     2006.01780         6.27117         6.20636
     2006.02054         3.11890         6.39570
     2006.02328         1.05161         6.40511
     2006.02601        -3.11267         6.45846
     2006.02875         3.51404         6.16137
     2006.03149         3.53476         6.62165
     2006.03423         4.27447         6.23878
     2006.03696         1.16117         6.19485
     2006.03970         0.20790         6.16661
     2006.04244        -4.51039         6.16556
     2006.04518        -2.00067         6.54424
     2006.04792        10.12904         6.13732
     2006.05065         8.52776         6.13104
     2006.05339        -1.29153         6.13208
     2006.05613        -3.37283         6.00342
     2006.05887        -6.76810         6.01597
     2006.06161         2.55861         6.00865
     2006.06434         2.88433         6.11116
     2006.06708         0.53104         5.99505
     2006.06982        -4.27024         5.90299
     2006.07256        -6.37453         5.86220
     2006.07529        -6.78883         5.93228
     2006.07685       -14.98143        16.15138
     2006.08077       -10.68738         6.03689
     2006.08625        -7.79596         6.14882
     2006.08898        -2.13424         5.99400
     2006.09042        20.32679        44.80962
     2006.09430        -9.23326         6.48670
     2006.09720        -7.03510         5.96785
     2006.09994        -4.41638         5.92287
     2006.10267        -9.64467         5.86324
     2006.10541       -14.82396         5.92496
     2006.10815        -6.17224         5.98040
     2006.11089        -1.44253         6.11953
     2006.11362       -10.37783         5.91973
     2006.11636        -7.13010         5.89567
     2006.11910       -12.31638         6.00865
     2006.12184       -10.01367         6.02120
     2006.12458        -5.04096         5.99191
     2006.12731        -5.43524         5.97622
     2006.13005        -1.35653         8.03385
     2006.13279        -3.40083         5.94379
     2006.13553         3.26890         5.93019
     2006.13812         1.10820         6.41034
     2006.14100         5.03733         6.10698
     2006.14374         4.69504         5.96367
     2006.14648         3.49476         5.97622
     2006.14922         1.84247         5.95007
     2006.15195        -1.17183         5.92078
     2006.15460         2.81963         6.21159
     2006.15649         8.35296        10.36868
     2006.16017         7.33733         6.05468
     2006.16291         1.18804         6.17707
     2006.16457         9.35072        13.16798
     2006.16838         6.77247         6.01806
     2006.17112         2.83517         5.88626
     2006.17386         1.43790         5.98040
     2006.17660         5.53962         5.97204
     2006.17933        -0.34167         6.02748
     2006.18207         0.80005         5.99505
     2006.18481        11.40176         6.04212
     2006.18755        14.46247         5.94379
     2006.19028         3.27317         5.97517
     2006.19302         5.26790         6.05572
     2006.19576         3.20262         6.23565
     2006.19850        14.18433         6.21995
     2006.20124         7.72905         6.21472
     2006.20397        -6.32224         6.42917
     2006.20671        -3.01553         6.49612
     2006.20945         3.93617         6.27435
     2006.21219        -2.61210         6.22414
     2006.21493         1.70762         6.21577
     2006.21766         6.10233         6.18857
     2006.22040        -0.91595         6.28272
     2006.22314        -7.14824         6.30050
     2006.22588        -2.19753         6.68127
     2006.22861         9.42318         6.26494
     2006.23135         5.00190         6.22519
     2006.23409         8.66962         6.22728
     2006.23683        -0.92967         6.30155
     2006.23957        10.14305         6.03480
     2006.24230         1.94176         6.01702
     2006.24504         6.40147         5.96471
     2006.24778         2.71218         6.03166
     2006.25046       -11.02026         6.30050
     2006.25319         2.08944         6.11116
     2006.25599         8.85233         6.00969
     2006.25873         1.31105         6.00342
     2006.26147         4.40676         6.23042
     2006.26421         4.36447         6.36954
     2006.26695         0.68119         6.08397
     2006.26968         3.18590         6.03480
     2006.27242         9.24762         6.02957
     2006.27516        10.27633         6.25238
     2006.27790         2.65005         6.22728
     2006.28063         7.33476         6.00028
     2006.28337         8.63448         6.13836
     2006.28611        12.32119         6.00237
     2006.28885        14.70190         5.99819
     2006.29159        10.05862         6.03375
     2006.29439         0.42951         6.98045
     2006.29706         3.68905         6.00865
     2006.29980        14.47276         6.12581
     2006.30254         5.30948         6.05677
     2006.30528         2.60719         6.01283
     2006.30801         9.14090         6.04735
     2006.31075         7.61262         6.07350
     2006.31343         8.99417         6.70429
     2006.31657         1.82101         7.14782
     2006.32170         4.27748         6.11535
     2006.32444         7.77619         6.14987
     2006.32675         4.54570         7.54115
     2006.32995         4.22873         6.17602
     2006.33265        -1.02667         6.11744
     2006.33539         4.74705         6.05677
     2006.33813         3.89876         6.05363
     2006.34087         9.26848         6.00969
     2006.34361         5.58719         6.05991
     2006.34634         5.28590         6.15719
     2006.34908         3.92862         6.16242
     2006.35182         2.54133         6.16661
     2006.35456         5.22605         6.04840
     2006.35729         8.70576         6.07560
     2006.36003         6.77348         6.10803
     2006.36277        -0.53581         6.16765
     2006.36551        -2.75010         6.14045
     2006.36825        -0.12038         6.08710
     2006.37098         5.16133         6.30259
     2006.37372         7.34305         6.21786
     2006.37646         6.07676         6.14150
     2006.37920         2.25348         6.24820
     2006.38193        -2.67481         6.32561
     2006.38467         8.29891         6.16137
     2006.38741         8.18562         6.41976
     2006.39015         6.18033         6.94593
     2006.39289        -4.65795         6.36954
     2006.39562         6.26676         6.37164
     2006.39836         5.82148         6.39465
     2006.40110         4.15919         6.24924
     2006.40384        -1.12309         6.23983
     2006.40658        -0.22838         6.21263
     2006.40931        -3.36367         6.22728
     2006.41205        -2.48195         6.20322
     2006.41479        -1.83824         6.42917
     2006.41753        -0.31452         6.54424
     2006.42026         3.87019         6.37373
     2006.42300         1.23491         6.43545
     2006.42574         4.56162         6.45114
     2006.42848         4.46533         7.95330
     2006.43122        -1.10195         6.91873
     2006.43395         5.51676         6.15928
     2006.43669        -1.67252         6.20008
     2006.43943         6.17219         6.20008
     2006.44217         4.62591         6.20740
     2006.44491        -1.50738         6.23460
     2006.44764         1.95033         6.45532
     2006.45038         7.08605         6.20949
     2006.45312         6.46776         6.91769
     2006.45586        -1.29552         6.73776
     2006.45862         8.22827         7.15724
     2006.46133         6.48891         6.28272
     2006.46407         8.65962         6.30783
     2006.46681         5.99433         6.30887
     2006.46955         1.17805         6.18125
     2006.47228         1.45776         6.30155
     2006.47502         4.16248         6.28377
     2006.47776         2.31719         6.33398
     2006.48050        -8.94609         6.30469
     2006.48324         0.62462         6.40720
     2006.48597         3.22934         6.35281
     2006.48871         2.79505         6.26598
     2006.49145         2.82476         6.30783
     2006.49419         6.32748         6.35699
     2006.49692         1.22419         6.65931
     2006.49966         5.47091         6.35594
     2006.50240         2.34462         6.52227
     2006.50514         1.39934         6.66454
     2006.50788         4.58705         6.54528
     2006.51061         2.67176         6.55365
     2006.51335         0.96048         6.53273
     2006.51609        -0.38881         6.50135
     2006.51883        11.27391         6.53064
     2006.52157         3.89562         6.65408
     2006.52430         5.43534         6.65303
     2006.52704         1.02105         6.67290
     2006.52978        13.76876         6.58503
     2006.53252        -1.44552         6.61642
     2006.53525         5.49919         6.51495
     2006.53799         0.71491         6.47729
     2006.54048        -0.45607         7.22209
     2006.89237        -4.87157        22.20919
     2006.89391        -3.73923         6.26598
     2006.89665        -3.30452         6.28586
     2006.89939         0.09120         6.00551
     2006.90213         5.57491         6.03898
     2006.90486        -5.79837         6.15614
     2006.90760         9.94734         5.90299
     2006.91034         1.93906         6.00656
     2006.91308        -2.66723         6.22100
     2006.91582        -4.31852         6.11116
     2006.91855        -2.32380         6.05677
     2006.92129        -2.90009         5.95948
     2006.92403        -5.39137         6.12895
     2006.92677         3.44834         6.42289
     2006.92951         2.91606         6.11012
     2006.93224         2.73377         6.09233
     2006.93498         1.69648         6.30259
     2006.93772         4.06320         6.08292
     2006.94046         9.87591         6.33816
     2006.94205         4.20341        13.39288
     2006.95141         3.51677         6.18857
     2006.95322         6.10289        11.60828
     2006.99521        -9.99380         6.48043
     2006.99795        -3.15909         6.34548
     2007.00343        -7.48566         6.55156
     2007.00616        -3.90794         6.34758
     2007.00890        -1.11423         6.39046
     2007.01164         0.18249         6.21054
     2007.01438         5.87120         6.25657
     2007.01712        -9.69209         6.27749
     2007.01985        -9.13737         6.11953
     2007.02259        -8.27366         6.08397
     2007.02533        -2.55794         6.04944
     2007.02807       -22.94723         6.10384
     2007.03081       -14.42651         5.95739
     2007.03354       -16.38180        17.44747
     2007.03628       -14.15709         5.84546
     2007.03902       -17.62837         5.88940
     2007.04176       -14.10266         6.10803
     2007.04449        -9.84894         5.89463
     2007.04723       -18.86223         6.06827
     2007.04997       -15.04651         6.18962
     2007.05271        -8.13380         6.20740
     2007.05545        -7.18509         5.94379
     2007.05818        -5.46337         6.06200
     2007.06092        -4.14766         6.08083
     2007.06366        -4.21794         6.01283
     2007.06640       -11.03223         6.11326
     2007.06914        -7.06751         5.89149
     2007.07187        -7.99480         5.97727
     2007.07461        -5.46309         5.99819
     2007.07735        -7.61137         5.89776
     2007.08009       -11.53166         5.93542
     2007.08282        -4.24094         5.94170
     2007.08556        -7.03323         6.02852
     2007.08830        -8.02251         6.03375
     2007.09104        -3.69380         6.06095
     2007.09378        -5.74108         6.02434
     2007.09651        -8.12737         6.14045
     2007.09925        -6.94266         6.04212
     2007.10199        -9.49794         5.95948
     2007.10473       -13.52523         6.21891
     2007.10747        -4.10651         6.14255
     2007.11020        -0.63480         6.09966
     2007.11294        -0.87108         6.03166
     2007.11568        -7.73637         5.93438
     2007.11842        -7.51666         6.05781
     2007.12115        -8.01394         6.03271
     2007.12389        -6.35123         6.07246
     2007.12663         1.57049         6.10907
     2007.12937        -2.84080         6.23146
     2007.13211         0.15092         6.05258
     2007.13484         3.33163         5.99714
     2007.13758         3.15534         6.05781
     2007.14032         3.50406         6.06932
     2007.14306        -0.28623         6.07037
     2007.14580        -4.27051         6.05049
     2007.14853        -4.65480         5.97517
     2007.15127        -0.68708         6.06095
     2007.15401         5.37263         6.07350
     2007.15675         5.30634         6.05154
     2007.15948         0.30006         6.04735
     2007.16222        -2.32723         6.25238
     2007.16496        -2.37751         6.09652
     2007.16770       -11.34880         6.23146
     2007.17044        -6.79508         6.20008
     2007.17317        -1.45137         6.23355
     2007.17591        -0.42966         6.11849
     2007.17865        -3.23794         6.37268
     2007.18139        -1.99423         6.23042
     2007.18413        -0.68151         6.17497
     2007.19062         3.65578        11.31224
     2007.19234        -7.04637         6.33816
     2007.19508        -2.24765         6.03375
     2007.19781        -3.31294         6.10593
     2007.20055        -3.31923         6.04944
     2007.20329        -7.94251         6.16974
     2007.20603        -1.52380         6.02329
     2007.20877        -6.90308         6.07246
     2007.21150        -8.30137         6.13627
     2007.21424        -4.36165         6.08397
     2007.21698        -6.27194         6.22205
     2007.21974         2.47584         6.13732
     2007.22246        -2.09851         6.05468
     2007.22519         3.16020         6.12895
     2007.22793        -3.80608         6.09233
     2007.23067        -0.58837         6.02225
     2007.23341        -6.85065         6.15405
     2007.23614        -7.92994         6.13313
     2007.23888        -3.69823         6.04944
     2007.24162        -5.96851         6.08501
     2007.24436         1.68620         6.04317
     2007.24710        -1.94208         5.98877
     2007.24983         4.37963         5.99923
     2007.25257        -6.15565         6.01283
     2007.25535        -1.43383         6.14150
     2007.25805         0.12977         6.08397
     2007.26079        -0.60751         6.14359
     2007.26352         2.83520         6.03480
     2007.26626        10.93392         6.20008
     2007.26900         4.99263         6.15405
     2007.27174         3.18235         6.19380
     2007.27447         6.09206         6.03271
     2007.27721         6.84377         6.11430
     2007.27995        -0.90051         6.21891
     2007.28271         9.08226        12.02462
     2007.28543        -0.32808         6.18125
     2007.28816         1.74563         6.06409
     2007.29090         5.10635         6.14673
     2007.29364        -4.06194         6.06304
     2007.29621         3.97429         6.46369
     2007.29949       -36.88847        29.48045
     2007.30185         3.70120         6.00760
     2007.30459         3.74392         6.03898
     2007.30733         3.90463         6.15824
     2007.31007        -4.53965         6.29423
     2007.31280         3.76206         6.21891
     2007.31554        -0.98022         6.15928
     2007.31828         1.71149         6.17602
     2007.32102        -3.45080         6.23146
     2007.32376         2.17392         6.11849
     2007.34017        -4.88482         6.41976
     2007.34291        -7.60011         6.19694
     2007.34565        -5.13439         6.13418
     2007.34839        -5.82968         6.16974
     2007.35112         0.14803         6.19276
     2007.35386         0.18675         6.54005
     2007.35660        -7.51754         6.50344
     2007.35934        -2.32282         6.27226
     2007.36208        -7.05111         6.27017
     2007.36481        -8.11939         6.25029
     2007.36755        -2.33968         6.29109
     2007.37029        -4.28896         6.27435
     2007.37303        -3.15625         6.47206
     2007.37577        -5.27054         6.54424
     2007.37850       -17.03482         6.35594
     2007.38124        -2.82311         6.19694
     2007.38398        -1.71039         6.17079
     2007.38672        -7.21768         6.26389
     2007.38945        -9.21196         6.20845
     2007.39219       -11.01125         6.37791
     2007.39459         0.07251         7.21059
     2007.40041        -4.73711         6.14987
     2007.40314         1.43261         6.25134
     2007.40588       -11.05268         6.19380
     2007.40862       -13.45996         6.15510
     2007.41136       -11.34925         6.12058
     2007.41410        -7.69654         6.16033
     2007.41683        -6.54682         6.19276
     2007.41957        -5.45611         6.23042
     2007.42231        -6.61739         6.51704
     2007.42505        -0.30468         6.43963
     2007.42778         1.42004         6.12581
     2007.43052         4.62275         6.11849
     2007.43326        -3.41954         6.12372
     2007.43874       -11.10611         6.36954
     2007.44147        -9.44739         6.28063
     2007.44421        -7.04768         6.28900
     2007.44695        -7.40196         6.44486
     2007.44969       -14.73925         6.34025
     2007.45243        -7.44554         6.26703
     2007.45516        -6.54082         6.14778
     2007.45790        -1.32211         6.19066
     2007.46064        -1.93439         6.13104
     2007.46805         1.08450        10.39902
     2007.47159        -1.29554         6.19380
     2007.47433         0.75818         6.11221
     2007.47707        -3.42111         6.18230
     2007.47980        -5.25839         6.15719
     2007.48254       -15.16168         6.14882
     2007.48528       -10.44696         7.08401
     2007.50290       -25.78930        19.50091
     2007.50416       -14.82777         9.18662
     2007.93435        -8.84364         6.42708
     2007.93709        -9.93493         6.38523
     2007.93982        -7.20721         6.31619
     2007.94256        -5.32650         6.27226
     2007.94558        -5.60599         7.45432
     2007.94798        -3.22024         6.14045
     2007.95071         1.08047         6.12790
     2007.95345         1.03519         6.11535
     2007.95630         4.23922         6.42289
     2007.95893         7.56261         6.17184
     2007.96167        10.09133         6.19903
     2007.96440         4.85604         6.38105
     2007.96714         0.30176         6.19903
     2007.96988       -12.18053         6.13418
     2007.97262        -9.13581         6.41348
     2007.97535        -2.68410         6.18334
     2007.97809         7.04861         6.12372
     2007.98083        -7.32567         6.12267
     2007.98357        -1.05596         6.01492
     2007.98631         2.86376         6.23669
     2007.98864         3.99635         8.12486
     2008.01095         4.78719         6.11221
     2008.01368        -3.24010         5.98877
     2008.01642        -4.13138         6.01283
     2008.01916        -3.10667         6.14255
     2008.02190        -5.11096         6.07978
     2008.02464        -0.03624         6.02539
     2008.02737        -4.34653         6.12895
     2008.03011       -10.32481         6.44068
     2008.03285       -12.07410         6.11326
     2008.03559       -13.36338         6.24924
     2008.03833       -32.29767         6.12058
     2008.04106       -22.86396         6.17079
     2008.04380       -19.95124         6.14987
     2008.04654       -19.53553         6.24611
     2008.04928       -19.67081         6.19590
     2008.05201       -13.07210         6.13941
     2008.05475       -17.75938         6.14150
     2008.05749       -21.27567         6.10593
     2008.06023       -15.15996         6.11012
     2008.06297        -6.71924         6.06723
     2008.06935        -9.90724        10.41366
     2008.08219        -5.84308         6.46055
     2008.08487        -4.97053         6.15614
     2008.08761        -7.73381         6.07455
     2008.09034        -3.26010         6.09547
     2008.09308        -7.93138         6.22100
     2008.09582        -5.20667         6.34339
     2008.09856         0.11405         6.21891
     2008.10130        -3.60724         6.29736
     2008.10403        -8.72353         5.98145
     2008.10677        -7.28681         6.04735
     2008.10951        -7.43110         6.20845
     2008.11225        -4.61038         6.04108
     2008.11498        -9.83767         6.18962
     2008.11886        -0.41574        14.15966
     2008.12046       -10.72724         5.95634
     2008.12320       -12.05153         6.29318
     2008.12571        -8.36545         7.52650
     2008.12982        -2.90888        13.96090
     2008.13141        -9.72738         6.00028
     2008.13415        -3.42567         6.06618
     2008.13689        -4.88695         6.03585
     2008.13963        -7.27824         6.00760
     2008.14236        -4.59353         6.04944
     2008.14510        -2.56881         6.01388
     2008.14784        -3.32910         6.02643
     2008.15058        -8.46838         6.00028
     2008.15331       -15.53367         5.99610
     2008.15725        22.44142        17.44119
     2008.15879        -1.02224         6.04735
     2008.16153       -14.26253         6.08187
     2008.16427        -7.26281         6.10175
     2008.16700        -9.97410         6.06304
     2008.16974       -15.97538         6.10698
     2008.17248       -11.05167         6.00656
     2008.17522       -13.19395         6.15091
     2008.17796       -13.46624         5.94379
     2008.18069       -10.42953         6.08710
     2008.18343        -7.40681         6.05258
     2008.18611       -14.67626         6.22937
     2008.18891       -11.59938         6.06827
     2008.19147        -6.92415         6.56725
     2008.19463       -21.74127         6.57562
     2008.19712        -3.54124         7.51081
     2008.19986        -2.22052         6.14359
     2008.20260        -7.08581         6.03480
     2008.20533        -6.31910         6.02539
     2008.20807        -7.68138         6.23774
     2008.21081        -4.28567         6.23774
     2008.21355        -2.51195         6.62583
     2008.21629        -9.03724         6.17079
     2008.21902       -10.42152         6.12372
     2008.22176       -18.06381         6.06932
     2008.22450        -5.78510         6.10907
     2008.22659        -9.87620         9.06423
     2008.23006       -19.87144         6.43335
     2008.23271        -4.81295         6.19066
     2008.23544        -4.96828         8.55479
     2008.23819       -13.00852         6.17497
     2008.24093        -8.18881         6.04944
     2008.24366       -33.86110         6.67290
     2008.24640       -15.28638         6.07978
     2008.24914       -10.11067         6.06932
     2008.25188       -10.06695         6.14359
     2008.25462        -7.85624         6.01702
     2008.25735        -7.45552         6.09861
     2008.26009        -3.03281         6.06514
     2008.26283        -6.68910         6.02957
     2008.26557        -8.99338         5.98563
     2008.26830        -8.70667         5.99086
     2008.27104       -10.22195         6.10803
     2008.27378        -7.91424         6.06409
     2008.27652       -16.11552         6.17288
     2008.27926       -16.40081         6.18543
     2008.28199        -5.66210         6.14464
     2008.28473        -8.28738         6.10384
     2008.28747        -9.48067         6.11221
     2008.29021        -8.55995         6.21368
     2008.29295        -4.48724         6.22937
     2008.29568       -10.62752         6.09024
     2008.29842       -13.12681         6.01283
     2008.30116       -12.71309         6.02748
     2008.30390       -10.13238         6.05258
     2008.30663        -9.90267         6.27540
     2008.30937       -15.12595         6.31619
     2008.31211       -20.24824         6.39674
     2008.31485       -12.24152         6.08292
     2008.31759       -16.93981         6.26598
     2008.32032       -16.87009         6.20845
     2008.32306        -8.01338         6.41662
     2008.32580        -8.18067         6.45532
     2008.32854       -13.78595         6.09861
     2008.33128       -10.25324         6.19903
     2008.33401       -19.35752         6.07978
     2008.33675       -10.93681         6.13522
     2008.33949        -8.09909         6.37268
     2008.34223       -12.49338         6.12895
     2008.34496       -11.95967         6.24820
     2008.34770        -8.06995         6.05258
     2008.35044       -12.79424         6.10803
     2008.35318       -14.50152         6.06514
     2008.35592        -6.73681         6.11221
     2008.35865        -5.97909         6.06514
     2008.36139       -12.01838         6.54528
     2008.36413        -6.30067         6.01074
     2008.36687       -17.22495         6.08501
     2008.36961       -18.89624         6.07246
     2008.37234       -17.78352         5.89672
     2008.37508       -10.05281         8.75355
     2008.37782       -14.50509         5.98250
     2008.38056        -4.82238         6.02329
     2008.38329        -0.67867         6.06618
     2008.38603        -7.48495         6.00760
     2008.38877       -11.26624         6.00133
     2008.39151        -5.47652         5.99086
     2008.39425       -11.16681         5.95844
     2008.39698        -9.54109         6.02748
     2008.39972        -6.68238         6.00446
     2008.40246        -5.47466         6.60700
     2008.40520        -1.83595         6.01806
     2008.40794        -5.04824         6.11221
     2008.41067       -13.17852         6.02225
     2008.41341       -16.00081         6.17393
     2008.41615        -6.00609         5.98250
     2008.41889        -4.83038         5.91450
     2008.42162        -7.06166         6.20426
     2008.42413       -10.27659         6.71475
     2008.42710       -10.15024         6.24820
     2008.42984        -9.69952         6.09861
     2008.43258        -3.98681         6.12162
     2008.43531       -13.57309         6.06095
     2008.43805       -13.69538         6.19066
     2008.44079       -12.30666         6.12895
     2008.44353       -15.36295         6.06304
     2008.44626       -10.75124         6.09861
     2008.44900       -12.32052         5.99923
     2008.45174       -14.07581         6.24088
     2008.45448       -11.68809         6.14882
     2008.45722       -17.16838         5.98250
     2008.45995       -11.13066         6.03271
     2008.46269       -12.18595         6.16137
     2008.46543       -15.20824         6.02539
     2008.46817       -12.77552         6.07037
     2008.47091       -22.09381         6.19485
     2008.47364       -12.13809         6.06304
     2008.47639       -11.83336         6.18020
     2008.47912       -15.50366         6.08187
     2008.48186       -12.76695         5.98668
     2008.48459       -10.37124         6.26494
     2008.48733       -13.60952         6.09966
     2008.49007       -12.32081         6.04317
     2008.49281       -13.36209         6.08083
     2008.49555       -19.90738         6.33293
     2008.49828       -15.44566         6.29632
     2008.50102       -21.37795         6.29213
     2008.50376        -7.94523         6.42812
     2008.50650       -12.23052         6.13836
     2008.50924       -14.08881         6.19590
     2008.51197        -1.32409         6.07664
     2008.51471       -14.93838         6.03898
     2008.51745        -8.90666         6.09547
     2008.52019        -7.68695         6.14255
     2008.52292        -7.20623         6.30259
     2008.52566       -17.42852         6.19590
     2008.52840        -6.67081         6.00656
     2008.53114        -9.19109         6.08815
     2008.53388        -4.66138         6.08292
     2008.53661       -11.19766         6.03898
     2008.53935       -13.58595         6.25657
     2008.54209        -9.25023         6.00446
     2008.54483        -6.31652         6.29004
     2008.54757       -11.99981         6.26284
     2008.55030       -10.18909         6.17184
     2008.55304       -11.40238         6.28586
     2008.55578        -2.64666         6.10070
     2008.55852        -3.84695         6.07769
     2008.56125       -12.74223         6.00551
     2008.56399       -10.99452         6.08815
     2008.56673       -15.24281         6.18857
     2008.56947        -1.63809         6.03794
     2008.57221        -0.21938         6.22100
     2008.57494        -0.95266         6.44277
     2008.57768        -4.45195         6.41557
     2008.58042        -6.18923         6.11430
     2008.58316         2.98948         6.08920
     2008.58590         0.66119         5.98250
     2008.58863        -4.25709         6.17916
     2008.59137       -11.27838         7.03275
     2008.59411        -8.82866         6.03062
     2008.59685       -14.76195         6.17811
     2008.59958        -1.29523         6.27435
     2008.60232         6.28448         6.38523
     2008.60506        -1.98180         6.21159
     2008.60780        -5.11509         6.24820
     2008.61054        -7.85638         6.09756
     2008.61327        -9.61066         6.07141
     2008.61601         0.42905         6.07350
     2008.61875        -7.59223         6.09652
     2008.62149        -4.43452         6.20322
     2008.62423        -1.72180         6.17079
     2008.62696        -0.60309         6.18020
     2008.62970         5.31962         6.36117
     2008.63244         1.48534         6.19276
     2008.63518         1.20705         6.40929
     2008.63791         2.26277         6.22309
     2008.64065        -0.92952         6.20217
     2008.64339        -1.52980         6.14150
     2008.64613        -8.23109         6.41662
     2008.64887         4.84962         6.19380
     2008.65160         4.86934         6.15405
     2008.65434        -2.15995         6.21368
     2008.65708         3.98877         6.42185
     2008.65982        -1.42052         6.16974
     2008.66256         3.77020         6.07455
     2008.66529        -1.49609         6.11744
     2008.66803        -5.76538         6.08920
     2008.67077        -6.18666         6.04317
     2008.67351        -5.85495         5.99296
     2008.67624        -0.57223         6.59654
     2008.67898         2.09648         6.06827
     2008.68172         2.74420         6.01388
     2008.68446        -2.28609         6.12267
     2008.68720        -8.21638         5.99819
     2008.68993        -5.84566         6.10279
     2008.69267        -4.17795         6.02120
     2008.69540        -2.20525         6.05258
     2008.69815        -5.52052         6.16347
     2008.70089        -3.99580         6.13313
     2008.70362        -2.40209         6.01911
     2008.70636         0.80763         5.96471
     2008.70910        -5.19966         6.22937
     2008.71184        -4.93495         6.41871
     2008.71457        -2.61223         6.07246
     2008.71731        -3.63852         6.20740
     2008.72005        -1.60980         6.09966
     2008.72279         0.23191         6.11221
     2008.72553        -5.63137         6.16556
     2008.72826        -4.32066         6.05781
     2008.73100        -2.23995         6.25761
     2008.73374        -1.68423         6.41452
     2008.73648         0.43148         6.06932
     2008.73921         0.63620         6.16242
     2008.74469        -3.61337         6.03375
     2008.74743        -7.76266         6.04108
     2008.75017        -1.10795         6.07873
     2008.75290         4.64177         6.09233
     2008.75564         6.69848         6.18543
     2008.75838         2.67620         6.13313
     2008.76112        -1.67509         6.11953
     2008.76386        -0.14137         6.07037
     2008.76659        -5.10766         6.30678
     2008.76933        -7.64795         6.19276
     2008.77207       -12.60823         6.00865
     2008.77481        -7.41452         6.06932
     2008.77754       -14.61680         5.97831
     2008.78028       -11.51309         6.02957
     2008.78302        -2.38937         6.12895
     2008.78576        -6.25666         6.07978
     2008.78850       -10.40995         6.14568
     2008.79123       -10.53823         6.17811
     2008.79397        -9.23852         6.54110
     2008.79671        -2.61280         6.24715
     2008.79945       -12.89609         6.15510
     2008.80219        -7.19137         6.12162
     2008.80492       -12.13566         6.09338
     2008.80766        -9.31094         6.11849
     2008.81040        -0.25022         6.18230
     2008.81314        -4.98152         6.18230
     2008.81587        -4.95580         6.10593
     2008.81861        -7.88209         6.00028
     2008.82135       -13.77437         5.99191
     2008.82409       -14.96566         6.18439
     2008.82683        -7.24794         6.06409
     2008.82956       -17.68123         6.15824
     2008.83230        -8.96852         6.18230
     2008.83504        -2.98880         6.09861
     2008.83778        10.10393         6.59863
     2008.84058        -5.36920         6.41243
     2008.84332         1.15252         6.17707
     2008.84599        -1.35094         6.09233
     2008.84879        -7.28307         6.23251
     2008.85147        -4.67552         6.12058
     2008.85420        -7.40380         6.33816
     2008.85694         1.69391         6.07037
     2008.85968        -1.71937         6.03898
     2008.86242        -8.05766         6.13418
     2008.86516         6.74306         6.10803
     2008.86789        -6.52323         6.27958
     2008.87063       -19.02152         6.39674
     2008.87337       -17.87480         6.11012
     2008.87606       -10.95422         6.29736
     2008.87914        -5.28853         7.00660
     2008.88158        -5.17066         6.10907
     2008.88432        -9.89894         6.09966
     2008.88706       -12.74323         6.22623
     2008.88980        -7.19952         6.19694
     2008.89254        -1.50579         6.06095
     2008.89527        -7.38309         6.11744
     2008.89802        -5.91136         6.15405
     2008.90075       -10.16166         6.16870
     2008.90326       -12.52659         6.71161
     2008.90724        -1.77738        12.67737
     2008.90896         1.00949         6.05781
     2008.91170        -3.01580         6.15091
     2008.91444        -0.83909         6.08501
     2008.91718        -4.46037         6.21577
     2008.91991        -2.08666         6.23042
     2008.92265        -3.53694         6.10803
     2008.92539        -7.93023         6.21786
     2008.92813        -5.87451         6.12267
     2008.93086       -15.53080         6.21159
     2008.93360       -12.06209         6.16974
     2008.93634        -8.60637         6.16347
     2008.93908       -13.37366         6.10070
     2008.94182       -16.67594         6.05991
     2008.94455       -14.76623         6.22309
     2008.94729        -9.82251         6.23251
     2008.95003        -1.74880         6.10384
     2008.95277        -8.31909         5.98982
     2008.95551       -11.15837         5.99400
     2008.95824       -17.24366         6.92396
     2008.96098        -8.56094         6.02643
     2008.96372        -1.86523         5.98982
     2008.96646       -29.48151         6.21995
     2008.96919        -9.27880         5.92392
     2008.98288         5.10777         6.02957
     2008.98530        -3.06941         7.08087
     2008.98931        -1.78612        10.94925
     2008.99110        -8.78309         6.03794
     2008.99384        -8.69837         6.19903
     2008.99657       -19.75066         6.16661
     2008.99931       -16.67594         6.23774
     2009.00479        -9.46451         6.10907
     2009.00752        -9.41780         6.05677
     2009.01026       -10.18208         6.06932
     2009.01574        -5.02166         6.15614
     2009.01848        -6.58594         6.09443
     2009.02121        -5.33823         6.28690
     2009.02395       -15.61851         6.13627
     2009.02669       -21.98580         6.06200
     2009.02943       -20.75308         6.06304
     2009.03216       -17.45637         6.08292
     2009.03490       -21.82666         6.06723
     2009.03764       -19.12494         6.09338
     2009.04038       -14.90123         6.02852
     2009.04312       -19.75951         6.05049
     2009.04585       -25.66480         6.02852
     2009.04859       -22.83508         6.04840
     2009.05133       -19.08337         6.08501
     2009.05407       -17.07266         6.04317
     2009.05681       -12.08794         5.93124
     2009.05949       -16.48639         6.55679
     2009.06234       -22.43935         6.19171
     2009.06502       -18.81480         6.07141
     2009.06776       -15.33408         6.02643
     2009.07049       -21.75937         5.95948
     2009.07323       -18.44166         6.05258
     2009.07597       -12.74994         5.96785
     2009.07871       -16.63023         5.96681
     2009.08145       -12.48551         6.85911
     2009.08418       -15.38680         6.38210
     2009.08692       -13.86108         6.13418
     2009.08966       -15.68437         6.20217
     2009.09240       -15.97766         5.98459
     2009.09514       -12.67394         6.03375
     2009.09787        -8.11123         6.03480
     2009.10061        -5.37551         6.06827
     2009.10335       -12.28080         6.01702
     2009.10609        -7.70708         5.98982
     2009.10882       -25.85737         6.08083
     2009.11149       -20.59787         6.25029
     2009.11439       -12.99070         6.29527
     2009.11704       -10.53523         6.00760
     2009.11978        -7.31751         5.94379
     2009.12251        -6.72080         6.07350
     2009.12525        -8.17608         5.98982
     2009.12799        -3.62637         6.02434
     2009.13073        -3.53365         6.04944
     2009.13347        -8.79994         5.97308
     2009.13620       -13.54723         6.06514
     2009.13881       -14.79387         6.39883
     2009.19203        -2.77894        12.83846
     2009.19370       -12.01423         5.96576
     2009.19644       -13.09551         5.93751
     2009.19917        -9.69380         6.00656
     2009.20186        -8.21922         6.20845
     2009.20466       -11.41033         6.05991
     2009.20739        -9.44665         5.98668
     2009.21024       -11.63162         6.24715
     2009.21286       -10.67922         5.93438
     2009.21560        -0.34451         6.10489
     2009.21834       -12.69678         5.97622
     2009.22108        -6.77408         6.03898
     2009.22381       -10.71837         5.92182
     2009.22870       -10.88860         7.97945
     2009.23320        -8.32293        19.74151
     2009.23426       -10.73194         7.84242
     2009.27392        -4.76419        11.09466
     2009.31224       -12.70621        14.94421
     2009.32029       -15.33853        13.99856
     2009.32357       -18.55130        16.84702
     2009.32503       -10.26318         6.39674
     2009.33333       -15.03179         6.16242
     2009.33607       -10.89608         6.13941
     2009.33838        -7.10457         7.45746
