# ================= DQRFIT RESULTS ================
# INPUT FILE: series/BLY1.rad
# OUTPUT: LDETRENDED
# FILTER FUNCTION: f(t)
# f(t)=+line(t)+annual(t)
# line(t)=+P 1+P 2*t
# annual(t)=+P 3*sin(2*pi*t+P 4)
# heav(t)=(t<0?0:1)
# TOTAL OBSERVATIONS MTOT= 3509
# INITIAL TIME INTERVAL= 2022.7488 - 2011.8718 = 10.8770
# TOTAL OBSERVATIONS AFTER PREFILTER M= 3507
# TIME-SPAN= 2022.7488 - 2011.8718 = 10.8770
# OBSERVATIONS: USED M=  3507 REJECTED MTOT-M=     2 %USED=   99.9430
# N=  4 PARAMETERS
# MAXSIG= 175.00000
# MAXRES=  20.17401
# SCALE FACTOR FOR LENGTHS: SCL=  10.00000
# SCALE FACTOR FOR SIGMAS: SCLSIG=   1.00000
# CHI^2=   2970.404 DOF=  3503 CHI^2/DOF=   0.84796
# RMS=      5.227 SDEV=      5.227 MEAN=    0.03910
#  P #       PARAMETER +-    SIGMA %error PARAMETER NAME
# P 1 =      2221.41128 +-   59.742   2.69 YZERO                              
# P 2 =        -1.10196 +-    0.030   2.69 SLOPE                              
# P 3 =         4.45915 +-    0.122   2.74 ANNUAL AMPLITUDE                   
# P 4 =        -3.07824 +-    0.039   1.26 ANNUAL PHASE                       
#       T            LDETRENDED       SIG_OBS
     2011.87177        -0.56126         6.46067
     2011.87405        -1.63575         5.25988
     2011.87953       -10.04772         5.32250
     2011.88227         2.52730         5.30040
     2011.88501         1.06132         5.27277
     2011.88774        -2.70966         5.28382
     2011.89048        -6.02165         5.32618
     2011.89322        -0.89163         5.42195
     2011.89869         2.45740         5.34552
     2011.90143         0.54342         5.37683
     2011.90417        -3.90556         5.30132
     2011.90691         1.05345         5.32802
     2011.90965         0.23147         5.34920
     2011.91238         2.03049         5.41550
     2011.91786         0.57652         5.42655
     2011.92060        -4.20346         5.31145
     2011.92607        -5.22643         5.49378
     2011.92881        -2.80341         5.47628
     2011.93155         1.89861         5.36302
     2011.93702         1.82764         5.38235
     2011.93976         0.57966         5.38051
     2011.94250         3.54268         5.33447
     2011.94524         3.13969         5.38604
     2011.94798         7.79571         5.37038
     2011.95071         2.90673         5.27277
     2012.03285        -1.44076         5.29671
     2012.03559         0.39125         5.47996
     2012.03833        -1.76773         5.21568
     2012.04106         7.36729         5.68071
     2012.04380         3.45831         5.48733
     2012.04654         1.01232         5.20371
     2012.05201        -3.03064         5.81699
     2012.05475         9.72337         5.75253
     2012.05749        -1.28061         5.69084
     2012.06023        -0.19559         5.21476
     2012.06297        -3.26358         5.35197
     2012.06570        -5.20956         5.30961
     2012.07118        -5.98652         5.16687
     2012.07392        -4.02151         5.14570
     2012.07666        -0.84449         5.21292
     2012.07939        -0.23147         5.30316
     2012.08213         2.99254         5.21752
     2012.08458        -1.79675         5.73504
     2012.09034        -4.30941         5.20647
     2012.09308        -0.62139         5.24423
     2012.09582         1.74663         5.43576
     2012.09856         1.30965         5.20003
     2012.10130        -3.74134         5.37222
     2012.10392        -0.22345         5.29579
     2012.10951         5.51271         5.35841
     2012.11225         2.55473         5.69452
     2012.11498        -0.61725         5.25988
     2012.11772         4.92676         5.25067
     2012.12046         3.24478         5.22028
     2012.12320        -0.07420         5.32526
     2012.12867        -2.99817         5.54718
     2012.13141        -3.78615         5.31789
     2012.13415        -2.23213         5.26448
     2012.13689         3.35488         5.29856
     2012.13963         5.00790         5.42655
     2012.14236        -0.79708         5.47720
     2012.14784        -7.53005         5.21936
     2012.15058        -3.80803         5.21108
     2012.15331        -1.67901         5.16135
     2012.15600         1.49094         5.37959
     2012.15833         2.04852         6.72955
     2012.16153        -0.22396         5.22857
     2012.16700        -1.04393         5.19910
     2012.16974        -3.96091         5.15675
     2012.17248        -4.55490         5.14662
     2012.17522        -4.46488         5.34092
     2012.17796        -5.44186         5.25712
     2012.18069        -2.02384         5.18161
     2012.18617        -2.97781         5.18990
     2012.18891         0.88021         5.19910
     2012.19164         6.02522         5.82712
     2012.19438         2.48924         5.44497
     2012.19712        -1.23474         5.14385
     2012.19986        -8.61673         5.44865
     2012.20533        -7.19869         5.38235
     2012.20807        -1.53267         5.22028
     2012.21081         4.37534         5.10242
     2012.21343         4.36223         5.40077
     2012.21902       -11.15461         5.54258
     2012.22450        -5.72357         5.28935
     2012.22724        -1.92656         5.16503
     2012.22997        -1.94854         5.22581
     2012.23271         0.79648         5.44221
     2012.23545        -2.47550         5.24883
     2012.23813       -11.98355         5.73688
     2012.24366         0.20855         5.21108
     2012.24640         0.38056         5.30684
     2012.24914        -1.35142         5.22120
     2012.25188        -5.19940         5.20555
     2012.25462        -3.85839         5.23041
     2012.25735        -5.57537         5.17332
     2012.26283        -5.61233         5.14754
     2012.26557        -3.48932         5.23962
     2012.26819         0.71257         8.15042
     2012.27110        -2.53222         5.39709
     2012.27378        -3.40727         5.16227
     2012.27652         0.83475         5.22397
     2012.28199        -3.81222         5.18161
     2012.28473         0.35780         5.20279
     2012.28747        -7.12118         5.22581
     2012.29021        -8.27316         5.20647
     2012.29295       -13.41815         5.20095
     2012.29568        -6.84913         5.20095
     2012.30116       -10.76610         5.19266
     2012.30390        -7.65108         5.19634
     2012.30663       -11.49106         5.25804
     2012.30937        -3.14305         5.24883
     2012.31211         4.42297         5.38512
     2012.31485        -3.97201         5.35289
     2012.32032        -6.41498         5.31053
     2012.32306        -8.67696         5.24423
     2012.32580        -7.12194         5.20003
     2012.32854        -2.50593         5.34276
     2012.33128        -0.23091         5.29027
     2012.33401         0.88611         5.36486
     2012.63997         5.54426         7.20011
     2012.64613         5.53405         5.08124
     2012.64887         5.06306         5.08492
     2012.65081         8.96620         7.97638
     2012.65434         0.94310         5.39525
     2012.65708         7.40711         5.53429
     2012.65982         5.63113         8.98655
     2012.66529         9.39817         5.13925
     2012.66803         1.76118         5.23041
     2012.67077        10.71720         5.15398
     2012.67351         4.76122         5.21844
     2012.67613         3.23211         5.56836
     2012.67898         7.26525         5.13096
     2012.68446         1.54128         5.22857
     2012.68720         7.29530         5.07847
     2012.68993         4.86132         5.14846
     2012.69273         7.07640         6.45238
     2012.69541         5.39035         5.14846
     2012.69815         2.84237         5.13372
     2012.70362         4.43440         5.21568
     2012.70636         5.91942         5.05545
     2012.70853         1.78381         6.50671
     2012.71184         2.34945         5.04164
     2012.71457         7.04547         5.03980
     2012.71731        10.95449         5.40353
     2012.72279         6.31952         5.06834
     2012.72553         4.61054         5.08308
     2012.72798         6.05724         5.80871
     2012.73100        10.76457         6.99292
     2012.73374         0.03059         5.26172
     2012.73648         4.76561         5.08492
     2012.74195         3.62464         5.21660
     2012.74469         6.03866         5.20923
     2012.74669        10.62186         7.50859
     2012.75017         2.42469         5.32434
     2012.75290         7.32571         5.25067
     2012.75564         3.05673         5.10518
     2012.76112        12.07976         5.15398
     2012.76386         9.67678         5.16964
     2012.76659         9.05779         5.07755
     2012.76933         7.78581         5.10149
     2012.77207         6.55683         5.19726
     2012.77481         5.12985         5.14385
     2012.79397        23.32996        10.45162
     2012.79671         6.17398         5.24238
     2012.79945         4.50300         5.43760
     2012.80219         2.33602         5.27093
     2012.80492         8.86903         5.23410
     2012.80766         0.71405         5.29856
     2012.81040         2.55507         5.25067
     2012.81314        -1.23992         5.17332
     2012.81587        -9.22890         5.21108
     2012.81861        -3.79688         5.36762
     2012.82135         2.80113         5.30040
     2012.82409         0.96315         5.28566
     2012.82683         3.08717         5.18253
     2012.82956         0.80319         5.23502
     2012.83230         3.68920         5.27646
     2012.83504         4.17222         5.33631
     2012.83778         2.87924         5.29395
     2012.84052         7.55925         5.23594
     2012.84257        -4.95048         7.22036
     2012.85968         3.43937         5.18345
     2012.86242         2.07339         5.29211
     2012.86516         9.52241         5.25067
     2012.86789         2.42142         5.40537
     2012.87063         0.60044         5.30040
     2012.87337        -0.93254         5.18621
     2012.87611         6.43747         5.19266
     2012.87885         2.36349         5.24054
     2012.88158         2.92551         5.24975
     2012.88432         9.25953         5.18713
     2012.88706        -5.00146         5.37775
     2012.88980        -2.01044         5.39709
     2012.89253         4.20258         5.21384
     2012.89527        -2.50241         5.23318
     2012.89801         3.03561         5.29211
     2012.90075         6.91663         5.28474
     2012.90349         1.49864         6.48184
     2012.90622         2.08966         5.21015
     2012.90896         5.54768         5.27093
     2012.91170         5.44170         5.28198
     2012.91444        -4.23829         5.29303
     2012.91718        -0.26627         5.11347
     2012.91991         0.64475         5.14477
     2012.92265         3.28576         5.12083
     2012.92539         0.04578         5.27830
     2012.92813        -1.87820         5.16964
     2012.93086        -6.05219         5.33907
     2012.93360        -0.77217         5.17793
     2012.93634         3.98185         5.07847
     2012.93908        -2.80613         5.25620
     2012.94182        -0.41012         5.15398
     2012.94455        10.02790         5.16503
     2012.94729        -0.76008         5.22305
     2012.95003         5.53093         5.17332
     2012.95277        10.29695         5.09044
     2012.95551         7.98997         5.16043
     2012.95824        -2.93002         5.18805
     2012.96098        -1.87600         5.27646
     2012.96372         2.29302         5.18898
     2012.96646         7.61404         5.09873
     2012.96919        -1.54595         5.23318
     2012.97193        -4.38093         5.27093
     2012.97467        -0.49291         5.22397
     2012.97741        -3.35490         5.21384
     2012.98015        -1.35688         5.20831
     2012.98288        -1.62786         5.15675
     2012.98562         1.77315         5.13096
     2012.98836        -1.64983         5.22305
     2012.99087        -1.74106         5.63743
     2012.99384        -7.69479         5.03888
     2012.99657        -4.79078         5.11991
     2012.99931        -3.95576         5.18069
     2013.00205        -6.09974         5.15490
     2013.00479        -5.01173         5.12728
     2013.00752        -6.44071         5.11715
     2013.01026        -5.16069         5.19450
     2013.01300        -4.65168         5.16043
     2013.01574        -5.25366         5.11807
     2013.01848        -9.06064         5.20923
     2013.02121         0.16738         5.15398
     2013.02395       -11.81561         5.28014
     2013.02669        -0.59459         5.38972
     2013.02943        -1.78657         5.28751
     2013.03216        -7.20456         5.30224
     2013.03456       -12.31292         6.23230
     2013.03764       -10.75552         5.30869
     2013.04038       -16.35551         5.44405
     2013.04312       -13.69649         5.42011
     2013.04585       -15.14047         6.48553
     2013.04859       -14.00845         5.35841
     2013.05133       -15.28744         5.20831
     2013.05407       -11.72242         5.23410
     2013.05681        -9.36940         5.23594
     2013.05954       -10.96839         5.23226
     2013.06228        -8.13637         5.29671
     2013.06502        -5.09435         5.29027
     2013.06776        -2.30234         5.20187
     2013.07049        -7.70832         5.26541
     2013.07323        -1.32030         5.18161
     2013.07597        -4.63028         5.20279
     2013.07871        -2.61327         5.14293
     2013.08145        -8.02025         5.14662
     2013.08418        -6.08323         5.15582
     2013.08692        -8.58222         5.20187
     2013.08966       -11.83720         5.17424
     2013.09240        -5.02718         5.17793
     2013.09514        -5.74817         5.16872
     2013.09787        -3.49415         5.36578
     2013.10061        -4.44413         5.52601
     2013.10335        -7.92911         5.25159
     2013.10609        -9.33910         5.22213
     2013.10882        -0.79208         5.11531
     2013.11156       -11.63806         5.28106
     2013.11430        -5.50405         5.11899
     2013.11704        -9.59803         5.22120
     2013.11978        -6.55801         5.37775
     2013.12251       -11.14200         5.17516
     2013.12525       -11.41898         5.32802
     2013.12799        -8.11096         5.20463
     2013.13073        -6.90194         5.16595
     2013.13347        -3.51993         5.18069
     2013.13620        -3.48791         5.18898
     2013.13894        -5.93689         5.14570
     2013.14168        -3.49788         5.20003
     2013.14442        -4.55786         5.40722
     2013.14715        -5.75984         5.42103
     2013.14989        -9.63182         5.15859
     2013.15263        -9.69581         5.22305
     2013.15537       -14.24479         5.15214
     2013.15811       -15.03677         5.22673
     2013.16084       -10.94676         5.18805
     2013.16358       -13.04474         5.21752
     2013.16632        -7.72772         5.18161
     2013.16906        -4.82671         5.21476
     2013.17180        -3.87369         5.21292
     2013.17453       -10.44367         5.24054
     2013.17727        -4.57765         5.31697
     2013.18001        -5.20164         5.30040
     2013.18275        -8.82762         5.39340
     2013.18548        -9.41060         5.21660
     2013.18822       -13.19959         5.23226
     2013.19096        -3.58457         5.18069
     2013.19370        -7.94255         5.19634
     2013.19644        -6.80854         5.20187
     2013.19917        -5.38952         5.30040
     2013.20191        -8.84450         5.26448
     2013.20465         0.42852         5.18805
     2013.20739        -4.05847         5.19082
     2013.21013        -2.56345         5.16687
     2013.21286        -2.98543         5.20095
     2013.21560       -13.27842         5.26817
     2013.21834       -10.27240         5.21292
     2013.22108        -0.81838         5.16780
     2013.22381        -4.57737         5.14293
     2013.22655        -8.24135         5.16227
     2013.22929       -12.01933         5.25804
     2013.23203        -7.09231         5.17516
     2013.23477        -5.01930         5.26725
     2013.23750        -4.84328         5.38051
     2013.24024        -5.74126         5.27646
     2013.24298        -8.58525         5.32066
     2013.24572         1.00777         5.31881
     2013.24846        -3.60121         5.32342
     2013.25119        -4.07820         5.28935
     2013.25393        -6.28518         5.28566
     2013.25667        -3.00516         5.63651
     2013.25941        -2.38614         5.28382
     2013.26214        -5.12913         5.33539
     2013.26488        -6.54511         5.30316
     2013.26762         3.44591         5.27277
     2013.27036        -7.04308         5.36486
     2013.27310        -3.77006         5.41274
     2013.27583        -6.80104         5.36025
     2013.27857        -2.81203         5.35657
     2013.28131         2.61099         5.27093
     2013.28405        -4.63699         5.26080
     2013.28679         1.46403         5.26541
     2013.28952        -4.89296         5.29303
     2013.29226        -9.16394         5.24146
     2013.29500        -8.62592         5.27093
     2013.29774       -11.72591         5.31789
     2013.30047        -7.20989         5.29303
     2013.30321        -8.58287         5.29211
     2013.30595        -9.03486         5.24423
     2013.30869       -10.71384         5.23041
     2013.31143        -9.57682         5.24146
     2013.31416        -4.02480         5.30684
     2013.31690        -0.09779         5.23870
     2013.31964        -1.42077         5.21844
     2013.32238        -8.06875         5.16595
     2013.32512        -4.75274         5.24331
     2013.32785        -1.92272         5.30132
     2013.33059        -9.08070         5.26264
     2013.33333       -12.26369         5.25620
     2013.33607        -8.48667         5.20923
     2013.33880        -7.65165         5.21752
     2013.34154         1.31737         5.23594
     2013.34428        -2.75662         5.26725
     2013.34702        -6.08660         5.44865
     2013.34976        -6.13958         5.47352
     2013.35249       -10.15057         5.28106
     2013.35523       -16.15455         5.43760
     2013.35797       -14.07053         5.31145
     2013.36071       -12.36252         5.38604
     2013.36344        -3.20850         5.35565
     2013.36618        -5.71348         5.34460
     2013.36892         0.43954         5.24699
     2013.37166        -7.55645         5.24791
     2013.37440        -2.01243         5.25712
     2013.37713        -5.59941         5.30592
     2013.37987        -8.00240         5.23778
     2013.38261        -9.97438         5.21476
     2013.38535       -10.41436         5.35012
     2013.38809        -6.26235         5.33263
     2013.39082         0.06767         5.33999
     2013.39356        -1.60031         5.29487
     2013.39630        -6.21729         5.22120
     2013.39904        -4.62728         5.26448
     2013.40177        -3.05426         5.22120
     2013.40451        -6.53124         5.22949
     2013.40725        -7.44423         5.30961
     2013.40999        -1.06721         5.21752
     2013.41273        -2.10519         5.18437
     2013.41546        -2.84318         5.43392
     2013.41820        -8.46116         5.27553
     2013.42094        -0.98114         5.26356
     2013.42368        -2.67212         5.26725
     2013.42642        -2.70411         5.27830
     2013.42915        -3.17509         5.38143
     2013.43190        -6.81807         5.24791
     2013.43463        -2.94706         5.29119
     2013.43737        -3.53004         5.22857
     2013.44010        -6.52802         5.32710
     2013.44284        -2.49801         5.34276
     2013.44558        -3.35599         5.30961
     2013.44832        -8.05597         5.23594
     2013.45106        -4.95195         5.46247
     2013.45379        -3.41994         5.19174
     2013.45653        -2.70792         5.26725
     2013.45927        -9.88990         5.23686
     2013.46201         0.88311         5.27001
     2013.46475        -2.48087         5.32066
     2013.46748        -5.84785         5.20463
     2013.47022        -9.49684         5.21936
     2013.47296        -4.48182         5.13833
     2013.47570        -0.22180         5.12912
     2013.47843        -5.06578         5.33631
     2013.48117        -7.85577         5.25436
     2013.48391        -7.02675         5.35933
     2013.48665        -6.54973         5.20739
     2013.48939        -7.63672         5.30500
     2013.49212        -8.73270         5.32710
     2013.49486        -5.37268         5.29395
     2013.49760        -5.45367         5.25896
     2013.50034        -3.81465         5.17885
     2013.50308         0.03137         5.36302
     2013.50581        -1.35761         5.24515
     2013.50855         1.60740         5.16411
     2013.51129         1.10442         5.25159
     2013.51403        -2.67356         5.18621
     2013.51676         0.34045         5.22949
     2013.51950        -6.38853         5.34828
     2013.52224         1.46449         5.30040
     2013.52498        -7.70150         5.47628
     2013.52772        -5.24048         5.18898
     2013.53045        -7.09446         5.19266
     2013.53319         0.97456         5.16964
     2013.53593        -5.66043         5.22397
     2013.53867        -0.14041         5.20647
     2013.54141        -1.25539         5.27461
     2013.54415         1.85163         5.20831
     2013.54688        -0.55536         5.19174
     2013.54962         1.96266         5.21200
     2013.55236         3.46167         5.26356
     2013.55509         5.74269         5.26080
     2013.55681         2.14258        10.08144
     2013.57528        -9.76706        11.58979
     2013.57700         4.92083         5.22673
     2013.57974         2.80684         5.22213
     2013.58248         8.76587         5.39156
     2013.58521         8.16688         5.20279
     2013.58794         2.85789         5.18805
     2013.59069         2.79091         5.24054
     2013.59342         7.97693         5.27185
     2013.59616         6.78295         5.28843
     2013.59890         3.21196         5.28751
     2013.60163         4.70298         5.31421
     2013.60438         4.32600         5.26264
     2013.60711        -0.25199         5.28106
     2013.60985         1.43803         5.21752
     2013.61259         5.38905         5.31145
     2013.61533        10.34707         5.43484
     2013.61807         7.31208         5.40906
     2013.62080         7.66410         5.26909
     2013.62257        -8.44395         9.60628
     2013.63529        -0.79594         8.79870
     2013.63723        10.25620         5.25251
     2013.63997         0.49422         6.35477
     2013.64271        -1.01476         5.26541
     2013.64544         5.98725         5.25896
     2013.64818         0.89527         5.29764
     2013.65092        -0.74171         5.30316
     2013.65366         3.16230         5.22857
     2013.65639        10.12532         5.23778
     2013.65913         1.63734         5.47904
     2013.66187         8.43035         5.22765
     2013.66461         2.68537         5.19726
     2013.66735         6.11239         5.40445
     2013.67008        11.56441         5.46247
     2013.67282        10.30342         5.34092
     2013.67556         8.18144         5.35749
     2013.67830         0.06746         5.31329
     2013.68104         7.20747         5.16135
     2013.68377         3.59049         5.23410
     2013.68651         4.11651         5.24238
     2013.68925         3.71352         5.30316
     2013.69199         7.98654         5.35565
     2013.69472         7.84356         5.26080
     2013.69746        -1.02142         5.21292
     2013.70020        10.10359         5.20003
     2013.70294        14.48761         5.20831
     2013.70568        10.03963         5.27277
     2013.70841         6.04864         5.29948
     2013.71115         5.50366         5.36302
     2013.71389         4.38968         5.20279
     2013.71663         6.68869         5.14293
     2013.71937         6.65471         5.21844
     2013.72210         9.65273         5.29211
     2013.72484         8.75975         5.27001
     2013.72758         3.74277         5.18069
     2013.73032         9.36878         5.25343
     2013.73305        13.00380         5.23133
     2013.73579         7.98381         5.15030
     2013.73853         5.89283         5.22305
     2013.74127        10.53685         5.19082
     2013.74401        14.96187         5.38235
     2013.74674        12.27188         5.21476
     2013.74948        10.32090         5.25528
     2013.75222         1.13292         5.09781
     2013.75496        -4.84907         5.15030
     2013.75770        -1.73305         5.20555
     2013.76043         0.90197         5.13833
     2013.76317         3.37198         5.22305
     2013.76590         4.40500         5.22765
     2013.76865         4.67002         5.22489
     2013.77138         5.08104         5.15859
     2013.77412         2.48505         5.18621
     2013.77686        -0.34293         5.33723
     2013.77960         6.07109         5.27001
     2013.78233        -0.43390         5.20003
     2013.78507        -2.35688         5.20831
     2013.78781        -6.88786         5.20647
     2013.79055        -0.30885         5.17608
     2013.79329         0.01717         5.23594
     2013.79603         2.57419         5.13649
     2013.79876         1.10421         5.11899
     2013.80150         3.49122         5.29303
     2013.80424         7.06824         5.27001
     2013.80698         2.86926         5.22489
     2013.80971         9.71027         5.14385
     2013.81245         9.47729         5.12360
     2013.81519         0.48831         5.22213
     2013.81793        -0.77068         5.18990
     2013.82067         2.00534         5.23410
     2013.82340         5.60336         5.25251
     2013.82614         7.47638         5.36394
     2013.82888         9.30639         5.12083
     2013.83162         2.29541         5.20463
     2013.83436         4.57343         5.38512
     2013.83709         6.08844         5.37314
     2013.83983         9.18346         5.20371
     2013.84257         3.92148         5.24607
     2013.84531        -0.24951         5.32434
     2013.84804        -0.98549         5.19726
     2013.85078         2.96653         5.24699
     2013.85352         5.41455         5.21292
     2013.85626         7.89456         5.21200
     2013.85900         6.21458         5.19174
     2013.86173         4.17360         5.22213
     2013.86447         3.17261         5.37867
     2013.86721         0.96763         5.20923
     2013.86995         9.72465         5.18621
     2013.87269        10.24766         5.20095
     2013.87542         8.59468         5.14570
     2013.87816        11.44870         5.15122
     2013.88090         8.60572         5.27830
     2013.88364        12.89873         5.42011
     2013.88637         3.32274         5.24883
     2013.88911         5.14077         5.23318
     2013.89185        -2.20922         5.15306
     2013.89459        -5.62620         5.19266
     2013.89664        11.75906         7.47268
     2013.90006         0.42083         5.27001
     2013.90280         2.05285         5.24883
     2013.90554        -0.54613         5.17424
     2013.90742        10.96294         8.74345
     2013.91039         9.61621         7.23970
     2013.91341         7.09154         6.23782
     2013.91649         4.13494         5.31697
     2013.91923        -0.22005         5.88790
     2013.92197         2.71497         5.28659
     2013.92470         8.16299         5.16595
     2013.92744         3.58300         5.28566
     2013.93018         5.65902         5.21384
     2013.93291         4.50103         5.07847
     2013.93566         5.07806         5.04716
     2013.93839         5.30207         5.10886
     2013.94113         2.27509         5.12820
     2013.94387         2.73811         5.15767
     2013.94661         3.44012         5.19358
     2013.94935         7.98514         5.00757
     2013.95208         4.11416         5.09965
     2013.95482         0.83917         5.15490
     2013.95755         2.51519         5.18069
     2013.96030         3.49321         5.09597
     2013.96303         5.11523         5.12912
     2013.96578        12.79325         5.13925
     2013.96851         9.49526         5.20923
     2013.97125        12.27328         5.15122
     2013.97399         3.67329         5.15398
     2013.97672        -3.72369         5.16872
     2013.97946         3.93333         5.13649
     2013.98220         3.05434         5.33171
     2013.98494        -3.04764         5.17977
     2013.98767        -2.81062         5.17516
     2013.99041        -2.27460         5.20463
     2013.99315        -1.95959         5.16687
     2013.99589         3.51443         5.16780
     2013.99863        -1.84555         5.22120
     2014.00410        -3.68852         5.22397
     2014.00684         3.02950         5.31145
     2014.00958         1.39451         5.16319
     2014.01232        -2.37047         5.30408
     2014.01505        -3.73745         5.28843
     2014.01779         2.50957         5.24054
     2014.02053         4.39758         5.28290
     2014.02327        -0.34440         5.42655
     2014.02600         3.31862         5.32526
     2014.02874         5.50963         5.19910
     2014.03148         3.56865         5.24423
     2014.03422         3.24867         5.22673
     2014.03696        -1.01032         5.22581
     2014.03969         3.56870         5.19634
     2014.04249         2.64878         5.74885
     2014.04517         4.19574         5.30592
     2014.04791         4.50075         5.22120
     2014.05065         7.01777         5.18805
     2014.05338         1.62379         5.23502
     2014.05612        -0.75120         5.13372
     2014.05886         2.85682         5.24791
     2014.06160         3.94684         5.36946
     2014.06433         4.93885         5.33723
     2014.06707         6.78087         5.38696
     2014.06981         9.04089         5.28843
     2014.07255         4.19491         5.23778
     2014.07529         4.56392         5.21936
     2014.07802        -1.94706         5.21292
     2014.08076         9.00596         5.20831
     2014.08350         6.38497         5.22028
     2014.08624         6.86999         5.15767
     2014.08898         7.57301         5.39525
     2014.09172         2.97603         5.37130
     2014.09445         3.88704         5.17608
     2014.09702         3.79287         5.64295
     2014.09993        15.50108         5.08308
     2014.10266         2.99009         5.28751
     2014.10540         6.26811         5.32158
     2014.10814         4.58213         5.25343
     2014.11088         6.77114         5.39525
     2014.11362         4.38416         5.28751
     2014.11635         4.23118         5.14293
     2014.11909       -12.55781         5.25251
     2014.12183         1.63821         5.29211
     2014.12457         2.09223         5.48180
     2014.12731         8.10725         5.15582
     2014.13004         5.99526         5.21844
     2014.13278         3.85828         5.39156
     2014.13552         5.78030         5.43300
     2014.13826         6.77131         5.28014
     2014.14099         6.84233         5.28014
     2014.14374         7.12435         5.25528
     2014.14647         7.23836         5.26633
     2014.14921         8.52438         5.25528
     2014.15195         2.62940         5.29948
     2014.15468         7.62542         5.41642
     2014.15742         6.91643         5.43484
     2014.16016        16.02845         5.53890
     2014.16290         2.60047         5.35104
     2014.16564        -6.02952         5.53521
     2014.16837        -5.89550         5.56376
     2014.17111         4.87752         5.41090
     2014.17385         1.03153         5.56836
     2014.17659         3.33755         5.36302
     2014.17932         8.64657         5.61349
     2014.18206         3.88759         5.49654
     2014.18480        -0.18140         6.43212
     2014.18754        -1.22338         5.36117
     2014.19028         1.73164         5.31881
     2014.19301         1.23065         5.39525
     2014.19575         2.80767         5.31789
     2014.19849         3.87969         5.43484
     2014.20123         0.43170         5.29764
     2014.20397        -6.66528         5.33907
     2014.20670         2.45174         5.38512
     2014.20944         6.70876         5.27646
     2014.21218         7.88977         5.36302
     2014.21492         8.06879         5.45510
     2014.21765         7.15181         5.31145
     2014.22039         1.88082         5.28566
     2014.22313         3.21584         5.30684
     2014.22587         1.47386         5.33263
     2014.22861         4.10387         5.55824
     2014.23134         6.32889         5.39801
     2014.23408         3.83391         5.28751
     2014.23682         2.12193         5.28843
     2014.23956        -7.11606         5.43852
     2014.24230         3.39196         5.36578
     2014.24503        -2.07402         5.31881
     2014.24777         4.25599         5.47168
     2014.25051         1.53801         5.33631
     2014.25325        -3.24197         5.34276
     2014.25598         7.26804         5.46431
     2014.25872         1.01306         5.33079
     2014.26146         3.50708         5.47260
     2014.26420        -4.11990         5.29764
     2014.26694        -4.62389         5.33355
     2014.26967         1.80413         5.25988
     2014.27241        -1.02185         5.51311
     2014.27515        -1.27684         5.47628
     2014.27789         1.20018         5.31513
     2014.28062         6.66920         5.28382
     2014.28336         1.83621         5.33539
     2014.28610        -1.12777         5.32526
     2014.28884        -0.43275         5.56468
     2014.29158        -4.31673         5.34920
     2014.29431         2.86728         5.34184
     2014.29705         5.78230         5.32618
     2014.29979        -1.72468         5.28014
     2014.30253        -0.59267         5.31053
     2014.30527         4.17235         5.31789
     2014.30800         2.80637         5.35565
     2014.31074        -5.66562         5.50206
     2014.31348         1.11440         5.23133
     2014.31622         4.78842         5.26909
     2014.31895        -5.83156         5.32894
     2014.32169        -5.20755         5.40353
     2014.32443        -9.76753         5.42563
     2014.32717        -5.88751         5.42932
     2014.32991         4.00750         5.42747
     2014.33264         4.86052         5.32250
     2014.33538        -1.03746         5.39985
     2014.33812        -3.06345         5.31513
     2014.34086         2.45158         5.33355
     2014.34360         2.42559         5.31697
     2014.34633         0.93761         5.26633
     2014.34907        -2.76938         5.77924
     2014.35181        -1.17236         5.45326
     2014.35455        -5.87734         5.38604
     2014.35729        -3.94832         5.29027
     2014.36002        -7.12131         5.30776
     2014.36276        -8.80329         5.27093
     2014.36550        -4.26027         5.31053
     2014.36824         1.62374         5.39617
     2014.37097        -2.62024         5.73412
     2014.37372         4.88378         5.35749
     2014.37645         4.01179         5.42379
     2014.37919        -3.75519         5.39801
     2014.38193        -1.29417         5.39340
     2014.38466         2.84484         5.45970
     2014.38740         0.24286         5.46247
     2014.39014        -1.31912         5.46799
     2014.39288        -2.60910         5.42195
     2014.39561        -1.52009         5.40261
     2014.39835        -1.38708         5.45142
     2014.40109         0.31895         5.37775
     2014.40383        -0.21204         5.38512
     2014.40657        -1.36402         5.36670
     2014.40930         0.34200         5.39893
     2014.41204        -2.30899         5.51403
     2014.41478         0.36703         5.32158
     2014.41752         1.94005         5.25988
     2014.42026         4.83407         5.40630
     2014.42299         0.32108         5.26541
     2014.42573        -1.00690         5.36670
     2014.42847         2.50912         5.40077
     2014.43121        -3.73987         5.32710
     2014.43394        -2.33085         5.30224
     2014.43668         6.39217         5.27093
     2014.43942         2.56018         5.34092
     2014.44216        -1.17780         5.33907
     2014.44490         1.86022         5.44865
     2014.44763         4.58724         5.55363
     2014.45037         1.03525         5.26172
     2014.45311         0.46727         5.32342
     2014.45585         1.67629         5.25620
     2014.45859        -2.49669         5.26725
     2014.46132         1.92632         5.23226
     2014.46406        -0.41466         5.21384
     2014.46680        -3.85865         5.36762
     2014.46954        -5.31463         5.26633
     2014.47227         1.08339         5.28935
     2014.47501         1.52441         5.28474
     2014.47775        -1.58858         5.35012
     2014.48049        -0.62356         5.24331
     2014.48323         5.91646         5.31881
     2014.48596         7.17847         5.46523
     2014.48870         0.80649         5.36209
     2014.49144         1.73051         5.27093
     2014.49418        -1.65948         5.20647
     2014.49692        -2.74246         5.15214
     2014.49965        -3.31844         5.32434
     2014.50239        -7.73342         5.47352
     2014.50513        -1.44441         5.33815
     2014.50787         0.09961         5.41735
     2014.51060        -2.05637         5.25620
     2014.51334         2.96764         5.22949
     2014.51608         7.83566         5.24238
     2014.51882        -4.02432         5.28843
     2014.52156         2.67069         5.49378
     2014.52429         4.41371         5.28290
     2014.52703         5.21573         5.30776
     2014.52976         0.75574         5.32618
     2014.53251         4.64276         5.31053
     2014.53525         0.53878         5.27461
     2014.53798         5.29580         5.30040
     2014.54072         0.83781         5.52232
     2014.54346         1.29483         5.28198
     2014.54620         1.74385         5.41919
     2014.54894         4.18487         5.36302
     2014.55167         4.99888         5.36670
     2014.55441        -3.51410         5.35565
     2014.55715        -1.62208         5.43668
     2014.55989         2.60593         5.26909
     2014.56262         4.94995         5.21200
     2014.56536         3.82197         5.20187
     2014.56810        -2.09902         5.45510
     2014.57084         0.35900         5.24607
     2014.57357         6.05502         5.30592
     2014.57631         4.61503         5.27922
     2014.57905        -1.78395         5.39893
     2014.58179         4.08307         5.35012
     2014.58453         8.28409         5.28659
     2014.58726         0.08910         5.58218
     2014.59006         2.90318         5.53982
     2014.59274         1.96414         5.48825
     2014.59548         1.76115         5.43760
     2014.59822         2.64217         5.50206
     2014.60095         4.89119         5.51956
     2014.60369         5.24520         5.44773
     2014.60643        -1.73878         5.35473
     2014.60917        -4.47376         5.37683
     2014.61190         6.00326         5.57297
     2014.61464         4.69427         5.66321
     2014.61738        -4.66571         5.41458
     2014.62012         4.31331         5.43392
     2014.62286         7.91332         5.32618
     2014.62559         1.50234         5.34184
     2014.62833         5.93936         5.46891
     2014.63107         5.92437         5.38512
     2014.63381        -0.16961         5.40906
     2014.63655        -0.54859         5.50575
     2014.63928         1.86343         5.47444
     2014.64202        -2.84756         5.22765
     2014.64476        -1.23754         5.30408
     2014.64750         1.13148         5.27646
     2014.65023        -0.25151         5.31053
     2014.65252         7.25401         6.46711
     2014.65942        -5.29139        10.42123
     2014.66119         0.86856         5.30869
     2014.66392         5.92658         5.29671
     2014.66666         5.96260         5.32158
     2014.66940         4.88061         5.22581
     2014.67214        -0.54537         5.19634
     2014.67488         2.14565         5.24054
     2014.67761         4.93266         5.34828
     2014.68035         2.69568         5.26172
     2014.68309        -0.81730         5.30132
     2014.68583         2.32371         5.23226
     2014.68856         0.85373         5.19726
     2014.69130         2.54175         5.27830
     2014.69398        -2.57030         5.33263
     2014.69678         0.99778         5.22765
     2014.69952         7.76780         5.15767
     2014.70225         0.93482         5.23133
     2014.70499         0.88383         5.29027
     2014.70773         2.53385         5.34920
     2014.71047         8.83187         5.29671
     2014.71321         7.81388         5.12267
     2014.71594         5.55090         5.20279
     2014.71868         8.55592         5.22857
     2014.72142         6.82994         5.17793
     2014.72416         2.71995         5.30040
     2014.72689        11.18197         5.25528
     2014.72963        10.31799         5.20371
     2014.73237         7.77400         5.15767
     2014.73511        -0.49698         5.20923
     2014.73785         7.64004         5.41550
     2014.74058        11.47605         5.22305
     2014.74332         4.23907         5.26448
     2014.74606         1.58109         5.25712
     2014.74880         3.27711         5.11531
     2014.75154         7.49212         5.28566
     2014.75427         1.86814         5.15398
     2014.75701         0.74316         5.18345
     2014.75975         1.80617         5.11162
     2014.76249         6.99419         5.13004
     2014.76522         2.14721         5.17608
     2014.76796         3.21222         5.17700
     2014.77070         1.64324         5.11162
     2014.77344         0.25326         5.14662
     2014.77618        -0.08872         5.37038
     2014.77891         7.45229         5.20463
     2014.78165         7.67831         5.17793
     2014.78439        12.31333         5.15490
     2014.78713         6.27534         5.21384
     2014.78987         1.99536         5.14754
     2014.79260        13.75738         5.13280
     2014.79534         7.25739         5.32710
     2014.79808         8.46542         5.25436
     2014.80082         7.86543         5.31053
     2014.80355         6.87845         5.18898
     2014.80629         0.76446         5.29948
     2014.80903         1.73948         5.21660
     2014.81177         2.46150         5.21476
     2014.81451         3.30252         5.45418
     2014.81724         8.47053         5.08124
     2014.81998         8.02155         5.15675
     2014.82266         4.24750         5.36946
     2014.82449        24.01751        10.07039
     2014.82820         5.76360         5.07571
     2014.83093         5.47862         5.23226
     2014.83367         6.87763         5.12820
     2014.83641         7.09965         5.15675
     2014.83914         5.18566         5.15398
     2014.84188         4.50968         5.43024
     2014.84462         2.13970         5.18161
     2014.84736         7.22072         5.24238
     2014.85010         0.99973         5.27646
     2014.85284         4.12275         5.22213
     2014.85557         2.80577         5.29764
     2014.85831         2.88679         5.25620
     2014.86105         4.28480         5.13372
     2014.86379         2.67682         5.20647
     2014.86653         5.75584         5.28382
     2014.86926         4.41785         5.28014
     2014.87200         1.50787         5.28751
     2014.87474         4.13989         5.24331
     2014.87748         3.33090         5.19818
     2014.88021         2.08492         6.95792
     2014.88295         3.67394         5.41919
     2014.88569         8.12596         5.41642
     2014.88843         7.61497         5.49930
     2014.89117         2.39799         5.50022
     2014.89390         3.80701         5.33079
     2014.89664         5.84602         5.37499
     2014.89938         2.75604         5.72767
     2014.90212        -3.09694         5.29671
     2014.90406        -0.44781         8.06662
     2015.23066         0.00610         5.15490
     2015.23340         2.41612         5.39709
     2015.23613        -1.06187         5.42195
     2015.23887        -1.44185         5.52693
     2015.24161         0.52317         5.51864
     2015.24435        -9.34382         5.63651
     2015.24709         1.31220         5.34552
     2015.24982        -3.14078         5.19910
     2015.25256         0.22123         5.24791
     2015.25530        -2.02175         5.24791
     2015.25804        -7.64273         5.21292
     2015.26078         2.35529         5.17608
     2015.26351         3.60930         5.20739
     2015.26625        -4.14868         5.13280
     2015.26899        -3.19266         5.18437
     2015.27173         7.70435         5.32250
     2015.27446         9.62537         5.30040
     2015.27720         2.24439         5.22028
     2015.27954        -2.00904         6.28570
     2015.28268         1.54742         5.24238
     2015.28542        -0.63156         5.39340
     2015.28815        -5.38654         5.40077
     2015.29089         0.18447         5.17977
     2015.29362         2.40248         5.15214
     2015.29637         0.39951         5.15767
     2015.29911         0.46652         5.25067
     2015.30184         6.42754         5.31053
     2015.30458         1.71056         5.27369
     2015.30732        -0.24943         5.10149
     2015.31006        -3.98941         5.09044
     2015.31279        -2.56139         5.20003
     2015.31553        -0.97637         5.07019
     2015.31827        -6.94836         5.23226
     2015.32101        -2.76834         5.08860
     2015.32375        -8.49532         5.13833
     2015.32648        -5.15431         5.19450
     2015.32923        -0.23728         5.18898
     2015.33196         0.68173         5.08032
     2015.33470         0.80774         5.10334
     2015.33744        -1.46024         5.15675
     2015.34017        -4.66522         5.13833
     2015.34291        -0.57020         5.19082
     2015.34565         1.62081         5.07295
     2015.34839         4.39283         5.12452
     2015.35112        -2.03215         5.19818
     2015.35386         1.97686         5.13004
     2015.35660        -2.48812         5.14846
     2015.35934        -2.12210         5.16503
     2015.36208        -1.74909         5.12360
     2015.36481        -0.44807         5.10978
     2015.36755         1.72295         5.12544
     2015.37029         1.13097         5.14385
     2015.37303        -6.85202         5.13096
     2015.37577        -3.73700         5.16135
     2015.37810        -6.86542         7.40269
     2015.38124        -4.39197         5.18069
     2015.38398         0.10305         5.18713
     2015.38671        -1.56794         5.16319
     2015.38945        -2.41292         5.18805
     2015.39219        -8.07290         5.21936
     2015.39493        -4.25088         5.18621
     2015.39767        -2.13186         5.26172
     2015.40041        -3.64885         5.19634
     2015.40314        -4.86683         5.34184
     2015.40588        -6.22081         5.18345
     2015.40862         5.53420         5.26448
     2015.41136        -0.97277         5.26448
     2015.41410        -4.63376         5.25896
     2015.41683        -4.20775         5.23686
     2015.41957        -2.83773         5.21384
     2015.42231        -1.86571         5.24607
     2015.42505        -2.97169         5.28751
     2015.42778        -3.80768         5.23962
     2015.43052         1.73234         5.20463
     2015.43326        -5.89664         5.17885
     2015.43600         3.37937         5.25436
     2015.43874         0.30939         5.20095
     2015.44147        -2.05360         5.30592
     2015.44421        -9.09358         5.21936
     2015.44695         2.77744         5.26909
     2015.44969        -1.97954         5.15582
     2015.45243         5.53348         5.28198
     2015.45522         5.62056         6.35477
     2015.45790        -5.29249         5.44221
     2015.46064         3.50053         5.40077
     2015.46338         2.13754         5.47720
     2015.46611         3.00956         5.22120
     2015.46885         2.22958         5.20371
     2015.47159         4.29059         5.18069
     2015.47433        -2.45639         5.22120
     2015.47707        -8.48637         5.32618
     2015.47980        -3.20835         5.30684
     2015.48254         0.90266         5.28935
     2015.48528        -4.70732         5.18345
     2015.48802        -2.17730         5.24699
     2015.49076         1.25771         5.31881
     2015.49349         1.12573         5.50483
     2015.49623        -7.71125         5.38419
     2015.49896        -1.09425         5.39617
     2015.50171        -0.75922         5.29211
     2015.50444         8.43880         5.29119
     2015.50718         3.26282         5.19450
     2015.50992         6.06883         5.23410
     2015.51266         4.68085         5.26725
     2015.51540        -0.66013         5.35933
     2015.51808         2.54282         5.94407
     2015.52087        12.08790         5.40630
     2015.52361         1.31792         5.32802
     2015.52635         5.36993         5.26909
     2015.52908        -0.76705         5.17516
     2015.53183        -0.31103         5.32894
     2015.53456         1.43099         5.21108
     2015.53730        -0.23500         5.27093
     2015.54004         5.47802         5.22028
     2015.54277         0.48804         5.25896
     2015.54551         6.38005         5.32434
     2015.54825         6.60007         5.32066
     2015.55099        10.59209         5.45142
     2015.55373         4.32410         5.44037
     2015.55646        14.58412         5.28843
     2015.55920         7.83414         5.23318
     2015.56194         8.60516         5.38788
     2015.56468        11.79717         5.22305
     2015.56741         1.24719         5.40630
     2015.57015        11.31821         5.43208
     2015.57289         8.53422         5.39893
     2015.57563         6.40624         5.21015
     2015.57837         9.79126         5.32342
     2015.58110         7.70028         5.32158
     2015.58384         5.46929         5.31697
     2015.58658        10.28831         5.41090
     2015.58932         4.98033         5.44865
     2015.59206        15.35234         5.42011
     2015.59479         6.69736         5.26356
     2015.59753         8.29438         5.29119
     2015.60027         7.53739         5.39156
     2015.60301        14.69441         5.47996
     2015.60574         6.16543         5.37683
     2015.60848         8.93745         5.34460
     2015.61122        12.12746         5.24515
     2015.61396         9.17648         5.23226
     2015.61670         4.43150         5.25159
     2015.61943         5.19151         5.07203
     2015.62217        12.56953         5.13741
     2015.62491         9.72255         5.12360
     2015.62765         5.06756         5.11439
     2015.63039         4.83858         5.16503
     2015.63312        10.67360         5.23502
     2015.63586        12.37162         5.17516
     2015.63860         5.61063         5.18161
     2015.64134        15.49465         5.14017
     2015.64407         0.94767         5.11807
     2015.64681         1.67468         5.22305
     2015.64955         4.18970         5.19910
     2015.65229        10.09272         5.15122
     2015.65503        14.14473         5.10518
     2015.65776         7.56475         5.27001
     2015.66050        14.80377         5.10518
     2015.66324         8.86479         5.04809
     2015.66598        12.95580         5.16687
     2015.66872        17.73382         5.20003
     2015.67145        13.09684         5.15306
     2015.67419         9.32285         5.08584
     2015.67693         8.02687         5.11070
     2015.67967         9.62289         5.03243
     2015.68240         8.12490         5.05637
     2015.68514         9.05792         5.09873
     2015.68788        13.76394         5.09505
     2015.69062        12.83496         5.07939
     2015.69336         5.65297         5.24238
     2015.69609        10.42899         5.05177
     2015.69883        12.28301         5.04348
     2015.70157         6.79302         5.21108
     2015.70431         7.56604         5.10610
     2015.70705        11.26706         5.03796
     2015.70978        17.18407         5.04256
     2015.71252         9.37209         5.01586
     2015.71526        12.28611         5.08860
     2015.71800        11.01013         5.05637
     2015.72073        14.83614         5.14109
     2015.72307         9.73772         6.09969
     2015.72997        12.68132         9.75546
     2015.73169         7.27521         5.07111
     2015.73363         3.93635         7.79866
     2015.73716        10.29524         5.14570
     2015.73990        14.59126         5.19542
     2015.74264         9.09028         5.28474
     2015.74538        12.75430         5.27093
     2015.74811         9.22831         5.27830
     2015.75085         2.81733         5.09137
     2015.75359        11.17635         5.20463
     2015.75633         4.27936         5.10794
     2015.75906        11.63138         5.05085
     2015.76180         8.91440         5.04901
     2015.76454         8.62741         5.17056
     2015.76728         0.57843         5.09044
     2015.76939       -14.67324        15.42880
     2015.77275        12.87247         5.14017
     2015.77549         9.36448         5.11623
     2015.77823        15.17450         5.02506
     2015.78097        11.02152         5.06190
     2015.78371        11.52453         5.07295
     2015.78644        14.25555         5.06374
     2015.78918        12.72157         5.09597
     2015.79192        13.30558         5.08492
     2015.79466         6.93460         5.08400
     2015.79739        10.39062         5.10886
     2015.80013         8.79764         5.24515
     2015.80287        10.55365         5.06374
     2015.80561         8.89267         5.15767
     2015.80835         8.78469         5.08124
     2015.81108         9.22270         5.07847
     2015.81388         9.73578         5.33263
     2015.81656         6.96674         5.08768
     2015.81930         8.30675         5.08400
     2015.82203         8.38977         5.16780
     2015.82477        11.49779         5.12452
     2015.82751        13.98581         5.07847
     2015.83025        11.21982         5.22949
     2015.83299         6.27784         5.25436
     2015.83572         4.12886         5.21476
     2015.83846         8.73587         5.20095
     2015.84120         8.84489         5.16872
     2015.84394         8.82691         5.15214
     2015.84668         7.00692         5.14662
     2015.84941         7.89194         5.15582
     2015.85215         1.61096         5.30776
     2015.85489        13.11798         5.16411
     2015.85763        11.99699         5.13649
     2015.86036         9.01701         5.18990
     2015.86310         8.65903         5.19726
     2015.86584         9.25204         5.22028
     2015.86858        10.37506         5.22673
     2015.87132        13.48008         5.36946
     2015.87405         8.61009         5.19910
     2015.87679         4.96111         5.20739
     2015.87953        12.44413         5.32250
     2015.88227         9.94715         5.20739
     2015.88501         4.32716         5.21476
     2015.88774         8.18418         5.23778
     2015.89048        14.43720         5.17516
     2015.89322        13.03821         5.20279
     2015.89596        13.09823         5.20647
     2015.89869        13.13025         5.13465
     2015.90143        13.11426         5.09781
     2015.90417         7.31728         5.21015
     2015.90691         6.18130         5.18345
     2015.90965         6.35232         5.21568
     2015.91238         8.02433         5.19726
     2015.91512         5.32335         5.13372
     2015.91786         5.95837         5.27369
     2015.92060         9.92838         5.37222
     2015.92334        -0.19160         5.22765
     2015.92607         4.40942         5.23318
     2015.92881         4.62043         5.18621
     2015.93155        -0.08455         5.36854
     2015.93429         7.11547         5.65032
     2015.93702         1.68249         5.41642
     2015.93976        10.72250         5.51772
     2015.94250         9.71852         5.26264
     2015.94524         1.79454         5.16227
     2015.94798        -6.60045         5.22397
     2015.95071         2.97857         5.12544
     2015.95345        -3.73941         5.09044
     2015.95619        -0.47840         5.12083
     2015.95893        -5.30138         5.31789
     2015.96988         4.92469         5.13004
     2015.97262         8.35171         5.26080
     2015.97535        -6.90228         5.13096
     2015.97809        -1.20226         5.15398
     2015.98083        -5.42124         5.18529
     2015.98357       -13.01823         5.11991
     2015.98631        -2.22421         5.18713
     2015.98904        -4.78219         5.09689
     2015.99178        -9.32617         5.16780
     2015.99452       -11.38116         5.33723
     2015.99731        -0.20608         5.35657
     2016.00000        -4.49312         5.11254
     2016.00273        -0.46511         5.16872
     2016.00547         2.78591         5.18345
     2016.00821         3.64093         5.14017
     2016.01095         8.69094         5.02967
     2016.01363         1.39690         5.29948
     2016.02826        -3.34898         8.31065
     2016.03011        -9.39594         5.15030
     2016.03285        -8.62192         5.17700
     2016.03559         4.15210         5.11991
     2016.03833         1.66911         5.16872
     2016.04106        -4.70187         5.04440
     2016.04380         1.52615         5.04901
     2016.04654         7.65417         5.03427
     2016.04928         3.69318         5.08308
     2016.05201        -1.32080         5.07387
     2016.05475         1.56622         4.99652
     2016.05749        -1.82477         5.04993
     2016.06029        -1.83969         5.26264
     2016.06297         0.31627         5.03335
     2016.06570         3.79428         5.05914
     2016.06844        -2.00370         5.12267
     2016.07118        -4.58168         5.09689
     2016.07392        -1.61766         5.19634
     2016.07666         3.04035         5.19634
     2016.07939         3.01237         5.16135
     2016.08213         2.85739         5.25804
     2016.08487         1.66540         5.07295
     2016.08761        -2.89558         5.09044
     2016.09034        -6.22756         5.11899
     2016.09308        -4.71455         5.06927
     2016.09542        -7.65397         6.10798
     2016.10483        -9.08460         7.99848
     2016.10677        -9.73046         5.05269
     2016.10951        -9.55644         5.13096
     2016.11225        -7.12443         5.12083
     2016.11498        -5.30041         5.17148
     2016.11772       -10.47639         5.06742
     2016.12046        -2.94938         5.05821
     2016.12320        -5.21836         5.05637
     2016.12594        -6.70434         5.10426
     2016.12867         3.89268         5.13833
     2016.13141         4.98969         5.07663
     2016.13415        -1.71729         5.41919
     2016.13689        -4.74927         5.06006
     2016.13963        -1.40426         5.09044
     2016.14236        -7.82224         5.05729
     2016.14510        -6.14622         4.98639
     2016.14784        -2.92021         5.02322
     2016.15058        -3.32519         5.00941
     2016.15331        -5.37417         5.18805
     2016.15605        -0.31315         5.11899
     2016.15879        -6.27214         5.17793
     2016.16153        -4.06612         5.15582
     2016.16427        -7.30310         5.24238
     2016.16700        -6.08409         5.15306
     2016.16974        -8.60507         5.16227
     2016.17248        -6.09705         5.19450
     2016.17527        -3.75997         5.14201
     2016.17796        -0.09802         5.05361
     2016.18069        -0.97900         5.15675
     2016.18343        -5.11998         5.25436
     2016.18617        -0.84497         5.08032
     2016.18891        -3.05095         4.97718
     2016.19164         3.69307         4.93850
     2016.19438         1.80708         4.98455
     2016.19712        -8.07790         4.94403
     2016.19986        -9.37988         5.08308
     2016.20260        -7.62686         5.06650
     2016.20533        -2.03585         5.11162
     2016.20807        -0.74983         5.09597
     2016.21081        -4.88181         5.22120
     2016.21355        -5.70480         5.12360
     2016.21629        -4.46978         5.00849
     2016.21902        -4.63776         4.94219
     2016.22176         0.61825         4.92469
     2016.22450        -5.48073         4.92009
     2016.22724        -4.06771         5.01494
     2016.22997        -4.58469         4.93298
     2016.23271        -3.72368         4.95232
     2016.23545        -3.98366         5.01770
     2016.23819        -2.85964         4.95600
     2016.24093        -2.76063         5.07571
     2016.24366        -0.15061         4.96245
     2016.24640        -1.32659         4.96061
     2016.24914        -2.69458         4.94127
     2016.25188        -2.91856         5.05361
     2016.25462        -1.68054         5.02783
     2016.25735       -16.21852         5.08860
     2016.26009        -6.42851         4.96061
     2016.26283        -9.77549         5.00204
     2016.26557        -2.70647         4.96521
     2016.26830        -3.39646         4.99560
     2016.27104        -4.66744         5.06282
     2016.27378         2.41758         5.01217
     2016.27652        -8.25141         4.97994
     2016.27926        -2.65239         4.96797
     2016.28142       -10.76100         6.52052
     2016.28815        -7.78758         7.09789
     2016.29021        -7.47832         5.10149
     2016.29295        -3.50330         5.00849
     2016.29568        -2.85229         4.98271
     2016.29842        -3.92927         5.06098
     2016.30116        -1.72925         5.21292
     2016.30390        -4.08324         5.03519
     2016.30663       -10.52722         5.09597
     2016.30937        -2.31020         4.99283
     2016.31211        -4.22418         5.08124
     2016.31485        -0.27317         4.98547
     2016.31759        -2.32715         5.01401
     2016.32032        -6.39113         5.04901
     2016.32306        -6.41612         5.00388
     2016.32580        -7.58810         5.04624
     2016.32854        -2.73808         4.98178
     2016.33128        -6.66407         5.00020
     2016.33401        -6.30305         5.06466
     2016.33675        -5.04203         5.09321
     2016.33949        -5.16601         5.44313
     2016.34223        -2.93500         5.13557
     2016.34496        -1.03198         5.14477
     2016.34770         2.66904         5.23041
     2016.35044        -0.79695         5.26541
     2016.35318        -5.62793         5.02046
     2016.35592        -6.54191         4.99836
     2016.35865        -8.82390         4.93758
     2016.36139        -4.64488         4.95048
     2016.36413        -5.69886         5.14477
     2016.36687        -2.25684         5.14293
     2016.36961         8.56317         4.99099
     2016.37234         2.82519         4.93114
     2016.37508        -0.27579         5.01217
     2016.37782        -8.89578         5.03888
     2016.38056        -0.10276         5.13188
     2016.38329         3.47226         4.96981
     2016.38603        -6.84873         4.93666
     2016.38877        10.20129         5.00204
     2016.39151        -2.21369         5.00941
     2016.39402        -2.50193         5.93210
     2016.40200        -4.36913         6.17704
     2016.41438        -1.42749         9.87517
     2016.41615        -4.79254         5.03427
     2016.41889        -7.56852         5.05729
     2016.42162        -2.64950         5.04072
     2016.42436        -6.31449         5.06282
     2016.42710        -0.31147         5.08308
     2016.42984        -1.62245         5.16411
     2016.43258        -3.50644         5.03888
     2016.43531        -5.61742         5.20739
     2016.43805         2.11760         5.06558
     2016.44079         4.13961         5.05453
     2016.44353        -2.71137         5.00573
     2016.44626        -7.56435         5.01033
     2016.44900        -3.41033         5.05729
     2016.45174         5.09768         5.04716
     2016.45448         1.78370         5.03427
     2016.45722        -1.72628         5.01678
     2016.45995         0.12373         5.06374
     2016.46269         1.81775         4.99191
     2016.46543         0.12677         5.05177
     2016.46822         6.12685         5.11899
     2016.47096         5.97586         5.06374
     2016.47370        -4.01412         5.01125
     2016.47644         7.75790         5.11070
     2016.47918         2.08692         5.16503
     2016.48191        -1.52807         5.09965
     2016.48465         1.63695         5.06466
     2016.48739         5.02397         5.87132
     2016.49013         1.53298         5.09965
     2016.49287        -3.44900         5.13833
     2016.49560         3.66002         5.21476
     2016.49828        -0.37603         4.99099
     2016.50102         3.96699         5.11715
     2016.50376         7.56101         5.13925
     2016.50650        -2.27798         5.32986
     2016.50924         3.87704         5.04072
     2016.51197        -0.97594         4.97718
     2016.51477         3.10114         5.05177
     2016.51751        -3.40285         5.18529
     2016.52024        -4.26983         5.43576
     2016.52298        -4.95481         5.13096
     2016.52572         0.44420         5.12820
     2016.52846        -7.25178         5.14109
     2016.53120        -4.51776         5.05545
     2016.53393        -2.96774         5.11254
     2016.53667         4.85327         5.15398
     2016.53941        -0.35771         5.14846
     2016.54215         5.17231         5.10794
     2016.54488         8.88632         5.16872
     2016.54762        -4.76666         5.15582
     2016.55036        -0.76264         5.21292
     2016.55310         1.52537         5.18529
     2016.55584         7.58039         5.24607
     2016.55852         1.14435         5.60520
     2016.56131         5.15043         5.10610
     2016.56405         5.27444         5.16687
     2016.56679         2.71646         5.30224
     2016.56953        -2.36852         5.33723
     2016.57226         3.97149         5.14477
     2016.57500         1.08651         5.21476
     2016.57768         6.20346         5.21844
     2016.58053         4.46461         5.43852
     2016.58321         2.78856         5.10702
     2016.58595         0.31658         5.07847
     2016.58869        -3.30840         5.08400
     2016.59137         2.76655         5.01125
     2016.59411         7.81857         5.05729
     2016.59685         1.54758         5.09505
     2016.59958         2.64060         5.01586
     2016.60232         6.81062         5.00941
     2016.60506         0.84463         4.97350
     2016.60780         3.08265         5.02138
     2016.61054         4.64367         5.02875
     2016.61327         0.55869         5.00757
     2016.61601        -3.50730         5.01494
     2016.61875         1.63772         4.99744
     2016.62149         1.44774         5.17424
     2016.62423         7.97675         5.14477
     2016.62696         3.55077         5.01217
     2016.62970         5.05379         4.96337
     2016.63244         0.87180         5.03243
     2016.63518         0.55682         5.03335
     2016.63791         7.27384         5.02506
     2016.64065        10.35586         5.07939
     2016.64339        10.07987         5.23778
     2016.64613         3.72189         4.92377
     2016.64887        -0.58009         5.76358
     2016.65160         6.84192         5.06282
     2016.65434         7.08094         5.09781
     2016.65708         2.03196         5.03335
     2016.65982         0.67497         4.97350
     2016.66256         5.21599         5.06742
     2016.66529         0.85301         5.03704
     2016.66803         7.36203         5.08768
     2016.67077         7.35304         5.20647
     2016.67351         5.35506         5.04440
     2016.67624         4.04308         4.97718
     2016.67898         6.01409         5.19450
     2016.68172        11.54711         5.01125
     2016.68446         5.79213         5.24699
     2016.68720         4.45114         5.35289
     2016.68993        10.55216         5.23870
     2016.69267         3.54318         4.98271
     2016.69541        12.20720         5.04440
     2016.69815        10.86721         5.08308
     2016.70089         9.85523         5.04256
     2016.70362         5.89425         5.10886
     2016.70636         4.39726         5.26080
     2016.70910         4.59928         5.34184
     2016.71184        12.90230         5.05453
     2016.71457        15.30931         5.03151
     2016.71731         4.37133         5.17885
     2016.72005         9.36935         5.11347
     2016.72279        13.76137         5.08124
     2016.72553         7.07338         5.25896
     2016.72826         8.28740         5.12820
     2016.73100         2.79842         5.05821
     2016.73374         2.45143         5.03796
     2016.73648         8.67545         5.02506
     2016.73921         6.48747         5.05821
     2016.74195         3.35448         5.11531
     2016.74469         7.40950         5.08492
     2016.74743        10.40452         5.10886
     2016.75017         9.92954         5.09781
     2016.75290         9.31255         5.06374
     2016.75564         8.18457         5.06374
     2016.75838        10.49259         5.05729
     2016.76112        10.43560         5.02599
     2016.76386        10.40362         5.05729
     2016.76659         8.88564         5.06282
     2016.76933         6.37565         5.00388
     2016.77207         2.28067         5.04716
     2016.77481         9.19169         5.07847
     2016.77754         3.91571         5.07295
     2016.78028         9.92272         5.04072
     2016.78302         5.81774         5.08768
     2016.78576         3.44576         5.07847
     2016.78850         9.26477         5.06927
     2016.79123         5.70379         5.05453
     2016.79397         6.82481         5.26817
     2016.79677         6.78589         5.19266
     2016.79945        -0.57216         5.03704
     2016.80219         1.35086         5.01678
     2016.80492         2.70188         5.02875
     2016.80766         6.99389         5.09965
     2016.81040         5.91491         5.06650
     2016.81314         6.65693         5.11807
     2016.81587        -5.40806         5.09505
     2016.81861         7.04996         5.09413
     2016.82135        -1.08002         5.13833
     2016.82409         3.40700         5.22857
     2016.82683        -2.86499         5.16411
     2016.82956         0.10303         5.11070
     2016.83230         3.70305         5.04993
     2016.83504         0.68406         4.99376
     2016.83778         0.49108         5.03888
     2016.84052         0.11410         5.12175
     2016.84325         0.79911         5.06742
     2016.84599         6.05613         5.04440
     2016.84873         3.73815         5.04440
     2016.85147         7.62117         5.07019
     2016.85420         2.58318         5.10518
     2016.85694         9.98720         5.11162
     2016.85968         1.32722         5.12175
     2016.86242         2.53223         5.05637
     2016.86516         8.10525         5.30040
     2016.86789         4.96127         5.08768
     2016.87063        -0.11472         5.09321
     2016.87337         1.04530         5.17608
     2016.87611         5.34632         4.99468
     2016.87885         2.15434         5.00757
     2016.88158         0.20535         5.03243
     2016.88432        -7.86963         5.14201
     2016.88706        -6.03961         5.15398
     2016.88980         5.82540         5.03059
     2016.89253         4.11642         5.02230
     2016.89527        -0.44656         4.98455
     2016.89801         3.34945         5.18621
     2016.90075        -0.55853         5.00849
     2016.90349         5.60849         5.18990
     2016.90622         4.97951         5.10794
     2016.90896         2.59052         5.08492
     2016.91170         4.47854         4.98271
     2016.91444         0.23256         4.98178
     2016.91718        -1.12943         5.21568
     2016.91991        -0.99241         5.13372
     2016.92265        -5.19639         5.03059
     2016.92539        -0.29138         5.01678
     2016.92813        -5.68536         4.98455
     2016.93086        -0.54234         5.04716
     2016.93360         0.54568         5.10057
     2016.93634        -9.81431         5.07755
     2016.93908        -4.87929         5.06006
     2016.94182        -1.39527         5.04256
     2016.94455         0.66174         5.04256
     2016.94729         1.44376         5.08860
     2016.95003         3.06878         5.07663
     2016.95277        -3.47421         5.19174
     2016.95551         2.89181         5.02967
     2016.95824         1.94183         5.01217
     2016.96098         1.94685         5.00388
     2016.96372        -2.26114         4.98639
     2016.96646         0.68888         5.04348
     2016.96919         1.83790         5.12636
     2016.97193        -0.70209         5.01954
     2016.97467         4.38993         4.97902
     2016.97741         0.33895         5.01217
     2016.98015         4.05896         4.92745
     2016.98288        -1.41202         4.95232
     2016.98562        -3.60700         5.00204
     2016.98836        -5.24898         5.07479
     2016.99110         3.53903         5.01309
     2016.99384         0.63805         4.97073
     2016.99657         5.61307         4.98178
     2016.99931         2.60108         4.95876
     2017.00089         5.05482        14.18750
     2017.00479        -0.38988         5.06927
     2017.00695        -3.17549         6.71206
     2017.01026        -4.09285         5.17700
     2017.01300         3.86217         4.98823
     2017.01574        -3.23481         4.99376
     2017.01848        -4.25980         4.99099
     2017.02121        -2.45578         5.16227
     2017.02395        -5.93776         5.04716
     2017.02669        -1.86175         5.02322
     2017.02943         4.13927         5.07571
     2017.03216        -7.49571         5.05177
     2017.03490        -7.91570         4.96521
     2017.03764       -10.26868         5.02599
     2017.04038        -4.81666         5.02138
     2017.04312        -7.96864         5.04716
     2017.04585        -5.13563         5.20647
     2017.04859        -1.04161         5.22213
     2017.05133         2.50941         4.94127
     2017.05281        -6.49796        19.99712
     2017.06616       -12.21425        11.69292
     2017.06776        -5.26549         4.98363
     2017.07049        -4.79347         4.92009
     2017.07323        -5.36046         4.93850
     2017.07597       -10.51244         5.00204
     2017.07871        -8.54542         4.92285
     2017.08145        -6.88541         4.92838
     2017.08418       -12.43739         4.93298
     2017.08692        -7.60837         4.95692
     2017.08966        -8.43436         5.02875
     2017.09240        -8.22034         4.99007
     2017.09514        -3.91832         4.97718
     2017.09787        -7.09030         5.01954
     2017.10061        -1.23029         4.94403
     2017.10335        -5.43727         5.10610
     2017.10609       -10.33125         5.02875
     2017.10882       -15.03924         5.01678
     2017.11156        -5.81822         4.96429
     2017.11430        -7.88220         4.95140
     2017.11704       -13.66119         4.93666
     2017.11978       -11.08317         4.97626
     2017.12251        -6.66815         4.94771
     2017.12531        -4.06907         5.21936
     2017.12805       -10.78505         5.18898
     2017.13078        -0.34804         4.99099
     2017.13347         2.85992         4.94311
     2017.13620        -1.69107         5.16872
     2017.13894        -7.72205         5.00573
     2017.14168       -15.16203         4.94679
     2017.14442        -8.84102         4.92930
     2017.14715        -7.20800         4.93022
     2017.14989        -6.93098         4.98363
     2017.15263        -0.49396         5.27001
     2017.15537        -4.28995         4.94495
     2017.15811         0.22507         5.09781
     2017.16084        -0.00491         4.95876
     2017.16358       -10.58090         4.94955
     2017.16632        -7.72888         5.08676
     2017.16911        -9.72080         5.09229
     2017.17185        -0.76178         5.15675
     2017.17459        -4.39277         5.08216
     2017.17733       -13.86075         5.19542
     2017.18001       -12.39379         5.07203
     2017.18275        -6.92278         5.00849
     2017.18548       -15.03776         4.94035
     2017.18822       -10.81674         5.06006
     2017.19096        -7.32773         4.99376
     2017.19370        -5.81771         4.93850
     2017.19644        -7.20569         4.96337
     2017.19917        -8.12768         4.93666
     2017.20191        -0.96366         5.05729
     2017.20465       -15.97364         5.12636
     2017.20739        -9.95662         4.97258
     2017.21013        -4.21161         5.03427
     2017.21286        -4.63559         4.97073
     2017.21560        -3.75757         4.95876
     2017.21834        -7.85356         5.12728
     2017.22108        -5.38254         5.01033
     2017.22381         2.46548         5.10978
     2017.22655        -2.19651         5.09597
     2017.22929        -9.60949         4.94863
     2017.23203        -6.97247         4.96889
     2017.23477        -6.53845         4.99652
     2017.23750        -8.40444         4.98086
     2017.24024        -8.45242         4.98178
     2017.24298        -4.71240         5.00481
     2017.24572        -1.11939         4.92930
     2017.24846       -12.70037         4.99099
     2017.25119       -11.20835         4.98178
     2017.25393        -6.50134         4.96153
     2017.25667        -6.59632         4.98823
     2017.25941        -6.97330         5.03888
     2017.26186        -7.32460         5.52785
     2017.26579        -5.65226         8.98102
     2017.26762        -4.91625         5.00296
     2017.27036        -1.48823         4.94863
     2017.27310        -9.37822         4.96153
     2017.27566        -9.15239         5.36209
     2017.29306       -15.87622         7.82260
     2017.29500       -15.57608         5.00020
     2017.29871        -7.35099         9.50591
     2017.30047       -12.87505         5.01401
     2017.30321        -9.74503         4.94311
     2017.30595        -7.75101         5.09321
     2017.30869       -10.40400         4.97166
     2017.31143        -9.13298         4.97810
     2017.31416        -6.35096         5.00665
     2017.31690       -12.31394         4.97073
     2017.31964       -14.83193         5.08492
     2017.32238       -11.51891         5.08032
     2017.32512       -15.43689         4.95048
     2017.32785       -11.46188         5.01401
     2017.33059       -11.73786         4.93298
     2017.33333       -14.00584         4.89246
     2017.33607       -14.05383         4.91733
     2017.33880       -14.52981         4.97534
     2017.34154       -12.33779         5.18898
     2017.34428        -8.39677         4.95600
     2017.34702       -10.33276         4.89891
     2017.34976        -7.58374         4.88878
     2017.35249       -10.34272         4.93574
     2017.35523       -16.53971         4.99652
     2017.35797       -22.00769         5.07295
     2017.36071       -13.34767         4.96613
     2017.36344        -4.65766         4.89338
     2017.36618        -8.06164         4.92101
     2017.36892        -5.84762         4.97994
     2017.37166        -8.80660         5.03059
     2017.37440        -4.95859         4.95324
     2017.37713        -9.40557         5.08676
     2017.37987       -11.21155         5.00941
     2017.38261        -8.96454         5.05914
     2017.38535        -6.57052         4.95324
     2017.38809        -8.43850         4.94219
     2017.39082        -7.93549         4.98086
     2017.39356        -9.32047         4.99099
     2017.39630        -1.42745         4.98639
     2017.39904        -5.33143         4.96521
     2017.40177        -6.27042         4.93943
     2017.40451        -9.21240         4.95324
     2017.40725        -6.37238         4.94955
     2017.40999        -8.04137         4.98455
     2017.41273        -9.71735         5.06098
     2017.41546        -7.18033         4.99007
     2017.41820        -7.92131         5.06006
     2017.42094       -10.41330         4.98731
     2017.42368        -4.54328         5.01125
     2017.42642        -3.05326         4.94863
     2017.42915        -1.73625         4.99560
     2017.43189        -4.66923         5.03519
     2017.43463        -8.17621         5.12636
     2017.43737        -9.23220         5.12728
     2017.44010        -2.83918         4.93666
     2017.44284        -2.44016         4.98455
     2017.44552         1.03779         5.06834
     2017.44826        -2.53219         5.09781
     2017.45191        -0.20517         8.51600
     2017.45379         1.73491         5.09965
     2017.45653        -3.70808         5.14109
     2017.45927        -0.84906         4.99376
     2017.46201        -4.74804         4.96245
     2017.46475         0.84697         5.00204
     2017.46748        -9.02601         5.31974
     2017.47022        -6.12999         5.20279
     2017.47296        -2.84397         5.10518
     2017.47570        -6.89996         4.96889
     2017.47843        -4.19194         4.97902
     2017.48117        -0.86992         4.96889
     2017.48391        -0.29691         5.10242
     2017.48665         2.14311         5.12083
     2017.48939        -9.60987         5.09873
     2017.49212        -4.77186         5.02506
     2017.49486        -2.61784         5.04072
     2017.49760        -9.97082         5.06742
     2017.50034        -4.24980         5.07847
     2017.50308         0.60421         5.00296
     2017.50581        -5.96977         5.09229
     2017.50855        -3.74475         5.01401
     2017.51129        -6.41574         5.06282
     2017.51403        -4.93472         5.03151
     2017.51676       -11.32470         4.98639
     2017.51950       -10.41669         5.06006
     2017.52224         4.90133         5.04716
     2017.52498        -3.86865         4.96797
     2017.52772         3.71537         5.16872
     2017.53045        -1.26362         5.03059
     2017.53319        -9.84460         5.24054
     2017.53593         1.50742         5.32250
     2017.53867        -0.09857         5.04256
     2017.54141         2.88245         4.99744
     2017.54414        -3.89353         5.00665
     2017.54688        -7.01352         5.19082
     2017.54962        -2.33050         5.02691
     2017.55236        -1.43848         5.04164
     2017.55509        -1.09946         4.98547
     2017.55783        -0.61345         4.96061
     2017.56057        -0.62943         5.19082
     2017.56331        -8.65541         5.21936
     2017.56605        -7.52840         5.15767
     2017.56878        -3.86338         5.05914
     2017.57152         1.62864         5.12267
     2017.57426        -7.71235         5.08124
     2017.57700        -8.04033         5.11899
     2017.57974        -6.89331         5.08676
     2017.58247        -7.30629         5.08952
     2017.58521       -13.78528         5.00020
     2017.58795       -10.53626         5.08952
     2017.59069        -7.61724         5.14938
     2017.59342         1.49877         5.14477
     2017.59616        -5.53221         5.06927
     2017.59890        -5.16619         4.97810
     2017.60164        -5.90118         5.02691
     2017.60438        -9.14816         5.17516
     2017.60711        -7.54914         5.30132
     2017.60985        -2.89612         5.24791
     2017.61259        -9.24111         5.12452
     2017.61533         0.87191         5.06466
     2017.61807         1.44893         5.23870
     2017.62080        -6.58406         5.10334
     2017.62354        -2.88304         5.04348
     2017.62628        -0.42802         5.32526
     2017.62902         1.32399         5.23686
     2017.63175        -3.50299         5.02138
     2017.63449        -3.19297         4.99191
     2017.63723        -6.84095         5.02599
     2017.63997        -0.45094         5.08308
     2017.64271         5.08208         5.05545
     2017.64544         0.98610         5.02875
     2017.64818        -0.88189         5.09597
     2017.65092        -3.48587         5.03335
     2017.65366        -0.68185         5.04348
     2017.65639        -0.82684         5.02691
     2017.65913        -1.29282         5.09229
     2017.66187        -4.22480         5.05729
     2017.66461         3.51822         5.09229
     2017.66735         3.93523         5.10057
     2017.67008         3.91325         4.97718
     2017.67282         0.85227         5.15675
     2017.67556        -1.99072         5.11347
     2017.67830         4.08930         5.07203
     2017.68104         3.17332         5.11439
     2017.68377         1.75233         5.32158
     2017.68651        -2.89165         5.25896
     2017.68925         6.38737         5.08308
     2017.69199         2.94839         5.08676
     2017.69472         4.09340         5.01678
     2017.69746        11.27942         5.14109
     2017.70020        10.11644         5.23041
     2017.70294         6.47345         5.32066
     2017.70568         2.80647         5.14938
     2017.70841         8.00049         5.03980
     2017.71115         2.36350         5.15582
     2017.71389         0.32552         5.12175
     2017.71663        -0.45446         5.13925
     2017.71937         0.70256         5.09873
     2017.72210         1.55157         5.06282
     2017.72484         0.56959         4.99744
     2017.72758         0.68561         4.99928
     2017.73032         4.72762         5.04256
     2017.73305         5.20964         5.04809
     2017.73579        -0.25334         5.05177
     2017.73853        -0.71633         5.09965
     2017.74053         2.36087         7.37230
     2017.74401         8.02771         5.11439
     2017.74674         4.27273         5.10702
     2017.74948         1.63674         5.06927
     2017.75222         1.94876         5.10794
     2017.75496        10.31578         5.12636
     2017.75770        -4.77621         5.22213
     2017.76043         2.44281         5.13557
     2017.76317         6.04483         5.05545
     2017.76591         4.91284         5.13096
     2017.76865         7.38686         5.13649
     2017.77138         0.84388         5.14385
     2017.77412         2.21390         5.09044
     2017.77686        -1.32909         5.07295
     2017.77960         3.64393         5.13188
     2017.78234         2.95095         5.03519
     2017.78507         0.79196         5.09044
     2017.78781        -2.98002         5.03519
     2017.79055        -0.30300         5.03427
     2017.79329         2.29901         5.02875
     2017.79603         5.82503         5.02506
     2017.79876        14.35705         5.26172
     2017.80150        -3.34093         5.30500
     2017.80424        -2.49792         5.13925
     2017.80698         1.05110         5.13096
     2017.80971        -1.19688         5.00849
     2017.81245        -3.75087         5.03243
     2017.81519         4.41115         5.09321
     2017.81793        -1.57383         5.08124
     2017.82067        -2.89282         5.11899
     2017.82340        -1.46980         5.00573
     2017.82614         0.16622         4.96521
     2017.82888         0.04024         5.01494
     2017.83162         3.49625         5.06190
     2017.83436        -1.76773         5.07939
     2017.83709         2.30329         5.13925
     2017.83983        -5.74270         5.02138
     2017.84257       -15.53268         5.08492
     2017.84531        -9.21466         5.10334
     2017.85078        -1.41563         5.07019
     2017.85352        -2.75261         5.14662
     2017.85626        -6.87759         5.18621
     2017.85900        -2.03958         5.14662
     2017.86173         0.40544         5.13557
     2017.86447        -3.08754         5.08216
     2017.86721        -2.94353         5.12267
     2017.86995        -3.42551         5.06006
     2017.87269        -1.39349         5.09781
     2017.87542        -0.78648         5.03243
     2017.87816         3.27754         5.01033
     2017.88090         3.13056         4.99376
     2017.88364        -0.12442         5.00388
     2017.88637        -6.55541         5.07203
     2017.88911         1.77461         5.08308
     2017.89185        -1.03637         5.12267
     2017.89459         3.42364         5.27461
     2017.89733         2.54666         5.08308
     2017.90006         3.92468         5.07939
     2017.90280        -3.90431         5.14385
     2017.90554        -0.74629         5.09229
     2017.90828        -1.68627         5.05177
     2017.91102        -0.81925         5.13280
     2017.91375        -1.22824         5.12728
     2017.91649        -0.91522         4.97626
     2017.91923         0.16980         5.04993
     2017.92197        -8.36519         5.16319
     2017.92470        -2.10517         5.05729
     2017.92744        -5.47615         5.03243
     2017.93018        -6.50214         4.98823
     2017.93292        -3.89112         5.00665
     2017.93566        -6.34110         5.04993
     2017.93839        -1.04908         5.06190
     2017.94113        -5.49607         5.01678
     2017.94387         0.94395         5.00573
     2017.94661        -1.20303         4.99007
     2017.94935         1.43198         4.99928
     2017.95208         0.08900         5.18529
     2017.95482        -4.07198         5.12728
     2017.95756         0.16503         5.01770
     2017.96030         5.60005         5.04624
     2017.96303         0.93307         5.04164
     2017.96577         9.01909         5.26172
     2017.96851         2.05210         5.03427
     2017.97125        -0.67688         5.03980
     2017.97399        -0.73086         5.04901
     2017.97672        -3.12585         5.02691
     2017.97946         0.61217         5.05269
     2017.98220        -1.11281         5.10057
     2017.98494        -7.70380         5.01954
     2017.98767        -7.50778         5.06374
     2017.99041        -5.77276         5.04440
     2017.99315        -2.43374         5.02230
     2017.99589        -6.33573         5.11347
     2017.99863        -3.14371         5.05453
     2018.00136       -11.80169         5.01678
     2018.00410        -9.31868         5.01862
     2018.00684        -9.87666         5.04716
     2018.00958        -2.28564         5.09505
     2018.01232       -13.54062         5.14846
     2018.01505        -2.91761         5.01586
     2018.01779        -0.06459         5.01125
     2018.02053         1.27643         5.07387
     2018.02327         0.24444         5.05269
     2018.02600        -6.01554         5.06098
     2018.02874       -10.14252         5.08216
     2018.03148        -6.49651         5.11070
     2018.03422        -8.18749         5.02506
     2018.03696       -10.75947         5.02138
     2018.03969        -7.71245         5.04809
     2018.04243       -11.62744         5.12267
     2018.04517        -3.88042         5.03611
     2018.04791       -13.21640         5.08860
     2018.05065        -7.91739         5.10334
     2018.05338        -7.59837         5.06098
     2018.05612        -6.20735         5.09137
     2018.05886       -11.88334         5.08860
     2018.06160        -1.96532         5.04164
     2018.06433        -5.24430         5.27553
     2018.06707        -6.93028         5.18069
     2018.06981        -8.43227         5.16964
     2018.07255       -10.39625         5.16319
     2018.07529       -10.72223         5.15490
     2018.07802       -11.03322         5.20003
     2018.08076        -6.09320         5.25712
     2018.08350        -7.01418         5.19450
     2018.08624        -8.35417         5.13557
     2018.08898       -10.78315         5.13280
     2018.09171        -9.01813         5.17700
     2018.09445        -5.81111         5.16043
     2018.09719         0.50190         5.31974
     2018.09993        -4.02108         5.28935
     2018.10266       -10.95506         5.08676
     2018.10540        -7.08805         5.23133
     2018.10814         4.76697         5.16595
     2018.11088        -1.74601         5.13833
     2018.11362        -2.95900         5.16780
     2018.11635        -5.34798         5.06282
     2018.11909        -8.91896         5.24331
     2018.12183        -0.06494         5.24054
     2018.12457        -2.42493         5.15675
     2018.12731        -9.73291         5.16687
     2018.13004         2.33711         5.13372
     2018.13278        -2.81388         5.07663
     2018.13552         3.10414         5.12452
     2018.13826         0.74416         5.14570
     2018.14099        -3.50383         5.17056
     2018.14373        -9.78281         5.12544
     2018.14647        -4.95779         5.28106
     2018.14921        -7.11777         5.22673
     2018.15195        -3.32676         5.12267
     2018.15468        -1.97874         5.17332
     2018.15742        -5.02772         5.17885
     2018.16016        -2.43871         5.09137
     2018.16290        -3.97069         5.14846
     2018.16564        -1.14567         5.35104
     2018.16837        -0.81266         5.12728
     2018.17111        -2.94964         5.10334
     2018.17385        -8.03862         5.06006
     2018.17659        -4.26460         5.04809
     2018.17932        -4.48859         5.11439
     2018.18206        -1.77257         5.15859
     2018.18480        -2.44255         5.18990
     2018.18754        -2.42954         5.09413
     2018.19028        -7.64152         5.07755
     2018.19301        -5.67250         5.00573
     2018.19575         8.56451         5.30961
     2018.19849        -6.14947         5.04716
     2018.20123         6.82655         5.12452
     2018.20397         3.45457         5.01494
     2018.20670        -3.55042         5.05637
     2018.20944        -3.47140         5.05914
     2018.21218        -6.92938         5.10610
     2018.21492       -13.33537         5.02322
     2018.21765         1.62565         5.05085
     2018.22039       -10.93433         5.07755
     2018.22313        -7.45032         4.99099
     2018.22587        -6.56730         4.97166
     2018.22861       -12.97328         4.95692
     2018.23134        -6.16126         4.96797
     2018.23408        -9.19125         5.01678
     2018.23682        -4.88323         4.99468
     2018.23956        -5.73521         4.99652
     2018.24230        -7.16320         4.98823
     2018.24503        -3.88118         4.99099
     2018.24777        -7.10016         4.97626
     2018.25051        -3.60215         5.02414
     2018.25325        -5.77013         4.98823
     2018.25598        -1.78811         4.95784
     2018.25872        -2.98109         5.11439
     2018.26146        -0.14208         5.07111
     2018.26420       -14.09606         5.11623
     2018.26694        -7.20404         5.11162
     2018.26967        -6.12903         4.98271
     2018.27241        -7.30601         5.04256
     2018.27515        -5.37499         4.99007
     2018.27789        -5.15098         5.08492
     2018.28062        -6.60896         5.26817
     2018.28336       -10.14894         5.03335
     2018.28610        -9.78792         5.06190
     2018.28884        -2.83591         4.92009
     2018.29158         3.23511         5.08400
     2018.29431        -8.35287         5.05821
     2018.29705        -4.17786         4.95784
     2018.29979        -7.35584         4.98363
     2018.30253        -8.80382         4.97626
     2018.30527        -2.53381         4.90259
     2018.30800        -2.91479         4.92193
     2018.31074        -7.52477         4.95232
     2018.31348        -3.56575         4.92193
     2018.31622        -8.00274         4.91364
     2018.31895        -0.56672         5.16780
     2018.32169        -4.15770         4.93758
     2018.32443        -5.21869         4.95600
     2018.32717        -1.89067         4.86576
     2018.32991        -5.02165         5.08952
     2018.33264        -6.18664         4.93298
     2018.33538        -1.53962         5.07571
     2018.33812         2.00040         5.12820
     2018.34086        -5.74358         5.02783
     2018.34360        -1.86657         4.97902
     2018.34633        -3.35855         4.97534
     2018.34907        -5.72153         5.02414
     2018.35181         2.87548         5.03519
     2018.35455        -1.09650         4.93206
     2018.35728         1.98452         5.00941
     2018.36002         5.56953         5.07755
     2018.36276        -0.53045         5.06098
     2018.36550        -2.21043         4.95600
     2018.36824        -0.31041         5.00112
     2018.37097         1.75560         5.00941
     2018.37371         1.35662         5.05269
     2018.37645        -0.02736         5.13925
     2018.37919        -5.42535         5.04164
     2018.38193        -2.09933         5.05729
     2018.38466         0.53069         4.93390
     2018.38740        -1.61330         4.96705
     2018.39014         3.35072         5.05361
     2018.39288        -0.20026         5.02783
     2018.39561         3.35776         5.07295
     2018.39835         0.96177         4.97810
     2018.40109         1.18179         4.98731
     2018.40383         2.59181         4.90720
     2018.40657        -1.81818         5.01494
     2018.40930         9.54884         5.13925
     2018.41204         9.35586         5.06558
     2018.41478         2.53787         4.97534
     2018.42299        -4.11807         5.03335
     2018.42573         2.44494         5.02967
     2018.42847         2.81096         5.06558
     2018.43121         1.48198         5.08400
     2018.43394        -0.74401         5.05821
     2018.43668        -2.66699         5.09505
     2018.43942        -3.38097         5.02414
     2018.44216         1.81204         4.97166
     2018.44490        -1.93894         4.96245
     2018.44763         2.65108         4.94679
     2018.45037        -0.26390         5.02599
     2018.45311         3.76411         5.00020
     2018.45585         4.06113         4.99099
     2018.45859         4.15215         4.96889
     2018.46132        -6.80784         5.03796
     2018.46406        -5.51082         4.97350
     2018.46680         1.18220         4.99007
     2018.46954        -3.12379         5.28659
     2018.47227        -0.47677         5.09689
     2018.47501         3.99825         4.99560
     2018.47775        -1.61573         4.96153
     2018.48049         3.20828         5.01586
     2018.48323        -2.17970         5.00204
     2018.48596        -1.92068         5.05914
     2018.48870         2.09033         5.00204
     2018.49144        -2.22665         4.97534
     2018.49418        -0.57163         4.99928
     2018.49692         0.90938         5.00481
     2018.49965         7.38940         4.99468
     2018.50239         1.15142         4.96521
     2018.50513        -2.01756         5.05914
     2018.50787        -4.88555         5.04993
     2018.51060        -0.86253         5.08768
     2018.51334        -4.04951         4.99744
     2018.51608         4.44250         4.98547
     2018.51882        -2.03548         5.09689
     2018.52156        -1.19946         4.96153
     2018.52429        -0.88145         4.94587
     2018.52703         3.77957         5.09137
     2018.52977        -2.56741         5.00481
     2018.53251         7.96061         5.05453
     2018.53525         2.89462         5.14938
     2018.53798        -4.44436         5.07663
     2018.54072         6.90766         5.01494
     2018.54346         4.06067         5.03519
     2018.54620         6.07669         4.97902
     2018.54893         4.31371         4.96705
     2018.55167         5.36072         4.96337
     2018.55441        -4.34426         5.04532
     2018.55715         6.34776         5.10334
     2018.55989        -4.29322         5.16780
     2018.56262        -4.03821         5.02599
     2018.56536         9.87481         5.06098
     2018.56810         6.11683         5.00849
     2018.57084        -0.50416         4.98823
     2018.57357         3.86486         5.06098
     2018.57631         3.16888         5.19634
     2018.57905         5.75889         5.38696
     2018.58179         5.09891         5.15859
     2018.58453         4.57093         5.05177
     2018.58726         6.48595         5.00941
     2018.59000         4.36696         5.03888
     2018.59274         8.84698         4.96061
     2018.59548         8.93000         4.92469
     2018.59822        -0.93899         4.92101
     2018.60095         5.14403         4.95968
     2018.60369         4.96405         5.03980
     2018.60643         4.61706         4.99468
     2018.60917         7.94208         4.97073
     2018.61190         4.86810         4.96797
     2018.61464         8.55312         4.92745
     2018.61738        10.48813         5.00757
     2018.62012        10.58315         4.98455
     2018.62286         8.79617         5.03151
     2018.62559         2.65018         5.09781
     2018.62833        -1.85380         4.94403
     2018.63107         9.20422         4.94311
     2018.63381         3.42824         5.08308
     2018.63655         7.23625         4.95508
     2018.63928        10.06527         5.15398
     2018.64202         4.45529         5.20371
     2018.64487        10.52643         5.22397
     2018.64750         5.84132         4.96429
     2018.65023         8.59234         5.00020
     2018.65297         7.82635         5.02138
     2018.65582         6.28250         5.21752
     2018.65845         5.91639         4.95324
     2018.66119         9.09741         4.92745
     2018.66392         8.02442         5.17608
     2018.66666         5.68644         5.04440
     2018.66940         6.85146         5.02599
     2018.67214         6.76947         5.00573
     2018.67488         6.94149         4.93390
     2018.67761         7.39951         5.00388
     2018.68035         1.43352         5.08676
     2018.68309        -0.90446         5.11162
     2018.68583         7.04956         4.99283
     2018.68856         6.19158         4.99468
     2018.69130         8.01559         4.99283
     2018.69404         7.56061         5.21200
     2018.69678         8.42763         5.09137
     2018.69952         9.32364         5.03980
     2018.70225         4.18766         5.08676
     2018.70499         5.02168         5.06282
     2018.70773         3.86369         4.99836
     2018.71047         4.14671         4.97718
     2018.71321         0.47473         5.05729
     2018.71594         4.45975         4.99652
     2018.71868        -2.80824         5.03888
     2018.72142         0.00878         4.94771
     2018.72416         3.62880         4.98086
     2018.72689         3.47081         5.05361
     2018.72963         0.64283         5.08676
     2018.73237        -0.60815         5.03980
     2018.73511         1.24786         5.01954
     2018.73785         2.10988         4.92009
     2018.74058         0.83190         4.99099
     2018.74332         8.62892         5.00665
     2018.74606         1.92093         5.05085
     2018.74880        -0.54705         5.05453
     2018.75154         3.49797         4.97073
     2018.75427         7.98798         4.98455
     2018.75701         0.22100         5.10334
     2018.75975         3.13602         5.00481
     2018.76249         2.95303         5.05361
     2018.76522        -1.18195         5.21844
     2018.76796         1.89107         4.96153
     2018.77070         8.01309         4.97810
     2018.77344         4.93810         4.99099
     2018.77618         6.26412         5.01309
     2018.77891         4.44714         5.14385
     2018.78165         8.41215         5.11715
     2018.78439         3.99117         4.98271
     2018.78713         4.23719         4.97810
     2018.78987        -3.37180         5.05453
     2018.79260        -1.45578         4.96337
     2018.79534         5.15824         5.00112
     2018.79808        -0.78774         4.97902
     2018.80082         6.65427         4.97073
     2018.80355         3.31029         4.94311
     2018.80629         7.15131         5.06190
     2018.80903         1.67632         4.97810
     2018.81177         2.11034         5.26725
     2018.81451         3.49636         5.01954
     2018.81724         2.22137         4.97994
     2018.81998         6.85139         5.04072
     2018.82272         5.47441         5.10702
     2018.82546         4.74243         5.06006
     2018.82820        -1.30356         5.01033
     2018.83093        -0.25154         5.03335
     2018.83367        -0.02252         5.00112
     2018.83641        -0.30851         4.97994
     2018.83915        -0.88749         5.02599
     2018.84188         2.01953         5.08308
     2018.84462         3.92854         4.98547
     2018.84736         0.12056         4.98363
     2018.85010         2.23858         4.96153
     2018.85284        -0.15040         5.01217
     2018.85557        -2.26539         5.00849
     2018.85831         2.88463         5.02783
     2018.86105        -0.48635         5.01309
     2018.86379         0.19866         5.07479
     2018.86653         5.03268         5.02322
     2018.86926        -3.79030         5.03335
     2018.87200         1.88171         4.98547
     2018.87474         4.49673         4.95048
     2018.87748         2.83875         5.00665
     2018.88021         2.30177         5.04993
     2018.88295         3.41978         5.07479
     2018.88569         3.27980         5.11254
     2018.88843        10.35082         5.17885
     2018.89117        -2.03517         5.18069
     2018.89390        -5.24815         5.10978
     2018.89664         2.99587         5.24515
     2018.89938         1.60788         5.09321
     2018.90212         3.74390         5.11991
     2018.90485         5.32392         5.13096
     2018.90759         7.49994         5.10149
     2018.91033         3.06595         5.13465
     2018.91307         9.85397         5.17424
     2018.91581         1.50999         5.09413
     2018.91854        -3.24500         5.16687
     2018.92128        -2.42598         5.09505
     2018.92402         2.13504         5.17424
     2018.92676         1.01505         5.04072
     2018.92950         4.27307         5.04624
     2018.93223        -3.19191         5.23226
     2018.93497        -3.23389         5.10057
     2018.93771         2.23112         5.05729
     2018.94045         2.64514         5.10702
     2018.94318         5.48816         4.97258
     2018.94592         0.49217         5.05453
     2018.94866         0.02419         4.98455
     2018.95140         7.33321         5.09965
     2018.95414        13.82722         5.02875
     2018.95687         5.81324         5.04624
     2018.95961         5.08426         4.99007
     2018.96235         2.85728         5.04993
     2018.96509        -0.84971         4.99376
     2018.96783         0.55131         5.01954
     2018.97056         7.30233         5.00665
     2018.97330        -2.00566         5.00112
     2018.97604        -4.83964         5.10886
     2018.97878        -6.15062         5.03427
     2018.98151       -10.49961         5.12267
     2018.98425        -0.53059         5.20831
     2018.98699        -8.71357         5.07571
     2018.98973        -6.85055         5.14754
     2018.99247        -1.63854         5.07939
     2018.99520        -5.37152         5.11070
     2018.99794        -7.12250         5.06927
     2019.00068        -9.30249         5.04256
     2019.00342        -6.61147         5.16319
     2019.00616        -2.60945         5.15398
     2019.00889         1.58556         5.00112
     2019.01163         0.30558         4.95784
     2019.01437         1.42460         5.05177
     2019.01711         2.03962         5.07939
     2019.01984       -12.22137         5.09505
     2019.02258        -8.20035         5.11623
     2019.02532        -1.37933         5.04624
     2019.02806        -3.66132         5.10610
     2019.03080        -2.15830         5.15030
     2019.03353        -4.88128         5.07479
     2019.03627        -7.79127         5.05453
     2019.03901         0.50875         5.09965
     2019.04175        -4.99323         5.07571
     2019.04449         0.47779         5.06834
     2019.04722        -3.45920         5.13280
     2019.04996       -15.47318         5.19726
     2019.05270        -6.96416         5.28935
     2019.05544        -5.63815         5.14385
     2019.05817        -6.34213         5.22120
     2019.06091         1.32289         5.14201
     2019.06365        -2.56710         5.12452
     2019.06639        -0.79708         5.09597
     2019.06913        -2.40606         5.21108
     2019.07186        -4.77604         5.17885
     2019.07460        -0.63903         5.04993
     2019.07734         2.39799         5.00296
     2019.08008         2.99101         5.06742
     2019.08282         1.68002         5.29303
     2019.08555         4.82504         5.11991
     2019.08829         0.57606         5.05729
     2019.09103         6.18107         5.01309
     2019.09377        -3.24791         4.98915
     2019.09650        -2.92389         4.97350
     2019.09924       -17.32587         5.06558
     2019.10198       -15.03486         5.06374
     2019.10472        -8.66684         5.05821
     2019.10746       -11.60182         5.00112
     2019.11019        -6.42281         5.04348
     2019.11293        -4.59479         5.18161
     2019.11567        -4.20677         5.34276
     2019.11841         5.85624         5.11347
     2019.12115         3.17026         5.19910
     2019.12388         6.88528         5.19450
     2019.12662         3.07630         5.09689
     2019.12936         1.23631         5.05269
     2019.13210         3.62033         5.03059
     2019.13483        -1.44365         5.07663
     2019.13757        -1.38764         5.05361
     2019.14031         5.87038         5.07847
     2019.14305         1.27940         5.03519
     2019.14579         1.45441         5.08216
     2019.14852        -5.52057         5.08216
     2019.15126         5.34345         5.08584
     2019.15400       -16.98253         5.12267
     2019.15674        -7.96552         5.11347
     2019.15948        -5.99050         5.07755
     2019.16221        -5.45548         5.12360
     2019.16495        -2.95247         4.99928
     2019.16769        -8.56645         5.08216
     2019.17043        -5.03743         5.07295
     2019.17316        -5.91142         5.05361
     2019.17590       -11.46840         5.13833
     2019.17864        -7.99738         5.06466
     2019.18138         0.35164         5.09597
     2019.18412       -13.11935         5.06650
     2019.18685       -12.82233         5.02046
     2019.18959        -7.68331         5.10426
     2019.19233        -3.61330         5.14938
     2019.19507        -6.47428         5.09597
     2019.19780        -8.34326         5.12175
     2019.20054        -7.64325         5.21660
     2019.20328        -9.82023         5.06098
     2019.20602        -7.03121         5.08400
     2019.20876       -10.77219         5.02691
     2019.21149        -8.41818         5.10794
     2019.21423        -2.35116         5.10149
     2019.21697        -7.10314         5.03519
     2019.21971        -7.13713         5.23778
     2019.22245        -6.34511         5.03059
     2019.22518        -5.92009         5.08216
     2019.22792        -6.57307         5.10702
     2019.23066        -6.87806         5.17240
     2019.23340        -5.75904         5.14109
     2019.23613        -5.27602         5.01494
     2019.23887        -8.20501         5.05637
     2019.24161       -12.93199         5.22581
     2019.24435        -2.67497         5.24699
     2019.24709        -6.86796         5.18253
     2019.24982        -4.25094         5.04532
     2019.25256        -3.81492         5.18990
     2019.25530        -9.09190         5.11715
     2019.25804        -9.25089         5.19634
     2019.26078        -8.17787         5.08952
     2019.26351       -10.03385         5.24607
     2019.26625        -7.61384         5.10518
     2019.26899        -7.15282         5.16227
     2019.27173        -6.22680         5.25528
     2019.27446       -10.18379         5.10518
     2019.27720        -6.83177         5.19910
     2019.27994        -1.65775         5.08308
     2019.28268        -6.25773         5.11807
     2019.28542         2.23428         5.02599
     2019.28815        -2.28770         5.03519
     2019.29089        -5.59868         5.06374
     2019.29363        -8.50367         5.11439
     2019.29637        -4.35565         5.13833
     2019.29911        -9.03363         5.08308
     2019.30184        -4.99962         5.10149
     2019.30458        -7.75360         5.04809
     2019.30732        -9.05758         5.09597
     2019.31006        -6.16556         5.19450
     2019.31279        -8.63455         5.15030
     2019.31553        -2.81953         5.03519
     2019.31827        -1.32651         5.01678
     2019.32101        -6.59350         5.11623
     2019.32375       -11.79248         5.05729
     2019.32648        -2.75446         5.04532
     2019.32922        -5.45745         4.99744
     2019.33196        -5.74443         5.11162
     2019.33470        -0.86941         5.07939
     2019.33744        -5.44139         5.07479
     2019.34017        -5.37338         5.08860
     2019.34291        -1.31436         5.01862
     2019.34565        -6.31734         5.09965
     2019.34839        -7.25433         5.05729
     2019.35112        -1.63831         5.01033
     2019.35386        -3.95129         5.01125
     2019.35660        -2.70428         5.00941
     2019.35934        -4.22726         5.01125
     2019.36208        -5.93424         5.07479
     2019.36481        -0.10722         5.05821
     2019.36755         0.93479         5.02322
     2019.37029         5.82281         5.08216
     2019.37303         4.46983         4.96245
     2019.37577        -2.35516         5.11991
     2019.37850         1.60886         4.97810
     2019.38124        -0.01112         5.02414
     2019.38398         2.31489         5.00204
     2019.38672         1.44391         4.96245
     2019.38945        -6.70507         5.01770
     2019.39219        -8.27705         4.97902
     2019.39493         2.79296         5.09781
     2019.39767         0.06298         5.06374
     2019.40041         1.83800         5.00020
     2019.40314         1.44701         4.97718
     2019.40588        -2.50697         5.01494
     2019.40862        -1.76295         5.04624
     2019.41136        -1.13994         5.02046
     2019.41410        -7.99792         5.07387
     2019.41683        -5.27890         5.30040
     2019.41957        -3.80188         5.23778
     2019.42231        -6.42287         4.97166
     2019.42505        -0.69085         5.03980
     2019.42778        -4.57383         5.27277
     2019.43052         4.07118         5.01954
     2019.43326        -4.55580         5.02875
     2019.43600        -7.74678         4.94771
     2019.43874       -10.71877         5.01586
     2019.44147       -12.34275         5.06558
     2019.44421        -4.26773         5.05361
     2019.44695       -15.15171         5.27185
     2019.44969        -7.26270         5.12636
     2019.45243        -6.25768         4.97718
     2019.45516        -7.06566         5.05821
     2019.45790        -6.41465         5.05269
     2019.46064       -10.44363         5.02322
     2019.46338        -6.92661         5.40998
     2019.46611         2.38140         5.28566
     2019.46874        -3.23970         5.47260
     2019.47159        -4.70556         5.02783
     2019.47433        -1.93154         5.09229
     2019.47707        -2.14353         5.09044
     2019.47980         1.80849         5.15582
     2019.48254        -7.00949         5.12083
     2019.48528        -2.68848         5.17977
     2019.48802       -10.41846         5.06374
     2019.49076        -9.21344         5.02046
     2019.49349        -8.34943         5.08676
     2019.49623        -2.84141         4.98086
     2019.49897        -3.72539         5.00112
     2019.50171        -8.11237         4.98823
     2019.50444        -6.30436         4.97166
     2019.50718        -7.64834         4.98731
     2019.50992        -0.03132         5.07019
     2019.51266        -2.82831         4.97073
     2019.51540        -4.76129         5.02691
     2019.51813       -11.61327         5.03059
     2019.52087        -5.45326         5.01033
     2019.52361        -5.63324         4.99007
     2019.52635        -4.41722         5.04256
     2019.52908        -2.25720         5.15214
     2019.53182        -5.61919         5.22120
     2019.53456        -9.87917         5.14201
     2019.53730        -0.21615         5.12175
     2019.54004        -0.70514         5.12820
     2019.54277         4.18988         5.10334
     2019.54551        -3.08510         5.32066
     2019.54825         2.30991         5.04072
     2019.55099        -5.72307         5.01217
     2019.55373         0.39795         5.10334
     2019.55646        -5.80503         5.20003
     2019.55920       -10.65602         5.31513
     2019.56194        10.37900         7.88798
     2019.56468        -8.40498         5.13372
     2019.56741        -4.02697         5.00573
     2019.57015        -1.29595         5.02599
     2019.57289        -0.64193         5.09689
     2019.57563         5.96708         5.03059
     2019.57837        -1.11190         5.10149
     2019.58110         4.69812         4.97718
     2019.58384        -8.57986         5.21015
     2019.58658        -3.65685         4.99191
     2019.58932         4.22217         5.06927
     2019.59206        -2.74981         5.26633
     2019.59479        -3.02180         5.17608
     2019.59753         1.28622         5.22305
     2019.60027        -0.10776         5.25528
     2019.60301        -4.46775         5.10702
     2019.60574         2.59927         5.20371
     2019.60848         2.78329         5.20647
     2019.61122        -5.61169         5.01125
     2019.61396        -2.98368         4.99283
     2019.61670         2.38534         4.98086
     2019.61943         2.92936         4.98455
     2019.62217         3.61737         5.13096
     2019.62491         1.46439         4.97073
     2019.62765         0.87141         4.96429
     2019.63039         3.49042         4.98639
     2019.63312        -2.45856         5.04164
     2019.63586        -0.28654         5.09505
     2019.63860         0.79448         5.10334
     2019.64407        -4.77649         5.01033
     2019.64681        -3.76047         5.03611
     2019.64955        -3.03446         4.99928
     2019.65229         6.50556         4.96337
     2019.65503        -3.75242         5.08584
     2019.65776        -4.74641         5.22949
     2019.66050        -8.64139         5.36302
     2019.66324        -0.43437         5.01494
     2019.66598        -0.74135         5.02046
     2019.66872         2.58666         5.04164
     2019.67145        -5.17432         5.03980
     2019.67419        -3.32430         5.02967
     2019.67693        -4.37729         5.36025
     2019.67967       -12.20327         5.27646
     2019.68240       -11.00225         4.96981
     2019.68514        -6.44324         5.17240
     2019.68788         0.79378         5.10610
     2019.69062        -0.64420         5.06927
     2019.69336        -3.98418         4.99007
     2019.69609        -1.50117         4.99007
     2019.69883        -5.83515         4.99744
     2019.70157        -3.39613         4.95968
     2019.70431        -3.50612         5.01586
     2019.70705         1.32190         5.09321
     2019.70978        -2.78808         5.00941
     2019.71252        -4.69507         5.05545
     2019.71526        -3.95905         4.93298
     2019.71800        -3.63703         5.13280
     2019.72073        -2.62801         5.19266
     2019.72347        -0.67500         5.04256
     2019.72621        -2.78198         4.99928
     2019.72895        -2.93996         4.94311
     2019.73169        -3.00095         5.03519
     2019.73442         0.87807         5.00112
     2019.73716         2.49009         5.07939
     2019.73990         6.75310         5.22673
     2019.74264        -7.76588         5.01586
     2019.74538        -6.67386         4.93390
     2019.74811         3.40316         5.06190
     2019.75085         2.08017         5.06927
     2019.75359         3.27219         5.26172
     2019.75633         0.13621         5.05085
     2019.75906        -0.72478         4.91825
     2019.76180        -2.24276         4.96797
     2019.76454         0.94926         5.07111
     2019.76728        -3.61373         5.13741
     2019.77002        -6.04071         5.08032
     2019.77275        -3.56069         5.09873
     2019.77549        -0.16967         5.00296
     2019.77823         0.26334         5.02138
     2019.78097         5.59136         5.14293
     2019.78371         3.17038         5.02414
     2019.78644         2.02039         5.00757
     2019.78918         0.21441         5.03704
     2019.79192         3.98543         5.14293
     2019.79466         4.05944         5.15582
     2019.79739         1.09046         5.10149
     2019.80013         4.41648         4.98823
     2019.80287        -2.42550         5.03796
     2019.80561         2.63851         5.05177
     2019.80835        -5.55647         5.09873
     2019.81108         0.98355         5.08584
     2019.81382        -3.33644         5.03151
     2019.81656         3.70358         5.06374
     2019.81924         0.52354         5.19358
     2019.82203        -2.32639         5.09873
     2019.82477        -2.71037         5.27922
     2019.82751        -3.42535         5.11347
     2019.83025        -0.50233         5.12636
     2019.83299         1.25468         5.10518
     2019.83572        -1.01530         5.10426
     2019.83846         4.49372         5.09137
     2019.84120         1.35773         5.05637
     2019.84394        -0.79925         5.16872
     2019.84668        -4.74223         5.03704
     2019.84941         1.65279         5.11070
     2019.85215        -1.74420         5.16227
     2019.85489        -0.43918         5.11899
     2019.85763         0.22884         5.17240
     2019.86036        -1.46415         5.03059
     2019.86310        -5.71213         5.16227
     2019.86584         7.52489         5.20555
     2019.86858         4.73990         5.12636
     2019.87132         4.78292         5.19726
     2019.87405         0.85994         5.14754
     2019.87679        -0.73104         5.21384
     2019.87953         6.41497         5.12360
     2019.88227        18.51399         5.20095
     2019.88501         3.12501         5.11070
     2019.88774         5.52702         5.25343
     2019.89048        10.59704         5.08032
     2019.89322         9.78106         5.03519
     2019.89596         3.18307         5.05729
     2019.89869         6.32009         5.12360
     2019.90143         7.67511         5.10057
     2019.90417         7.80413         5.04901
     2019.90691         4.87514         5.03243
     2019.90965        -1.09184         4.99376
     2019.91238         0.40118         5.01125
     2019.91512         5.89119         5.14109
     2019.91786         3.52221         5.17793
     2019.92060         4.73623         5.07387
     2019.92334        10.24924         5.03611
     2019.92607         3.53826         5.03519
     2019.92881         1.36828         5.11715
     2019.93155        -0.21170         5.13188
     2019.93429         5.03031         5.05453
     2019.93702         0.28333         5.06282
     2019.93976        -2.22765         5.07111
     2019.94250         0.89836         5.19266
     2019.94524       -10.82062         5.13188
     2019.94798       -14.52060         5.12175
     2019.95071       -17.70459         5.37038
     2019.95345         1.44443         5.03888
     2019.95619         1.21245         5.07387
     2019.95893        -4.67853         5.08584
     2019.96167         2.29948         5.05177
     2019.96440         0.34350         5.16319
     2019.96714        -8.18648         5.27646
     2019.96988        -7.60447         5.14662
     2019.97262        -7.34745         5.14293
     2019.97535         4.26957         5.07479
     2019.97809        -3.32842         5.02046
     2019.98083        -6.30340         5.03888
     2019.98357        -3.89938         5.09781
     2019.98631        -3.30836         5.11070
     2019.98904        -3.80935         5.08492
     2019.99178        -1.03333         5.06098
     2019.99452        -3.04431         5.00481
     2019.99726        -0.59030         5.05545
     2020.00000         2.94672         5.14109
     2020.00273        -0.87126         5.09597
     2020.00547         0.87975         5.17424
     2020.00821        -6.58223         5.22949
     2020.01095        -5.22321         5.15030
     2020.01368        -5.29119         5.23778
     2020.01642         1.94382         5.18161
     2020.01916         1.88784         5.09689
     2020.02190       -12.67914         5.16411
     2020.02464       -12.84213         5.09965
     2020.02737        -8.16011         5.20371
     2020.03011        -6.57209         5.13004
     2020.03285        -9.74808         5.08400
     2020.03559       -11.70106         5.09689
     2020.03833        -2.25104         4.99744
     2020.04106        -5.74302         5.05914
     2020.04380        -3.59901         4.99099
     2020.04654        -7.61199         5.01309
     2020.04928        -9.54497         4.99652
     2020.05201        -4.75096         5.00665
     2020.05475         0.67506         5.03888
     2020.05749        -5.70992         4.96429
     2020.06023         1.39109         4.95416
     2020.06297        -3.73689         5.02138
     2020.06570         1.23013         4.97442
     2020.06844        -1.19485         5.03335
     2020.07118         0.71416         5.00481
     2020.07392        -2.37182         5.05821
     2020.07666        -4.72580         4.95968
     2020.07939        -4.10879         4.97810
     2020.08213        -4.92677         4.98731
     2020.08487        -4.07875         5.01494
     2020.08761         1.99626         5.01954
     2020.09034        -0.33672         4.94771
     2020.09308        -3.59570         4.96429
     2020.09582         1.14532         5.03059
     2020.09856        -6.26567         4.98086
     2020.10130        -6.57965         4.99376
     2020.10403        -5.30363         5.00941
     2020.10677        -5.32162         4.97718
     2020.10951        -6.65160         4.95968
     2020.11225       -11.26258         4.95140
     2020.11498        -4.44057         4.97166
     2020.11772        -4.66055         5.08952
     2020.12046        -7.85953         5.13465
     2020.12320        -7.14251         4.97166
     2020.12594       -12.72150         4.99652
     2020.12867       -10.30148         5.01125
     2020.13141        -3.67646         5.02967
     2020.13415        -5.53045         4.94127
     2020.13689        -0.74543         5.03519
     2020.13963        -3.84441         5.05729
     2020.14236        -2.40740         4.98731
     2020.14510         0.89362         5.09044
     2020.14784        -7.25836         5.01125
     2020.15058        -5.81134         4.97258
     2020.15331        -8.05033         4.97258
     2020.15605        -6.98731         4.99376
     2020.15879        -5.62929         5.02691
     2020.16153        -0.26828         5.06190
     2020.16427         1.56574         4.96613
     2020.16700         2.94376         5.00941
     2020.16974        -3.56523         4.94955
     2020.17248        -0.18821         4.99652
     2020.17522        -2.18019         5.01401
     2020.17796        -4.99317         5.02506
     2020.18069        -9.54016         4.97350
     2020.18343        -7.96614         4.91825
     2020.18617        -4.81712         4.94771
     2020.18891        -5.85011         5.10794
     2020.19164        -3.36309         5.06374
     2020.19438        -5.05507         5.11715
     2020.19712        -2.30706         5.07295
     2020.19986        -6.60204         5.10518
     2020.20260        -1.86302         5.00388
     2020.20533        -4.87600         5.04809
     2020.20807         2.49601         5.04624
     2020.21081       -10.40797         5.12083
     2020.21355       -11.16695         5.54811
     2020.21629        -2.17794         5.26356
     2020.21902        -7.36392         5.14385
     2020.22176        -4.75690         5.12544
     2020.22450        -2.89889         5.12360
     2020.22724        -4.20787         5.05177
     2020.22997         0.83215         5.01217
     2020.23271         1.86917         4.97994
     2020.23545        -0.22882         5.03980
     2020.23819        -3.58980         5.07479
     2020.24093        -3.52978         5.09413
     2020.24366        -7.41177         5.07019
     2020.24640        -9.13675         5.05914
     2020.24914        -3.45673         5.12820
     2020.25188        -2.91772         5.07939
     2020.25462         0.35730         5.02414
     2020.25735        -0.93968         5.13465
     2020.26009         7.03534         5.08308
     2020.26283         1.43135         5.06927
     2020.26557        -1.08663         5.10702
     2020.26830         0.26939         5.08676
     2020.27104        -4.25860         5.07663
     2020.27378        -5.65958         5.07571
     2020.27652        -3.55156         5.06650
     2020.27926         0.79545         5.13649
     2020.28199        -2.61753         5.11347
     2020.28473        -3.96451         5.08676
     2020.28747        -6.54349         5.19910
     2020.29021        -1.98648         5.08952
     2020.29295        -4.19046         5.01217
     2020.29568         0.67956         5.14938
     2020.29842        -0.40643         5.11254
     2020.30116         2.74359         5.11807
     2020.30390         1.13961         5.07111
     2020.30663        -2.72938         5.12728
     2020.30937        -1.73136         5.20003
     2020.31211        -3.46234         5.20647
     2020.31485        -3.39032         5.17424
     2020.31759        -4.24531         5.10702
     2020.32032        -0.41629         5.02875
     2020.32306        -4.69427         5.04901
     2020.32580        -5.70726         5.08216
     2020.32854         3.80976         5.20371
     2020.33128        -2.22022         5.05269
     2020.33401        -3.55921         5.06466
     2020.33675         0.50781         5.04993
     2020.33949        -3.00217         4.99560
     2020.34223        -5.43215         5.07571
     2020.34496        -7.29414         5.02322
     2020.34770        -6.77412         5.06650
     2020.35044        -4.10610         5.12452
     2020.35318        -5.37909         5.15582
     2020.35592        -1.21007         5.09781
     2020.35865         6.77995         5.03704
     2020.36139        -7.48104         5.16227
     2020.36413        -3.56402         5.01494
     2020.36687        -2.80000         5.02967
     2020.36961        -2.33498         5.01954
     2020.37234        -1.92697         4.94311
     2020.37508        -6.43095         4.98547
     2020.37782        -5.73093         4.98823
     2020.38056        -1.83992         5.07203
     2020.38329        -7.32590         4.99836
     2020.38603        -4.60188         5.02414
     2020.38877        -4.26787         5.07295
     2020.39151        -4.47885         5.00481
     2020.39425        -4.40783         5.00757
     2020.39698        -5.68581         4.95324
     2020.39972        -2.49780         4.96521
     2020.40246        -4.12978         4.97073
     2020.40520        -4.84576         5.09413
     2020.40794        -7.84475         5.07387
     2020.41067         0.56827         5.11531
     2020.41341         2.46329         5.05085
     2020.41615        -3.96670         4.98178
     2020.41889        -8.08668         4.97718
     2020.42162        -6.73866         5.14201
     2020.42436        -7.17564         5.24975
     2020.42710        -4.30863         5.30224
     2020.42984        -6.77761         5.18621
     2020.43258        -1.95259         5.01954
     2020.43531        -6.01758         5.07847
     2020.43805        -3.91956         5.09597
     2020.44079        -5.72054         5.16595
     2020.44353         4.97948         5.17148
     2020.44626        -5.41251         5.04164
     2020.44900         6.61651         4.96981
     2020.45174         0.20853         4.97718
     2020.45448        -1.63946         5.03796
     2020.45722         1.22356         4.95324
     2020.45955        -4.05486         5.79213
     2020.46269        -4.94541         5.01401
     2020.46543        -1.68339         4.95416
     2020.46817        -4.09737         5.02691
     2020.47091        -7.29035         5.06927
     2020.47364        -5.64334         5.00665
     2020.47638        -0.42132         5.01309
     2020.47912        -2.30130         5.04256
     2020.48186        -8.02229         5.04440
     2020.48459        -4.56527         5.08216
     2020.48733        -0.56325         5.29856
     2020.49007         5.00176         5.09321
     2020.49281         7.55278         5.10057
     2020.49555        -1.40920         5.08584
     2020.49828         1.87382         5.02691
     2020.50102        -4.83517         4.99007
     2020.50376        -3.40315         4.99283
     2020.50650        -1.68313         5.00020
     2020.50924        -6.33112         4.99836
     2020.51197        -4.63210         4.97442
     2020.51471         3.41192         4.96613
     2020.51745        -1.12607         4.89615
     2020.52019         5.19495         5.07663
     2020.52292         2.36097         5.16319
     2020.52566        -3.37101         5.10149
     2020.52840         3.70900         5.08492
     2020.53114         1.70902         5.06466
     2020.53388        -0.61096         5.09597
     2020.53661        -0.56295         5.00112
     2020.53935         1.25107         5.08952
     2020.54209         8.82009         5.23778
     2020.54483         0.36310         5.21108
     2020.54757         4.30412         5.13372
     2020.55030        -1.05786         5.13372
     2020.55304         4.73716         5.04716
     2020.55578         8.23017         5.18805
     2020.55852        -0.65381         5.11439
     2020.56125         4.39121         5.16227
     2020.56399         4.48822         5.05545
     2020.56673        -1.31776         5.07203
     2020.56947         3.17526         5.05453
     2020.57221        10.30327         5.28106
     2020.57494         9.14829         5.09965
     2020.57768         4.90131         5.14385
     2020.58042        -0.57367         5.05361
     2020.58316        -1.24966         5.17977
     2020.58590         0.04836         5.12083
     2020.58863         1.87938         5.09781
     2020.59137         7.64739         5.13280
     2020.59411         5.38441         5.11899
     2020.59685         7.97443         5.24331
     2020.59958        -4.86656         5.12452
     2020.60232         4.77346         5.02875
     2020.60506         2.24848         5.01309
     2020.60780         1.97250         5.08400
     2020.61054         6.99451         5.15582
     2020.61327         7.25753         5.07295
     2020.61601         5.45555         4.99928
     2020.61875        -0.54744         5.01494
     2020.62109        -0.54486         6.25624
     2020.62696        -6.78639         5.13557
     2020.62970        -2.26737         5.16043
     2020.63244        -1.54735         5.34460
     2020.63518         6.35667         5.07019
     2020.63791        -4.33632         5.19818
     2020.64065        -8.76430         5.21752
     2020.64339        -4.67328         5.09044
     2020.64613        -4.28527         5.14754
     2020.64887         0.48875         5.10886
     2020.65160         2.42677         5.03704
     2020.65434         2.49678         5.16503
     2020.65708         0.27180         5.16595
     2020.65982         1.59882         5.06282
     2020.66256         3.15084         5.05453
     2020.66529         8.43785         5.04348
     2020.66803         2.58787         5.05361
     2020.67077         5.31589         5.06006
     2020.67351        10.28290         5.04256
     2020.67624         0.37892         4.98547
     2020.67898        -1.22406         5.06190
     2020.68172        -0.12305         5.04440
     2020.68446         2.27597         5.28106
     2020.68720        -0.48701         5.15951
     2020.68993         4.29801         5.03151
     2020.69267         4.59502         5.10426
     2020.69541         0.42604         5.27001
     2020.69815         1.52006         5.15398
     2020.70089         2.69407         5.08124
     2020.70362         1.78509         5.08584
     2020.70636         1.75111         5.24146
     2020.70910        -2.87888         5.25988
     2020.71184         4.58814         5.19542
     2020.71457        -4.71484         5.24146
     2020.71731        -0.04082         5.23594
     2020.72005        -3.08481         5.20463
     2020.72279         1.28921         5.04901
     2020.72553         5.63523         5.23594
     2020.72826         3.13124         5.14201
     2020.73100         9.19326         5.22673
     2020.73374         9.34528         5.14385
     2020.73648         4.11829         5.09689
     2020.73921         0.32631         5.04164
     2020.74195         9.19833         5.04532
     2020.74469         1.27535         5.07939
     2020.74743         2.07536         5.08216
     2020.75017         4.00438         5.07663
     2020.75290         1.11240         5.10702
     2020.75564         4.02041         5.08860
     2020.75838         0.33643         4.95140
     2020.76112        -0.60055         5.02046
     2020.76386         6.55046         5.00112
     2020.76659         7.02648         4.98271
     2020.76933         6.67850         5.10426
     2020.77207         8.50852         5.00020
     2020.77481         6.00653         5.02599
     2020.77754         1.70555         5.04993
     2020.78028        12.29657         5.13649
     2020.78302         2.99358         5.06834
     2020.78576         5.19760         4.99007
     2020.78850        -2.25938         5.00757
     2020.79123         1.06963         5.02506
     2020.79397        -0.47635         5.08032
     2020.79671         1.94267         5.06742
     2020.79945         0.02169         4.99928
     2020.80219         4.27570         5.13925
     2020.80492         5.78872         5.01309
     2020.80766         5.14574         5.13096
     2020.81040         4.11775         5.11439
     2020.81314         8.72077         5.06190
     2020.81587         1.45479         5.04532
     2020.81861         2.87580         5.04256
     2020.82135         3.31482         5.07387
     2020.82409         4.13084         5.08860
     2020.82683         2.10886         5.08676
     2020.82956         2.41087         5.10334
     2020.83230         8.66689         5.17240
     2020.83504         4.67791         5.10978
     2020.83778         4.98392         5.00388
     2020.84052         3.90794         5.01033
     2020.84325        -1.77704         5.13372
     2020.84599         2.28897         5.15582
     2020.84873        10.93899         5.08860
     2020.85147         0.71301         5.03335
     2020.85694        11.74204         5.08032
     2020.85968         7.84706         5.02138
     2020.86242        11.85708         5.03980
     2020.86516         8.53709         5.16227
     2020.86789        14.57611         5.21752
     2020.87063         6.19913         5.06374
     2020.87337         5.49514         5.09965
     2020.87611        10.71916         5.21476
     2020.87885         7.07918         5.20923
     2020.88158        -0.55880         5.17332
     2020.88432         2.89321         5.10702
     2020.88706        -0.73677         5.29119
     2020.88980         1.35325         5.21108
     2020.89253         3.71726         5.08308
     2020.89527         5.54228         5.20831
     2020.89801         6.76030         5.20003
     2020.90075         5.06231         5.08216
     2020.90349         4.52933         5.11162
     2020.90622         3.94235         5.09873
     2020.90896         4.73037         5.24146
     2020.91170         1.37538         5.32894
     2020.91444         7.08540         5.15122
     2020.91718         0.75242         5.08676
     2020.91991        -2.39857         5.10610
     2020.92168       -10.13062        10.07131
     2020.92522        -2.00072         5.46615
     2020.93908         0.47955         5.11899
     2020.94182        -3.91643         5.15859
     2020.94455        -4.72441         5.11715
     2020.94729        -8.65240         5.09137
     2020.95003        -2.59338         5.09781
     2020.95277       -10.65836         5.09597
     2020.95551        -4.86635         5.13004
     2020.95824        -2.14933         5.12636
     2020.96098        -4.88431         5.12083
     2020.96372        -5.57529         5.12728
     2020.96646         3.16072         5.18990
     2020.96919         6.55474         5.14662
     2020.97193        -1.14924         5.01770
     2020.97467         1.99577         5.14846
     2020.97741        -4.02921         5.14846
     2020.98015        -1.84419         5.26909
     2020.98288        -1.22518         5.20923
     2020.98562        -2.81116         5.00573
     2020.98836         5.05386         5.00296
     2020.99110         5.42888         5.03980
     2020.99384         1.41389         5.06006
     2020.99657         6.34091         5.03519
     2020.99931         0.29693         4.99744
     2021.00205         0.08594         5.02967
     2021.00479         8.14296         5.07755
     2021.00752         3.58098         5.06742
     2021.01026         7.64299         5.06098
     2021.01300         1.19401         5.12452
     2021.01574         7.55603         5.00296
     2021.01848        -7.51895         5.08216
     2021.02121        -5.28494         5.08308
     2021.02395         2.34208         4.98639
     2021.02669        -2.19490         5.06374
     2021.02943        -2.00389         5.03704
     2021.03216         1.44113         5.01954
     2021.03450         2.81071         6.10982
     2021.04038        -6.97282         5.10886
     2021.04312         0.62320         5.07663
     2021.04585        -0.89178         5.11531
     2021.04859         1.50423         5.02046
     2021.05133         0.44125         5.03059
     2021.05407         5.89927         5.34552
     2021.05681         2.65228         5.16135
     2021.05954         1.87730         5.06742
     2021.06776         3.33935         5.09229
     2021.07049         0.51837         5.08768
     2021.07323         5.45039         5.06282
     2021.07597        -5.33860         5.09321
     2021.07871        -0.11458         5.02230
     2021.08145        -0.82156         5.06558
     2021.08418       -10.86655         5.12912
     2021.08692        -3.26753         5.09965
     2021.08966        -7.49151         5.16872
     2021.09240       -15.31649         5.11715
     2021.09514        -3.94148         5.22949
     2021.09787        -3.44646         5.23318
     2021.10061         2.76956         5.06282
     2021.10335         3.96257         5.11715
     2021.10609        -5.80941         5.12360
     2021.10882         3.32861         5.10794
     2021.11156        -4.68538         5.09413
     2021.11430        -4.04836         5.09873
     2021.11704        -1.48734         5.11439
     2021.11978        -2.27032         5.13004
     2021.12251        -0.97931         5.12912
     2021.12525       -12.39129         5.17516
     2021.12799        -1.58427         5.16872
     2021.13073        -5.61726         5.09044
     2021.13347       -10.66124         5.15030
     2021.13620       -12.77922         5.15306
     2021.13894        -4.71421         5.12544
     2021.14168        -3.87019         5.14385
     2021.14442        -3.24517         5.10518
     2021.14715        -2.04915         5.13280
     2021.14989        -7.94714         5.09597
     2021.15166        -1.43419        10.86968
     2021.16358        -3.16005         5.26264
     2021.16632         3.23596         5.22305
     2021.16906         4.15498         5.07571
     2021.17180        -0.75900         5.14938
     2021.17453        -3.03698         5.21936
     2021.17727        -5.92497         5.22028
     2021.18001        -1.53795         5.16964
     2021.18275        -3.91293         5.37775
     2021.18548         0.07108         5.13280
     2021.18822        -3.22890         5.09044
     2021.19079        -1.58807         5.48273
     2021.19370        -1.58787         5.18161
     2021.19644        -7.52885         5.05361
     2021.19917        -6.11883         5.11807
     2021.20191        -2.82781         5.09505
     2021.20465         0.65220         5.10518
     2021.20739        -3.20778         5.10057
     2021.21013         2.34924         5.18437
     2021.21286       -10.78375         5.23870
     2021.21560        -2.79173         5.12636
     2021.21834        -4.22471         5.10978
     2021.22108        -4.42570         5.09597
     2021.22381        -1.16868         5.07847
     2021.22655        -0.51366         5.06650
     2021.22929         1.50536         5.07295
     2021.23203         3.05037         5.08492
     2021.23477        -4.95361         5.06006
     2021.23750        -4.55959         5.07295
     2021.24024        -3.18358         5.10149
     2021.24298        -3.58856         5.04256
     2021.24572        -5.50954         5.07203
     2021.25119        -0.60951         5.08216
     2021.25393         3.16951         5.05545
     2021.25667        -2.59447         5.03888
     2021.25941        -2.18846         5.08584
     2021.26214         4.60256         5.05637
     2021.26488         4.73758         5.06742
     2021.26762         2.26259         5.13004
     2021.27036         1.61861         5.11623
     2021.27310         0.30763         5.08216
     2021.27583        -1.95836         5.06558
     2021.27857        -2.88934         5.22397
     2021.28131        -0.02732         5.15951
     2021.28405        -1.05530         5.13372
     2021.28679         0.73071         5.18345
     2021.28952         5.56973         5.11070
     2021.29226        -1.55825         5.18713
     2021.29500         1.19376         5.14938
     2021.29774         1.41678         5.29027
     2021.30047         3.52880         5.11531
     2021.30321        10.75381         5.14201
     2021.30595         9.23083         5.22397
     2021.30869         9.20585         5.33539
     2021.31143         7.00087         5.11531
     2021.31416        -0.81612         5.09689
     2021.31690         5.85090         5.06374
     2021.31964        -0.06908         5.16319
     2021.32238        -0.64507         5.21844
     2021.32512        -4.04705         5.12820
     2021.32785        -0.87203         5.01494
     2021.33059         1.61598         5.14385
     2021.33333         4.24300         5.14477
     2021.33607        -1.83698         5.08492
     2021.33880        -2.20896         5.13925
     2021.34154         1.93305         5.07939
     2021.34428        -1.46393         5.25528
     2021.34702        -7.95891         5.12452
     2021.34976        -4.05890         5.08768
     2021.35249        -2.91488         5.13741
     2021.35523        -1.75786         5.12267
     2021.35797        -5.06485         5.09321
     2021.36071        -5.64383         5.10149
     2021.36344        -4.22681         5.19266
     2021.36618        -7.66379         5.16043
     2021.36892       -10.37178         5.40077
     2021.37166        -7.03476         5.14477
     2021.37440        -1.61274         5.15490
     2021.37616         8.18021         9.26741
     2021.37987         0.63229         5.22765
     2021.38261        -9.06769         5.47352
     2021.38535        -4.16868         5.25343
     2021.38809        -0.73266         5.21200
     2021.39082        -3.64864         5.12360
     2021.39356        -3.76462         5.12912
     2021.39630        -8.05961         5.19358
     2021.39904        -6.26459         5.20279
     2021.40177        -1.99357         5.19358
     2021.40451        -4.71556         5.26541
     2021.40725        -0.39854         5.13188
     2021.40999         0.71748         5.12544
     2021.41273        -3.95851         5.13004
     2021.41546        -1.27949         5.17148
     2021.41820       -10.32747         5.17240
     2021.42094        -2.47445         5.31053
     2021.42368         0.09856         5.26080
     2021.42642         1.29058         5.30869
     2021.42915         2.31460         5.19266
     2021.43189         0.47661         5.21292
     2021.43463        -1.54737         5.08676
     2021.43737        -6.41935         5.21568
     2021.44010        -6.09534         5.23318
     2021.44284        -4.89332         5.22305
     2021.44558         1.53770         5.34368
     2021.44832         0.81272         5.28566
     2021.45106         5.18573         5.45142
     2021.45379        -1.48625         5.34736
     2021.45653        -1.03223         5.22489
     2021.45927         1.16278         5.14754
     2021.46201         1.30080         5.11162
     2021.46475        -4.63418         5.23870
     2021.46748         0.82183         5.26448
     2021.47022         1.29885         5.26356
     2021.47296         8.94287         5.35197
     2021.47570        -0.14811         5.15398
     2021.47843        -0.65510         5.26264
     2021.48117        -5.93208         5.20003
     2021.48391        -2.32006         5.12452
     2021.48665        -1.14105         5.17148
     2021.48939        -1.24103         5.14017
     2021.49212         7.18799         5.11715
     2021.49429         7.19138         6.69824
     2021.76317         6.35567         5.47075
     2021.76591         9.03469         5.22857
     2021.76865         6.47471         5.23962
     2021.77138         7.86472         5.16687
     2021.77412         4.54874         5.26448
     2021.77686        10.86176         5.17148
     2021.77960         7.81177         5.22028
     2021.78234         8.36979         5.25528
     2021.78507        13.82381         5.19726
     2021.78781         7.21782         5.14570
     2021.79009         6.51734         6.37411
     2021.79603         8.19388         5.17885
     2021.79876         3.56889         5.11254
     2021.80150         5.85291         5.36025
     2021.80424         9.85593         5.39525
     2021.80698         0.14194         5.17700
     2021.80971         2.07696         5.15859
     2021.81245        13.88198         5.27277
     2021.81519         9.11499         5.12360
     2021.81793         9.78901         5.13649
     2021.82067         7.16103         5.35933
     2021.82340         6.02105         5.24423
     2021.82614         5.31406         5.25159
     2021.82888         7.17408         5.17885
     2021.83162         9.07410         5.18529
     2021.83436        11.45411         5.25159
     2021.83709        11.89313         5.27646
     2021.83983        -5.42585         5.26448
     2021.84217         5.18172         6.48184
     2021.89286        -3.11441        10.30889
     2021.89459         2.90849         5.14293
     2021.89733        -0.28050         5.17516
     2021.90006        -7.88648         5.20647
     2021.90280        -1.07746         5.15767
     2021.90560         0.18262         5.25251
     2021.90828         4.20157         5.14017
     2021.91102         7.03959         5.10334
     2021.91375         3.76361         5.24607
     2021.91649         1.38862         5.11807
     2021.91923         4.19064         5.18621
     2021.92197         0.68466         5.39156
     2021.92470        -2.62933         5.28843
     2021.92744         2.67569         5.36486
     2021.93018         0.57371         5.31697
     2021.93292         8.65673         5.38788
     2021.93566        12.22474         5.36302
     2021.93839         7.14676         5.35841
     2021.94113        12.19478         5.42840
     2021.94387         5.77879         5.30592
     2021.94661         4.96881         5.24331
     2021.94935         5.01183         5.23870
     2021.95208         0.41284         5.16319
     2021.95482         1.90086         5.25159
     2021.95756        13.30388         5.26633
     2021.96030         2.59290         5.37959
     2021.96303         5.57391         5.37407
     2021.96577         7.49893         5.37867
     2021.96851         6.11195         5.32710
     2021.97125         9.38396         5.43116
     2021.97399         6.51198         5.38327
     2021.97672         1.00900         5.32986
     2021.97946         9.66301         5.40353
     2021.98220         4.01503         5.31329
     2021.98494         7.58205         5.34092
     2021.98767         0.71007         5.25067
     2021.99041        -6.45392         5.30684
     2021.99315        -5.28590         5.22581
     2021.99589         2.30112         5.28659
     2021.99863        -2.84187         5.29856
     2022.00136        -1.46485         5.24515
     2022.00410        -4.51183         5.26448
     2022.00684        -1.16882         5.24423
     2022.00958        -9.40480         5.26725
     2022.01232       -10.04378         5.27277
     2022.01505        -0.90576         5.34092
     2022.01779         5.80125         5.28014
     2022.02053         5.02427         5.18529
     2022.02327        -1.80971         5.56652
     2022.02600        -7.48770         5.25251
     2022.02874        -2.02268         5.25343
     2022.03148        -7.06566         5.26080
     2022.03422        -2.10665         5.20923
     2022.03696        -1.22463         5.17332
     2022.03969        -8.02561         5.19450
     2022.04243        -1.30959         5.46523
     2022.04517        -3.00158         5.28659
     2022.04791        -0.27756         5.23133
     2022.05065        -0.96254         5.20647
     2022.05338        -3.74453         5.19082
     2022.05612       -10.72651         5.26448
     2022.05886       -16.60849         5.22489
     2022.06160       -10.08048         5.17700
     2022.06433        -3.39046         5.22028
     2022.06707        -7.36444         5.22949
     2022.06981         2.56858         5.18345
     2022.07255        -9.38341         5.10978
     2022.07529        -4.14339         5.08124
     2022.07802        -1.89637         5.13741
     2022.08076         1.41464         5.17977
     2022.08350         4.36966         5.13557
     2022.08624         0.21868         5.30316
     2022.08898         1.87869         5.31513
     2022.09171        -2.46429         5.10057
     2022.09445        -6.12127         5.12083
     2022.09719        -5.10625         5.09229
     2022.09993        -5.40124         5.26541
     2022.10266        -8.33622         5.26725
     2022.10540        -1.67320         5.18805
     2022.10814         1.50281         5.17332
     2022.11088        -0.64317         5.10978
     2022.11362         2.77685         5.64387
     2022.11635         1.72286         5.45602
     2022.11909        -1.64012         5.56929
     2022.12183         0.74490         5.16964
     2022.13278        -1.83903         5.09413
     2022.13552        -2.70102         5.07571
     2022.13826         3.38400         5.11162
     2022.14099         2.73102         5.08492
     2022.14373        -0.91697         5.09965
     2022.14647         3.24305         5.17148
     2022.14921         5.60607         5.39801
     2022.15195        -2.08791         5.36025
     2022.15468         4.20110         5.08768
     2022.15742         6.25412         5.14846
     2022.16016        -2.78886         5.14017
     2022.16290         1.16315         5.19450
     2022.16564         2.04217         5.07019
     2022.16837         1.80819         5.12636
     2022.17111         2.08920         5.19082
     2022.17385         1.82222         5.22028
     2022.17659         1.90524         5.11899
     2022.17932        -3.13674         5.10978
     2022.18206        -5.44573         5.12360
     2022.18480         0.16829         5.09873
     2022.18754         0.96631         5.21292
     2022.19028        -2.38168         5.23410
     2022.19301         0.95334         5.18621
     2022.19575         4.33436         5.18898
     2022.19849        -0.83363         5.12267
     2022.20123        -1.25561         5.29211
     2022.20397         0.73041         5.35012
     2022.20670         0.42943         5.21844
     2022.20944         4.44544         5.23778
     2022.21218        -0.04254         5.15675
     2022.21492         1.06848         5.78108
     2022.21765        -1.52351         5.16687
     2022.22039        -5.19149         5.17332
     2022.22313        -0.49547         5.14662
     2022.22587        -5.08746         5.20371
     2022.22861         3.13756         5.27277
     2022.23134         5.87858         5.15306
     2022.23408         8.86660         5.16319
     2022.23682         9.44361         5.27922
     2022.23956         0.92763         5.13557
     2022.24230         3.93365         5.15582
     2022.24503         4.39466         5.19450
     2022.24777         9.39568         5.13649
     2022.25051        -0.46630         5.15214
     2022.25330         6.40078         5.48733
     2022.25598         0.92373         5.17240
     2022.25872         1.33875         5.22120
     2022.26146        -1.14423         5.20923
     2022.26420         1.35478         5.18898
     2022.26694         7.15380         5.32526
     2022.26967         1.10582         5.19818
     2022.27241        11.33983         5.18805
     2022.27515         5.30985         5.37683
     2022.27789         2.01587         5.17056
     2022.28062        -3.80811         5.22397
     2022.28336        -8.41010         5.15859
     2022.28610         1.41192         5.30224
     2022.28884         4.40594         5.31605
     2022.29158         0.67995         5.21936
     2022.29431        -2.58703         5.17424
     2022.29705        -3.76401         5.25343
     2022.29979        -0.14900         5.23502
     2022.30253        -2.21298         5.29764
     2022.30527         4.39404         5.29764
     2022.30800        -4.68494         5.16964
     2022.31074         2.71807         5.21200
     2022.31348         0.93509         5.19910
     2022.31622        -3.70989         5.22489
     2022.31895       -18.65188         5.30776
     2022.32169         0.59914         5.26356
     2022.32443         2.55716         5.22397
     2022.32717        -7.25883         5.22949
     2022.32991        -1.55281         5.21015
     2022.33264        -4.11479         5.32802
     2022.33538        -3.26777         5.39525
     2022.33812        -5.04376         5.54442
     2022.34086         4.59126         5.24054
     2022.34360        -6.12872         5.38696
     2022.34633        -3.85271         5.25436
     2022.34907        -3.48469         5.17056
     2022.35181         0.92133         5.20187
     2022.35455        -3.96466         5.20555
     2022.35728        -5.63164         5.18990
     2022.36002         4.31338         5.20555
     2022.36276        -6.41960         5.24423
     2022.36550        -4.38159         5.23041
     2022.36824        -3.77057         5.19542
     2022.37097         4.49945         5.24146
     2022.37371        -5.69154         5.19542
     2022.37645        -3.88952         5.28014
     2022.37919         0.43150         5.38327
     2022.38193        -0.31849         5.31329
     2022.38466        -4.21247         5.17885
     2022.38740       -14.10545         5.22489
     2022.39014        -1.38843         5.19082
     2022.39288        -0.13042         5.19358
     2022.39561         1.03960         5.25159
     2022.39835        -0.44738         5.21200
     2022.40109        -7.10037         5.27001
     2022.40383         2.16665         5.18898
     2022.40657         2.18567         5.22305
     2022.40930        -7.67532         5.24791
     2022.41204         2.99370         5.29211
     2022.41478        -7.87128         5.13741
     2022.41752        -1.75226         5.31145
     2022.42026         0.52275         5.40906
     2022.42185        -5.65149        12.68007
     2022.42847         4.62180         5.21292
     2022.43121        -1.24718         5.28659
     2022.43394         9.82584         5.28198
     2022.43668         0.98885         5.20003
     2022.43942         6.04987         5.28290
     2022.44216        -3.96311         5.22213
     2022.44490         3.57491         5.49654
     2022.44763         2.15092         5.12544
     2022.45037        -3.56606         5.15582
     2022.45311        -1.64404         5.13649
     2022.45585        -0.78403         5.16043
     2022.45859       -11.27901         5.17516
     2022.46132         1.27401         5.16872
     2022.46406        -2.89798         5.12636
     2022.46680        -3.44396         5.14385
     2022.46954        -1.13694         5.12728
     2022.47227       -13.97392         5.16687
     2022.47501         5.33209         5.20831
     2022.47775         3.42811         5.33907
     2022.48049        -0.00187         5.16872
     2022.48323         6.97414         5.20095
     2022.48596         6.90616         5.29948
     2022.48870        -6.80582         5.22397
     2022.49144         0.24619         5.22765
     2022.49418        -2.42479         5.27185
     2022.49692        -0.79377         5.16687
     2022.49965       -10.33475         5.25804
     2022.50239       -16.13374         5.26448
     2022.50513         1.97428         5.53613
     2022.50787        14.68930         5.46523
     2022.51060        -2.51069         5.33631
     2022.51334         1.20433         5.11531
     2022.51608        -7.93365         5.25251
     2022.51882        -8.78664         5.29948
     2022.52156        -2.98262         5.17240
     2022.52429         6.94340         5.09044
     2022.52703        12.44042         5.17056
     2022.52977        10.54443         5.31881
     2022.53251        -4.34255         5.31329
     2022.53525        -5.66753         5.31053
     2022.53798         2.19448         5.18898
     2022.54072         4.08250         5.16872
     2022.54346         1.05552         5.15398
     2022.54620        -1.72147         5.14109
     2022.54893        -1.00245         5.20647
     2022.55167         8.91357         5.18990
     2022.55441         2.60059         5.15951
     2022.55715         8.13460         5.13372
     2022.55989        -2.49438         5.17885
     2022.56262        -0.62836         5.11899
     2022.56536        -7.13035         5.14754
     2022.56810         2.69767         5.22489
     2022.57084         8.05369         5.14017
     2022.57357         5.44770         5.29119
     2022.57631         1.19272         5.13741
     2022.57905        -2.30726         5.10518
     2022.58179         5.66976         5.18253
     2022.58453         4.16277         5.47444
     2022.58726        -2.59421         5.33447
     2022.59000         6.86481         5.31881
     2022.59274        -3.54818         5.11899
     2022.59548         7.29784         5.08860
     2022.59822         1.32386         5.43392
     2022.60095        -3.47513         5.16595
     2022.60369         6.98189         5.39525
     2022.60643         0.03391         5.20923
     2022.60917         5.86693         5.15767
     2022.61190        11.98094         5.20279
     2022.61464        15.24896         5.13833
     2022.61738        12.26398         5.19634
     2022.62012         3.02099         5.23502
     2022.62286         6.27601         5.14477
     2022.62559         9.97203         5.07387
     2022.62833         6.22204         5.13925
     2022.63107         0.53006         5.12544
     2022.63381        10.26208         5.30040
     2022.63655         7.24310         5.12544
     2022.63928        14.24611         5.06466
     2022.64202        11.95613         5.56560
     2022.64476        10.92915         5.54903
     2022.64750        18.49516         5.28290
     2022.65023        12.16118         5.28382
     2022.65297        12.28020         5.32526
     2022.65571        15.24021         5.21660
     2022.65845        19.62123         5.16227
     2022.66119        12.51625         5.16964
     2022.66392        12.86627         5.06098
     2022.66666        16.95728         5.02506
     2022.66940        19.49130         5.03796
     2022.67214        12.35232         5.17240
     2022.67488        15.83033         5.09137
     2022.67761        17.82735         5.06282
     2022.68035        22.08637         5.07939
     2022.68309        15.41738         5.10242
     2022.68583        18.44340         5.30408
     2022.68856        13.79942         5.15675
     2022.69130        16.63044         5.15490
     2022.69404        16.73045         5.13188
     2022.69678         9.31347         5.23410
     2022.69952         7.61249         5.34368
     2022.70225        17.16750         5.30592
     2022.70499        20.69952         5.29119
     2022.70773        12.84754         5.24331
     2022.71047        13.95655         5.20187
     2022.71321        15.68457         5.14662
     2022.71594        12.07759         5.09965
     2022.71868        12.37461         5.14938
     2022.72142        15.53762         5.04532
     2022.72416        11.56964         5.20647
     2022.72689         9.27666         5.22028
     2022.72963        11.62767         5.05729
     2022.73237        12.89069         5.02138
     2022.73511        11.82571         5.06650
     2022.73785        15.41272         5.29395
     2022.74058        20.20074         5.31974
     2022.74332        16.84476         5.36302
     2022.74606        17.04278         5.16964
     2022.74880        14.71979         5.08676
