# ================= DQRFIT RESULTS ================
# INPUT FILE: series/BNAB.rad
# OUTPUT: LDETRENDED
# FILTER FUNCTION: f(t)
# f(t)=+line(t)+annual(t)
# line(t)=+P 1+P 2*t
# annual(t)=+P 3*sin(2*pi*t+P 4)
# heav(t)=(t<0?0:1)
# TOTAL OBSERVATIONS MTOT= 1832
# INITIAL TIME INTERVAL= 2022.7488 - 2016.2218 =  6.5270
# TOTAL OBSERVATIONS AFTER PREFILTER M= 1827
# TIME-SPAN= 2022.7488 - 2016.2218 =  6.5270
# OBSERVATIONS: USED M=  1827 REJECTED MTOT-M=     5 %USED=   99.7271
# N=  4 PARAMETERS
# MAXSIG= 175.00000
# MAXRES=  29.95920
# SCALE FACTOR FOR LENGTHS: SCL=  10.00000
# SCALE FACTOR FOR SIGMAS: SCLSIG=   1.00000
# CHI^2=   2431.934 DOF=  1823 CHI^2/DOF=   1.33403
# RMS=      7.155 SDEV=      7.157 MEAN=    0.05432
#  P #       PARAMETER +-    SIGMA %error PARAMETER NAME
# P 1 =     -3847.90828 +-  174.083   4.52 YZERO                              
# P 2 =         1.91032 +-    0.086   4.51 SLOPE                              
# P 3 =         1.87221 +-    0.241  12.86 ANNUAL AMPLITUDE                   
# P 4 =        -3.08381 +-    0.182   5.89 ANNUAL PHASE                       
#       T            LDETRENDED       SIG_OBS
     2016.22176        -6.94236         7.46478
     2016.22450        -6.14859         6.61123
     2016.22724        -6.14982         6.91153
     2016.22997        -6.02605         7.02703
     2016.23271        -1.71728         7.07207
     2016.23545        -3.77151         6.81566
     2016.23819         5.26626         6.77062
     2016.24093        -4.30497         7.04666
     2016.24366        11.01180         7.23031
     2016.24640        -8.86343         6.66205
     2016.24914        -3.87366         6.95426
     2016.25188         0.47011         6.57658
     2016.25462         0.70488         7.19451
     2016.25735         1.06265         7.08825
     2016.26009        -1.27258         6.58351
     2016.26283        -7.48481         6.81104
     2016.26557         3.05196         6.80873
     2016.26830         0.21573         6.49342
     2016.27104         8.33050         7.21530
     2016.27378        -0.68573         7.06399
     2016.27652         0.78804         7.10326
     2016.27926         1.55981         7.04089
     2016.28199        -1.91142         6.77870
     2016.28473        -5.94065         6.94849
     2016.28747        -5.24488         7.03396
     2016.29021        -1.30111         6.62278
     2016.29295         0.01766         7.42551
     2016.29568         1.16543         6.97505
     2016.29842         6.57220         7.11019
     2016.30116        -5.81304         6.84107
     2016.30390        -1.85526         6.80411
     2016.30663        -7.82849         6.93578
     2016.30937        -1.61172         7.20144
     2016.31211        -0.43595         6.97852
     2016.31485         4.51381         7.22916
     2016.31759         3.97159         7.12521
     2016.32032        -7.57664         7.00277
     2016.32306        -3.68487         6.78910
     2016.32580        -7.89211         6.77062
     2016.32854        -0.07534         6.74405
     2016.33128         3.11843         6.80873
     2016.33401        -0.06780         7.30885
     2016.33675        -2.88503         7.26958
     2016.33949         4.21874         7.23840
     2016.34223         5.40251         6.97274
     2016.34496         4.62828         7.45669
     2016.34770         3.58105         6.97390
     2016.35044        10.05782         7.64149
     2016.35318        -1.77941         7.05706
     2016.35592         3.49436         6.87919
     2016.35865        -7.02787         7.50058
     2016.36139         2.70690         6.74405
     2016.36413        10.92967         6.93232
     2016.36687         8.03144         6.89074
     2016.36961        20.64021         6.79025
     2016.37234        12.90598         7.21645
     2016.37508        13.21175         7.27767
     2016.37782        -0.54948         6.83761
     2016.38056         3.82629         7.45554
     2016.38329         5.36306         6.85724
     2016.38603         1.10883         6.88843
     2016.38877        20.82760         7.09633
     2016.39151        10.51837         7.07785
     2016.39425         5.42314         7.27420
     2016.39698        11.25091         7.07438
     2016.39972        16.73368         7.31001
     2016.40246        -0.20455         7.70964
     2016.40520        -2.52578         6.80180
     2016.40794        -6.56301         6.95426
     2016.41067         7.66476         6.83530
     2016.41341         0.69853         6.68861
     2016.41615        -1.92470         7.06514
     2016.41889        -3.62293         6.64934
     2016.42162        10.32084         7.29730
     2016.42436        -3.33239         7.49134
     2016.42710         0.33138         6.70940
     2016.42984        -0.05885         7.10557
     2016.43258         9.89692         6.88843
     2016.43531         8.87369         7.06745
     2016.43805         1.35946         6.83414
     2016.44079         0.86223         6.60314
     2016.44353         7.19000         7.06283
     2016.44626         4.62477         7.81821
     2016.44900        -0.43546         7.26150
     2016.45174        10.45931         6.97505
     2016.45448         1.41308         6.66436
     2016.45722         0.06385         6.65974
     2016.45995        12.16762         6.65743
     2016.46269        -0.43161         6.81566
     2016.46543         6.40516         6.91499
     2016.46817        12.16893         7.31116
     2016.47091        13.33170         6.99353
     2016.47364         1.50547         6.96350
     2016.47638         7.36724         6.75329
     2016.47912         5.68801         6.91037
     2016.48186         6.07878         6.79025
     2016.48459         6.48855         6.81797
     2016.48733         5.54532         7.13098
     2016.49007         1.34509         7.25226
     2016.49281         4.58086         6.71056
     2016.49555         4.40362         6.98545
     2016.49828        -0.06061         7.08594
     2016.50102         3.27616         6.84223
     2016.50376        -2.84807         6.96235
     2016.50650        -4.51530         6.73481
     2016.50924        -2.90453         7.28113
     2016.51197         1.27024         7.69116
     2016.51471        -2.87399         6.71056
     2016.51745        -5.17922         7.16679
     2016.52019        -3.13645         6.50266
     2016.52292         6.89732         6.77408
     2016.52566         3.54209         6.75907
     2016.52840        -4.99014         6.97274
     2016.53114        -4.93337         7.54216
     2016.53388         5.77540         7.04551
     2016.53661        10.83017         6.65396
     2016.53935         1.88894         6.95195
     2016.54209         4.12571         6.73828
     2016.54483        12.01448         6.98545
     2016.54757         9.43225         6.71056
     2016.55030         5.39302         7.46593
     2016.55304         0.74979         7.35159
     2016.55578         2.18656         6.96697
     2016.55852         8.42033         7.06168
     2016.56125         3.73310         7.52368
     2016.56399        16.37887         6.53153
     2016.56673         5.46764         7.06630
     2016.56947         5.03341         6.85262
     2016.57221         5.76318         6.87572
     2016.57494         9.30895         7.65420
     2016.57768        14.35472         7.24533
     2016.58042         8.31149         7.00508
     2016.58316         3.13826         7.68192
     2016.58590        -4.47797         6.39178
     2016.58863         0.30180         7.28575
     2016.59137        -7.83043         7.11481
     2016.59411         3.86534         7.46131
     2016.59685         7.62911         7.08132
     2016.59958         9.51488         7.13676
     2016.60232         3.20265         7.53177
     2016.60506        -4.91458         6.85609
     2016.60780        -0.89481         6.71749
     2016.61054         2.59796         6.82952
     2016.61327         4.77373         7.26150
     2016.61601         1.45950         6.97736
     2016.61875         6.91427         7.77894
     2016.62149        -0.11396         6.87110
     2016.62423         6.41681         6.94040
     2016.62696         1.49458         7.54332
     2016.62970         3.39035         7.01432
     2016.63244        -4.10488         7.26496
     2016.63518         5.70089         7.01548
     2016.63791        12.96366         8.55394
     2016.64064        15.61445        11.15963
     2016.64338        -5.30579        18.92701
     2016.64612         7.87498        13.48811
     2016.64886         9.49375        18.10812
     2016.65159        -2.26648        14.10834
     2016.65433         8.15229        18.04921
     2016.65707        16.75806        15.34997
     2016.65981        16.16483        16.80527
     2016.66255         4.26260        24.35552
     2016.66528        -0.26363        25.06354
     2016.66802        14.39014        27.78356
     2016.67076       -17.83009        24.50798
     2016.67350         5.90768        17.48441
     2016.67623        -4.08555        14.64889
     2016.67897         1.47022        23.38647
     2016.68446         4.39074         7.38624
     2016.68720        -0.41349         7.46709
     2016.68993        -2.70972         7.60569
     2016.69266        -0.11092         7.13791
     2016.69541         2.20082         6.48302
     2016.69815         8.37459         7.17834
     2016.70089        -0.48564         7.03049
     2016.70362        12.95113         7.88404
     2016.70636        13.20290         7.98568
     2016.70910         0.72267         7.34004
     2016.71184         8.78044         7.31694
     2016.71457         8.75521         7.15755
     2016.71731        12.12298         6.96466
     2016.72005        -6.14125         7.13791
     2016.72279        15.41352         6.99238
     2016.72553        -5.50471         7.46016
     2016.72826         0.04106         7.69231
     2016.73100        -7.32817         6.77639
     2016.73374         3.43860         7.60915
     2016.73648        -6.11763         7.67845
     2016.73921        -5.79086         6.69670
     2016.74195        -7.85009         7.16448
     2016.74469        -5.49432         7.19797
     2016.74743        -9.11655         7.15639
     2016.75017        -3.64678         7.34235
     2016.75274         0.24731         7.48557
     2016.75645         7.35722        11.10303
     2016.75838         9.87553         7.42782
     2016.76112         8.08630         6.72095
     2016.76386         3.55607         7.12752
     2016.76659         9.08784         6.89420
     2016.76933         8.25961         7.12174
     2016.77207         4.71138         7.01663
     2016.77481         1.93915         6.72557
     2016.77754         9.78292         6.99584
     2016.78028         2.24569         7.57219
     2016.78302         2.26446         7.14715
     2016.78576         2.04823         6.74636
     2016.78850        12.25600         6.93116
     2016.79124         3.43576         7.06168
     2016.79397         6.56154         7.42435
     2016.79671         1.21930         7.07785
     2016.79945         3.03508         6.80527
     2016.80219        -2.92615         7.38277
     2016.80493         1.28561         6.97159
     2016.80767         5.38838         7.52368
     2016.81040        -5.61585         7.21761
     2016.81314        -0.15408         7.12983
     2016.81588        -4.95131         7.74313
     2016.81862         0.94746         7.09864
     2016.82136         1.12223         7.07669
     2016.82409         1.31500         7.22569
     2016.82683       -10.71923         6.82259
     2016.82957         1.73654         6.85955
     2016.83231        -7.45269         6.94387
     2016.83504        -0.42992         7.14253
     2016.83778        -9.25815         7.31809
     2016.84052         2.11662         7.36891
     2016.84326        -7.91661         7.60222
     2016.84600         0.82716         7.05128
     2016.84873         3.37293         7.06861
     2016.85147        -0.50931         7.05013
     2016.85421        -0.20554         7.18758
     2016.85695         1.24623         7.89213
     2016.85969        -1.45900         7.51329
     2016.86242       -15.53423         7.27651
     2016.86516        -9.84746         7.17949
     2016.86790        -4.48769         7.82860
     2016.87064         6.55508         7.06052
     2016.87337        -5.13215         7.28113
     2016.87611         5.20462         7.30539
     2016.87885        -8.65860         6.84685
     2016.88159        -5.46484         7.24071
     2016.88433         4.75593         7.50867
     2016.88706         8.32570         7.16794
     2016.88980         5.89647         7.27420
     2016.89254         4.90824         7.00046
     2016.89528         3.27101         7.02703
     2016.89802         0.65678         6.99469
     2016.90075        -8.09345         7.20028
     2016.90349         0.57132         7.32618
     2016.90623         9.69009         7.56642
     2016.90897        -1.99014         6.86302
     2016.91170         3.03863         7.24302
     2016.91444        -4.25460         7.03280
     2016.91718        -4.79483         7.37353
     2016.91992        -5.95306         7.13676
     2016.92266        -9.70929         7.08825
     2016.92539        -5.15352         7.02472
     2016.92813       -12.81975         7.65651
     2016.93087         0.82202         6.80411
     2016.93361         5.65779         7.14369
     2016.93634         1.32556         7.37584
     2016.93908         5.54033         7.34004
     2016.94182         7.48510         7.27420
     2016.94456         1.34187         7.08709
     2016.94730         5.97164         7.15062
     2016.95003         7.53242         7.63803
     2016.95277         8.82218         6.80642
     2016.95551         6.49895         7.04897
     2016.95824         9.29973         7.06168
     2016.96098         4.48550         7.36198
     2016.96372        -4.32473         6.83299
     2016.96646        -7.31696         7.15408
     2016.96919         0.63981         7.03511
     2016.97193         3.19758         7.23262
     2016.97467        -7.93365         6.87688
     2016.97741        -5.88588         6.93925
     2016.98015         8.40889         6.87572
     2016.98288         8.71766         6.80527
     2016.98562         4.17143         6.63433
     2016.98836         8.01620         6.80411
     2016.99110         1.81797         6.62393
     2016.99384         7.75074         7.20144
     2017.00205         8.90205         6.68515
     2017.00479        11.04381         6.53731
     2017.00752        -0.19742         6.67937
     2017.01026        -3.76965         6.99469
     2017.01300         7.65112         6.62162
     2017.01574        -4.77611         6.98545
     2017.01848         9.18866         6.74174
     2017.02121         8.15643         6.85609
     2017.02395         7.89120         6.61354
     2017.02669         5.61197         6.52691
     2017.02943         7.81174         6.51305
     2017.03216         0.50451         6.71287
     2017.03490         0.16828         6.63202
     2017.03764        -7.62595         7.08363
     2017.04038        -6.45718         6.98198
     2017.04312         5.83959         6.64010
     2017.04585         1.02736         7.01663
     2017.04859         5.14213         6.65281
     2017.05133        -0.50710         7.27420
     2017.05407        -4.18433         6.79256
     2017.05681        -5.91656         6.60892
     2017.05954         3.48921         6.70825
     2017.06228         9.08598         6.96119
     2017.06502         2.89975         6.62047
     2017.06776        -1.52248         6.71518
     2017.07049        -0.60571         6.46223
     2017.07323        -5.49494         6.80411
     2017.07597        -6.41917         6.84223
     2017.07871        -8.58340         6.57080
     2017.08145        -2.41663         7.76508
     2017.08418         1.29214         6.67706
     2017.08692         2.34191         6.90113
     2017.08966         4.79168         6.83876
     2017.09240         1.44545         6.33518
     2017.09514         7.11022         6.72442
     2017.09787         8.92599         6.96350
     2017.10061         7.44676         6.85031
     2017.10335         1.91153         6.79949
     2017.10609         5.91930         6.99469
     2017.10882        10.17807         7.00277
     2017.11156         4.43084         7.09518
     2017.11431        -4.08540         7.01317
     2017.11704         0.85538         7.14022
     2017.11978        -1.62185         7.25572
     2017.12251        -7.27808         6.95426
     2017.12525         2.95269         7.02703
     2017.12799        10.34646         6.91499
     2017.13073         5.89123         6.91499
     2017.13347         3.45300         6.82028
     2017.13620         9.28777         6.77177
     2017.13894         4.27554         6.94271
     2017.14168        -3.35069         7.22569
     2017.14442         7.07408         6.97274
     2017.14715        -4.21115         7.22338
     2017.14989         5.42962         6.92654
     2017.15263         5.43539         7.02010
     2017.15537         9.10316         6.81913
     2017.15811         3.30393         6.93694
     2017.16084         1.91170         7.07669
     2017.16358       -10.03053         7.76161
     2017.16632         5.07824         7.00393
     2017.16906        -2.88699         7.07554
     2017.17180        -7.16022         7.02241
     2017.17453         5.74354         6.90229
     2017.17727        10.18131         6.78794
     2017.18001        10.16508         6.90460
     2017.18275         7.50085         6.83761
     2017.18548        -3.20038         7.63803
     2017.18822         3.41039         7.18527
     2017.19096         4.35816         6.90229
     2017.19370         2.74193         7.34119
     2017.19644         6.29270         7.56295
     2017.19917        -0.09553         6.83761
     2017.20191         5.30924         7.24417
     2017.20465        -1.45799         6.92885
     2017.20739         4.94378         6.98545
     2017.21013         3.28155         6.78794
     2017.21286         0.71532         6.86995
     2017.21560        -0.45991         6.44953
     2017.21834        -0.85714         7.10788
     2017.22108        -3.53437         6.63202
     2017.22655        -0.01483         7.15870
     2017.22929        -2.73006         6.85840
     2017.23203        -1.94229         7.22800
     2017.23477        -1.63752         6.97505
     2017.23750        -6.23775         6.91384
     2017.24024       -15.25198         7.07323
     2017.24298        -6.74221         6.68977
     2017.24572        -3.55044         6.75791
     2017.24846       -10.41967         6.63779
     2017.25119       -10.40490         6.66436
     2017.25393        -0.26413         7.28691
     2017.25667         0.71864         6.78101
     2017.25941       -11.08859         6.61238
     2017.26214        -3.97482         7.29384
     2017.26488         0.54795         6.76253
     2017.26762        -2.46728         6.90691
     2017.27036        -4.32151         6.67706
     2017.27310        -7.16474         7.07323
     2017.27583        -9.87197         7.24186
     2017.27857       -16.90220         6.91615
     2017.28131        -0.25243         7.00855
     2017.28405       -15.16166         7.53870
     2017.28679        -3.88389         6.73481
     2017.28952        -9.55312         6.48533
     2017.29226       -14.10035         6.75907
     2017.29500        -5.87358         6.72211
     2017.29774        -1.54881         7.69809
     2017.30047         0.37496         7.23031
     2017.30321        -7.16027         6.56734
     2017.30595        -1.79250         7.09633
     2017.30869       -12.11173         6.78910
     2017.31143       -15.68896         6.72211
     2017.31416       -12.46819         7.01779
     2017.31690        -3.94242         6.80873
     2017.31964       -15.30365         7.41396
     2017.32238        -7.79288         6.86995
     2017.32512        -4.89511         6.78563
     2017.32785        -5.74734         7.11481
     2017.33059        -9.56357         6.72673
     2017.33333        -6.89880         6.69092
     2017.33607        -5.12903         6.88034
     2017.33880       -18.32526         6.98660
     2017.34154        -5.95049         6.86995
     2017.34428        -2.31373         6.63086
     2017.34702         0.79804         6.93001
     2017.34976        -6.81919         6.70594
     2017.35249        -6.31342         6.58235
     2017.35523        -7.34965         6.59968
     2017.35797        -3.83688         6.74521
     2017.36071       -10.57711         6.93001
     2017.36344       -14.66634         6.70132
     2017.36618        -8.82457         6.68053
     2017.36892       -10.62380         6.82144
     2017.37166         0.21897         6.50959
     2017.37440        -3.66426         6.56041
     2017.37713        -1.15049         6.70940
     2017.37987       -10.02572         7.07323
     2017.38261        -3.55595         6.69208
     2017.38535        -8.56418         6.84107
     2017.38809        -0.22141         6.92654
     2017.39082        -3.15664         6.77870
     2017.39356         2.97713         6.40679
     2017.39630         9.37290         6.68515
     2017.39904         2.28767         6.64934
     2017.40177         1.33944         7.13676
     2017.40451        -3.04779         7.23724
     2017.40725         6.18498         7.08709
     2017.40999         1.04575         6.63317
     2017.41273        -5.12248         6.88034
     2017.41546        -8.96071         6.52807
     2017.41820        -2.92694         6.78448
     2017.42094        -0.25717         6.97967
     2017.42368        -3.82340         6.74405
     2017.42642        -0.28063         6.59390
     2017.42915        -0.69486         6.97043
     2017.43189         4.58191         6.68630
     2017.43463        -9.94132         6.86417
     2017.43737        -1.88055         6.64934
     2017.44010         1.95722         6.96812
     2017.44284         8.65799         7.15870
     2017.44558         5.00976         6.73250
     2017.44832         5.85053         6.71518
     2017.45106         0.13430         7.24648
     2017.45379        -3.54893         6.71056
     2017.45653        -2.21616         6.96928
     2017.45927        -1.11339         6.68977
     2017.46201        -0.73462         6.91846
     2017.46475        -2.06385         6.85840
     2017.46747        -5.44306         6.65512
     2017.47023        -6.92832         6.71402
     2017.47296         3.66746         6.63548
     2017.47570         0.93023         6.68746
     2017.47843         0.09200         7.19220
     2017.48117        -0.79723         6.83299
     2017.48391        -1.07046         6.93347
     2017.48665         3.94131         6.81220
     2017.48939         8.47208         6.57773
     2017.49212         6.41885         6.84685
     2017.49486         8.06062         6.86879
     2017.49760        -2.38461         6.88496
     2017.50034         1.72016         6.94156
     2017.50308         1.74893         6.73366
     2017.50581         7.69970         6.85955
     2017.50855         1.35947         6.88381
     2017.51129        -5.84476         6.78679
     2017.51403        14.37200         7.00277
     2017.51676        -9.87723         6.73250
     2017.51950        -4.91546         6.87919
     2017.52224         8.03731         6.96004
     2017.52498        -4.23692         6.80065
     2017.52772        -6.66915         7.52484
     2017.53045        -9.54838         6.87803
     2017.53319        -2.10761         6.68168
     2017.53593        -3.60284         6.79487
     2017.53867         3.83293         6.82837
     2017.54141        14.16770         6.79834
     2017.54414         1.64647         6.82144
     2017.54688        -1.86376         6.90575
     2017.54962        -4.32999         7.31232
     2017.55236         0.20178         7.08016
     2017.55509         8.76955         6.82028
     2017.55783         2.21332         6.75098
     2017.56057        -2.06991         6.77986
     2017.56331       -13.42614         6.82606
     2017.56605        -6.45337         7.07207
     2017.56878         0.16540         6.64703
     2017.57152         6.56817         7.26843
     2017.57426        -7.53306         7.37353
     2017.57700        -2.24929         6.61816
     2017.57974       -10.01152         6.59737
     2017.58247        -7.20275         6.82375
     2017.58521        -1.56898         6.74059
     2017.58795        -5.75721         7.04435
     2017.59069        -1.97044         7.03280
     2017.59342        -4.95467         6.98776
     2017.59616         3.11510         6.81913
     2017.59890         1.34787         6.81104
     2017.60164         3.58464         6.88496
     2017.60438         0.44641         6.92654
     2017.60711         0.09018         6.76831
     2017.60985        -4.15005         6.90460
     2017.61259         1.79672         7.24764
     2017.61533        -5.58551         7.07669
     2017.61807         2.41126         6.80527
     2017.62080        -9.07797         7.01317
     2017.62354         2.65380         6.78332
     2017.62628         7.34357         7.01432
     2017.62902         5.91134         7.03165
     2017.63175       -15.78889         6.89536
     2017.63449        -9.56212         7.05706
     2017.63723        -3.77035         7.13214
     2017.63997        -2.16258         7.46824
     2017.64271        -8.42081         6.87457
     2017.64544        -0.30104         6.72211
     2017.64818        -8.74527         6.83645
     2017.65092        -4.61550         6.80642
     2017.65366        -4.57173         6.91037
     2017.65639        -7.73296         7.10673
     2017.65913        -6.53319         6.90575
     2017.66187         3.91658         7.08478
     2017.66461        -2.32265         7.02703
     2017.66735        -1.28588         6.88034
     2017.67008         5.97189         6.92308
     2017.67282         4.44166         6.98429
     2017.67556        -1.99657         6.68861
     2017.67830        -4.68080         6.92192
     2017.68104         5.41497         7.10557
     2017.68377         6.28573         7.33311
     2017.68651        -5.96050         7.14369
     2017.68924         2.12429         6.88843
     2017.69199         1.21304         7.29384
     2017.69472        -1.29119         6.82837
     2017.69746        -3.85142         6.83068
     2017.70026         3.58224         7.28575
     2017.70294         1.40912         7.33773
     2017.70568         0.04389         6.77062
     2017.70841         0.14066         6.68630
     2017.71115         0.13643         7.43244
     2017.71389        -8.23080         6.75676
     2017.71663        -5.83203         6.76484
     2017.71937         3.39974         6.67013
     2017.72210         1.45951         7.11250
     2017.72484        -7.85972         7.02125
     2017.72758        -3.61595         6.58235
     2017.73032         0.77582         6.96119
     2017.73305        -0.55241         7.06976
     2017.73579         3.20436         7.00739
     2017.73853         7.55113         7.11019
     2017.74127         3.88390         6.96581
     2017.74401        -4.78833         7.17718
     2017.74674        -4.33656         7.00855
     2017.74948        -1.63179         6.77755
     2017.75222        -6.17802         6.93694
     2017.75496        -2.90125         7.06052
     2017.75770        -1.23248         7.26843
     2017.76043        -5.40471         7.03049
     2017.76317        -7.13194         6.80180
     2017.76591        -3.93317         7.14022
     2017.76865        -6.37940         6.55348
     2017.77138        -2.72763         6.74174
     2017.77412        -6.76186         6.62624
     2017.77686         9.44091         6.93578
     2017.77960        -7.61932         7.08363
     2017.78234         1.23145         6.91961
     2017.78507        -3.66978         6.52807
     2017.78781         3.82499         7.41858
     2017.79055        -3.69224         6.70709
     2017.79329        -2.80347         6.59621
     2017.79603         4.16730         6.83414
     2017.79876        12.69907         7.18758
     2017.80150         2.99084         7.42551
     2017.80424         4.84961         6.97390
     2017.80698        -1.21462         6.80296
     2017.80971        -0.95085         6.80873
     2017.81245        -1.64108         6.85724
     2017.81519        -1.76631         6.85262
     2017.81793       -11.86954         6.67937
     2017.82067       -10.51077         7.12059
     2017.82340         8.90100         6.80873
     2017.82614       -10.70123         6.83645
     2017.82888        -4.32246         6.51421
     2017.83162         0.38831         6.99815
     2017.83436         2.56508         6.58813
     2017.83709         0.23685         7.16101
     2017.83983        -0.49638         6.57427
     2017.84257        -4.41361         6.66898
     2017.84531         3.57316         6.83068
     2017.84804         0.03193         6.79834
     2017.85078         2.26570         6.62047
     2017.85352         0.66346         7.03742
     2017.85626         1.38423         7.25110
     2017.85900        -5.68900         7.26034
     2017.86173         2.45977         7.05244
     2017.86447        -0.28946         7.19682
     2017.86721         0.59031         6.85378
     2017.86995         2.12908         7.54563
     2017.87269        -5.09015         6.56965
     2017.87542        -7.13638         7.08247
     2017.87816         0.66639         7.17025
     2017.88090         1.15416         6.79141
     2017.88364        -4.51707         7.14369
     2017.88637         1.27970         7.04551
     2017.88911        10.06447         6.92539
     2017.89185        -8.65176         7.29153
     2017.89459        -3.94399         6.64010
     2017.89733         2.68478         6.94387
     2017.90006         6.06355         6.47956
     2017.90280       -10.88068         6.76484
     2017.90554         2.06809         6.96119
     2017.90828        -2.70114         7.20952
     2017.91102        -2.26037         7.20952
     2017.91375        -4.88660         7.21183
     2017.91649        -9.78983         6.64126
     2017.91923        -1.85706         6.78217
     2017.92197        -3.15229         7.00855
     2017.92470        -3.88952         6.69208
     2017.92744        -3.82575         6.95773
     2017.93018        -8.16298         7.21299
     2017.93292         2.58179         6.88265
     2017.93566        13.51856         6.93809
     2017.93839        -0.41667         7.00855
     2017.94113        -7.68290         6.97043
     2017.94387         3.55487         6.91499
     2017.94661        -1.19636         6.96581
     2017.94935         1.94941         7.10673
     2017.95208        -4.08182         7.48903
     2017.95482       -14.93505         6.99122
     2017.95756        -2.49228         7.02472
     2017.96030        -7.87451         6.68515
     2017.96303       -10.22474         6.81682
     2017.96577        -0.81897         7.08940
     2017.96851        14.67780         6.76022
     2017.97125         2.72757         7.32156
     2017.97399         3.71734         7.07554
     2017.97672         2.66111         6.90229
     2017.97946        -0.75612         6.98314
     2017.98220        -8.36035         6.67360
     2017.98494        -4.48558         7.06514
     2017.98767       -21.60381         6.73019
     2017.99041        -4.48404         6.62971
     2017.99315        -0.36727         7.37815
     2017.99589         5.37950         6.91268
     2017.99863        -2.15773         6.77408
     2018.00136        -2.63196         7.22338
     2018.00410        -6.33319         6.53269
     2018.00684         0.20858         6.93232
     2018.00958        -6.34865         6.88265
     2018.01232        -4.75988         6.56618
     2018.01505       -10.29911         7.33657
     2018.01779        -7.38134         6.84916
     2018.02053       -12.51557         6.95311
     2018.02327        -7.24481         6.96350
     2018.02600         1.87796         6.56965
     2018.02874         4.95373         6.56965
     2018.03148         3.30250         6.69670
     2018.03422        -2.54673         6.57889
     2018.03696        -4.84896         7.37815
     2018.03969        -6.06519         6.98314
     2018.04133        18.32168        40.41351
     2018.04587        21.93201       164.47801
     2018.04793         0.15108        10.78194
     2018.05065        -2.94611         6.96581
     2018.05338        -3.98534         7.13098
     2018.05612        -5.48857         6.54077
     2018.05886       -10.37880         6.85609
     2018.06160        -1.80103         6.85031
     2018.06433         0.77874         7.41165
     2018.06707         0.82151         7.34004
     2018.06981       -12.51272         6.95426
     2018.07255        -3.95395         7.09518
     2018.07529        -4.32318         6.59737
     2018.07802        -2.01041         6.81566
     2018.08076        -4.88364         7.10211
     2018.08350        -5.68987         7.14484
     2018.08624       -12.59010         7.26265
     2018.08898        -4.12233         7.44745
     2018.09171       -11.42656         7.16679
     2018.09445       -10.80679         6.97736
     2018.09719       -13.48902         6.85724
     2018.09993        -4.59625         6.83414
     2018.10266       -10.93248         7.58836
     2018.10540       -11.51271         7.32271
     2018.10814        -0.60694         7.25572
     2018.11088         0.84283         7.06399
     2018.11362        -6.09740         7.04089
     2018.11635        -8.79663         7.27420
     2018.11909       -21.24286         7.24648
     2018.12183        -9.17609         6.85147
     2018.12457         0.83168         7.10442
     2018.12731       -10.51255         6.99584
     2018.13004        -5.05378         7.08363
     2018.13278         1.50999         7.12290
     2018.13552         6.33476         6.80296
     2018.13826         3.07053         6.72326
     2018.14099        -4.32570         6.65512
     2018.14373        -6.36893         6.76369
     2018.14647        -4.51316         8.10465
     2018.14921        -4.80739         7.05590
     2018.15195        -6.14962         6.92539
     2018.15468        -7.17585         7.00624
     2018.15742        -5.81008         6.89767
     2018.16016       -11.43331         7.03742
     2018.16290        -4.56054         7.31925
     2018.16564         0.31823         6.95426
     2018.16837        -4.81300         7.18758
     2018.17111        -1.62523         7.13445
     2018.17385         2.29154         7.16910
     2018.17639        -0.53632         7.76739
     2018.17936        -7.76300         9.95842
     2018.18206         4.48485         6.71518
     2018.18480         3.90262         6.58351
     2018.18754        -2.84461         6.88265
     2018.19028        -0.42485         7.24302
     2018.19301        -0.40308         7.10788
     2018.19575         1.54669         6.88496
     2018.19849         1.52146         7.29037
     2018.20123         3.49223         6.92192
     2018.20397         4.36600         6.68746
     2018.20670         5.46677         6.57542
     2018.20944       -14.00246         6.69901
     2018.21218        -0.44869         6.99238
     2018.21492       -18.05192         6.95773
     2018.21765         0.71185         6.81220
     2018.22039       -14.37138         7.17603
     2018.22313       -12.15761         6.93001
     2018.23134        -9.60830         6.83183
     2018.23408        -5.60853         6.98891
     2018.23682        -1.89476         7.29384
     2018.23956       -11.53999         7.31925
     2018.24230        -1.96422         6.78794
     2018.24503         0.33355         7.00739
     2018.24777        -5.65468         6.77986
     2018.25051        -3.80191         6.63433
     2018.25325        -6.56014         6.92770
     2018.25598        -3.50237         6.75560
     2018.25872         1.24540         7.46709
     2018.26146        -2.40983         7.56642
     2018.26420         1.30194         6.95426
     2018.26694         3.10971         6.68746
     2018.26967        -7.37652         7.04897
     2018.27241        -8.65175         6.89074
     2018.27515         2.30902         7.07323
     2018.27789         1.85779         7.51213
     2018.28062        -2.34444         7.15062
     2018.28336       -13.71967         7.31809
     2018.28610        -9.80990         6.88496
     2018.28884        -2.78813         7.09056
     2018.29158         4.78664         7.03396
     2018.29431       -13.40259         7.37007
     2018.29705         2.28918         6.94040
     2018.29979        -9.14505         7.35505
     2018.30253        -6.53928         7.08478
     2018.30527        -4.80051         7.58836
     2018.30800        -4.04374         7.14022
     2018.31074       -11.54697         6.89767
     2018.31348        -2.13020         6.64588
     2018.31622        -3.16643         7.56873
     2018.31895         0.63534         7.20375
     2018.32169         0.26211         6.46916
     2018.32443         3.00688         6.79603
     2018.32717        -2.10935         6.96812
     2018.32991         1.18642         7.00855
     2018.33264         4.89019         6.79603
     2018.33538        -6.54704         6.93001
     2018.33812        -2.07427         7.33657
     2018.34086        -5.34950         6.83299
     2018.34360        -8.05773         6.55925
     2018.34633        -6.26596         6.60314
     2018.34907        -6.15919         6.77408
     2018.35181        -1.14142         6.75676
     2018.35455         2.37235         7.08247
     2018.35728         3.73912         6.58928
     2018.36002         3.96488         7.24995
     2018.36276         3.49265         7.34928
     2018.36550         3.95842         6.85609
     2018.36824         9.49119         6.58120
     2018.37097         7.03396         7.28922
     2018.37371         1.16973         6.93232
     2018.37645        -4.71150         7.36776
     2018.37919         3.29227         6.79834
     2018.38193         1.42104         7.35967
     2018.38466        -0.12619         7.16563
     2018.38740        -3.32042         7.44630
     2018.39014        -0.36465         7.01548
     2018.39288        -2.72088         6.83414
     2018.39561         3.05589         6.78910
     2018.39835         8.31266         7.66806
     2018.40109         1.20043         6.79949
     2018.40383         0.21720         7.44630
     2018.40657         2.93097         7.06052
     2018.40930        10.39274         7.51098
     2018.41204         3.97751         6.64241
     2018.41478         3.96728         6.67244
     2018.41752        -2.28395         6.83876
     2018.42026        -2.22218         7.37815
     2018.42299         3.53659         6.86995
     2018.42573         9.93936         6.85493
     2018.42847         9.28213         6.69785
     2018.43121         2.98890         6.85262
     2018.43394        -0.12433         6.84916
     2018.43668        -5.73556         6.57889
     2018.43942        -0.26779         6.98429
     2018.44216         0.77398         7.15870
     2018.44490         6.21975         6.90113
     2018.44763        -1.36248         6.68399
     2018.45037        -3.15371         6.78910
     2018.45311         3.71506         6.72557
     2018.45585         4.86383         6.86648
     2018.45859         9.85960         7.10557
     2018.46132        -2.57363         7.01779
     2018.46406        -0.69686         7.20721
     2018.46680         1.60191         7.01779
     2018.46954         1.50368         7.11712
     2018.47227        -1.33855         6.84223
     2018.47501         7.70522         7.17256
     2018.47775         0.64399         7.01894
     2018.48049         1.04476         7.04320
     2018.48323         5.22853         7.14022
     2018.48592         3.12439         7.41280
     2018.48870         0.16907         7.05475
     2018.49144        -3.20316         6.92077
     2018.49418         5.48261         6.71518
     2018.49692         9.68938         7.12405
     2018.49965         6.14915         7.17141
     2018.50239         6.55092         6.82490
     2018.50513        -0.63331         7.08594
     2018.50787        13.06346         7.17141
     2018.51060        -5.02277         7.01201
     2018.51334        -0.90600         7.20375
     2018.51608         6.86877         6.76369
     2018.51882        -6.18846         6.79025
     2018.52156         0.14831         7.04435
     2018.52429         8.31908         6.75445
     2018.52703        11.23785         7.08825
     2018.52977         9.33961         7.41858
     2018.53251         3.27238         6.97159
     2018.53525        17.12215         7.17372
     2018.53798         7.19892         6.69439
     2018.54072         6.92669         7.42089
     2018.54346         5.60846         7.34581
     2018.54620         5.90023         6.94964
     2018.54893         8.72300         6.99700
     2018.55167        10.48077         7.43590
     2018.55441         4.91354         7.03511
     2018.55715         3.58331         7.00970
     2018.55989        13.09508         7.12752
     2018.56262         8.65885         7.09633
     2018.56536         0.80862         7.10904
     2018.56810        11.80439         7.01548
     2018.57084         7.82016         7.41858
     2018.57357         3.50193         7.30539
     2018.57631         5.68370         7.21299
     2018.57905         3.60847         7.41511
     2018.58179         9.69124         6.96812
     2018.58453       -13.83599         7.27767
     2018.58726         0.18078         7.17025
     2018.59000        10.35755         6.96581
     2018.59274         0.34832         7.54332
     2018.59548        -1.78691         7.19335
     2018.59822        -1.66314         6.93578
     2018.60095        -2.36037         6.92077
     2018.60369         3.57540         6.87110
     2018.60643         2.32817         7.13329
     2018.60917         9.94894         7.09287
     2018.61190         5.24671         6.93347
     2018.61464         5.60648         7.43937
     2018.61738       -16.84975         7.62301
     2018.62012         9.63502         6.88727
     2018.62286         6.53179         6.95080
     2018.62559         8.87356         7.38277
     2018.62833        -7.64267         6.92654
     2018.63107         1.02910         7.27998
     2018.63381        10.17187         7.11135
     2018.63655        -1.13936         7.65189
     2018.63928        11.42341         8.27212
     2018.64202         2.68618         7.25341
     2018.64476         3.51095         6.73135
     2018.64750        -3.87328         7.01317
     2018.65023         1.54949         8.07231
     2018.65297         6.98726         7.43013
     2018.65571         5.30803         7.12059
     2018.65845       -14.01120         8.25942
     2018.66119         1.91357         8.69716
     2018.66392         5.64434         7.12290
     2018.66666         0.91811         6.70016
     2018.66940        -4.53412         7.22569
     2018.67214        -7.41335         7.00393
     2018.67488        -4.06358         7.23031
     2018.67761         2.20019         7.16679
     2018.68041        -0.83915         7.52830
     2018.68309       -14.48727         7.61262
     2018.68583         6.90550         7.08940
     2018.68856         2.55927         6.92885
     2018.69130        -4.11196         7.13560
     2018.69404        -3.99219         7.33542
     2018.69678        -0.65942         7.22338
     2018.69952         0.52734         7.70617
     2018.93057        11.59895        13.73066
     2018.93223        10.74778         6.99238
     2018.93497         5.49655         7.20721
     2018.93772        -0.42371         7.34812
     2018.94045         1.92009         7.03973
     2018.94319        -0.26515         7.09287
     2018.94592         6.35563         7.43359
     2018.94866        -1.52760         7.24071
     2018.95140        14.20117         6.92192
     2018.95414        11.71494         6.66436
     2018.95687         6.19071         7.30192
     2018.95961         6.30848         6.86995
     2018.96235        12.36725         6.69092
     2018.96509        -2.87698         7.03627
     2018.96783         0.15779         7.31578
     2018.97056        11.71556         7.16563
     2018.97330         5.17633         7.03396
     2018.97604        -2.79090         6.68746
     2018.97878        -8.57813         6.88843
     2018.98425         1.67541         6.85147
     2018.98699        -9.07182         7.13445
     2018.98973        -6.96505         7.50520
     2018.99247        -2.96228         7.24648
     2018.99520       -14.52151         7.06745
     2019.00068        -5.65097         7.05475
     2019.00342        -6.14320         6.80180
     2019.00616       -20.49143         6.74174
     2019.00889        -9.23666         7.23493
     2019.01163        -6.21189         7.51098
     2019.01437         8.57588         7.00624
     2019.01711         8.34765         6.74636
     2019.01984        -4.34358         6.84569
     2019.02258        -2.86481         7.02356
     2019.02532        -4.17204         6.83876
     2019.02806        -5.67027         6.73597
     2019.03080       -13.48150         7.25688
     2019.03353       -15.74873         7.85632
     2019.03627       -15.76696         6.95195
     2019.03901       -18.76420         6.61700
     2019.04175        -0.44843         6.75791
     2019.04449         1.98434         6.93116
     2019.04722        -1.15389         6.76484
     2019.04996        -7.43312         6.89074
     2019.05270       -15.80635         7.35274
     2019.05544       -11.82458         7.49365
     2019.05817        -3.98881         7.23609
     2019.06091       -10.31304         7.31001
     2019.06365         1.91373         7.55256
     2019.06639         3.93350         7.33657
     2019.06913        -5.35873         6.92077
     2019.07186        -4.44396         6.86302
     2019.07460        -2.71719         7.22685
     2019.07734         5.68558         7.35736
     2019.08008        -0.12465         7.32156
     2019.08282        -3.18488         7.20721
     2019.08555        -5.64811         7.05821
     2019.08829         1.94966         7.10442
     2019.09103         4.16743         6.66667
     2019.09377         6.69220         6.93116
     2019.09650        12.53197         7.16910
     2019.09924        -2.67626         7.22107
     2019.10198       -12.77449         6.98891
     2019.10472         2.65728         6.95888
     2019.10746         0.71705         7.17834
     2019.11019         6.33782         7.38970
     2019.11293         6.22659         6.97967
     2019.11567         8.42236         7.43128
     2019.11841        16.29113         7.25341
     2019.12115        14.35690         7.09633
     2019.12388        17.03367         7.23262
     2019.12662        10.88244         6.89189
     2019.12936         7.28821         7.21530
     2019.13210         4.63398         7.30885
     2019.13483        -7.51325         6.68399
     2019.13757        -1.94748         6.90922
     2019.14031        -0.23371         7.42897
     2019.14305        -7.40094         7.02241
     2019.14579       -16.67217         6.91268
     2019.14852         8.89960         6.96928
     2019.15126        11.84537         7.10904
     2019.15400         5.54014         7.39779
     2019.15674        -2.02709         6.68515
     2019.15948         5.08268         6.98776
     2019.16221       -15.90655         7.23493
     2019.16495        -9.72078         6.92077
     2019.16769         7.23399         6.88034
     2019.17043         4.36476         7.09749
     2019.17316         2.96053         7.00624
     2019.17590         3.24830         7.25803
     2019.17864         6.44707         6.78910
     2019.18138         7.08784         7.07092
     2019.18412        -3.49339         7.29037
     2019.18685        -5.39762         6.94502
     2019.18959        -8.69285         6.77177
     2019.19233        -9.84408         6.98198
     2019.19507        -7.48131         7.18989
     2019.19780        -0.75554         7.42897
     2019.20054         0.43923         7.44168
     2019.20328        -4.57400         7.13560
     2019.20602        -7.18423         7.06283
     2019.20876         0.58953         6.97967
     2019.21149         0.40530         7.22107
     2019.21423        -0.56293         7.21530
     2019.21697         3.91584         7.25919
     2019.21971         1.21461         7.41742
     2019.22245        -3.91862         6.89767
     2019.22518        -5.53885         6.80527
     2019.22792        -8.62308         7.06399
     2019.23066       -10.67931         6.88496
     2019.23340        -9.76754         7.14138
     2019.23613        -3.94177         7.00970
     2019.23887        -8.30600         7.23493
     2019.24161       -10.99023         7.44630
     2019.24435       -12.62746         6.96350
     2019.24709       -11.18169         6.93809
     2019.24982       -11.86192         6.71518
     2019.25256         4.75785         7.16563
     2019.25530        -6.11338         7.27189
     2019.25804        -6.87561         7.00508
     2019.26078         4.67116         7.37353
     2019.26351        -5.89907         7.18296
     2019.26625       -10.31530         6.89420
     2019.26899       -15.58053         7.14369
     2019.27173        -5.63276         6.97967
     2019.27446         0.64401         6.91499
     2019.27720         0.32278         7.16448
     2019.27994        -0.22645         6.99584
     2019.28268        -5.58368         6.90460
     2019.28542         1.53809         6.86071
     2019.28815        -0.64214         6.90113
     2019.29089        -0.03137         7.04204
     2019.29363         1.71340         6.70940
     2019.29637        -1.58583         7.32733
     2019.29911         8.70794         6.79025
     2019.30184         4.59971         7.08478
     2019.30458        -3.90352         6.87110
     2019.30732         0.28225         6.78332
     2019.31006         4.57602         6.87226
     2019.31279         5.87579         9.67776
     2019.31553         4.45056         7.04435
     2019.31827        -1.99667         6.76484
     2019.32101         2.80310         7.14253
     2019.32375        -8.74213         6.95080
     2019.32648        -3.83336         6.70825
     2019.32922         5.66041         6.65281
     2019.33196        -0.19882         7.08247
     2019.33470        -4.27705         7.46362
     2019.33744        -1.20528         6.76715
     2019.34017        -3.02051         6.83761
     2019.34291         7.60226         7.00624
     2019.34565         0.53903         7.03511
     2019.34839        -1.63020         6.93347
     2019.35112        -1.23743         7.11481
     2019.35386        -7.27866         6.89074
     2019.35660        10.69611         7.42897
     2019.35934         6.90788         6.61238
     2019.36208        -7.53835         6.99122
     2019.36481         7.79142         7.29037
     2019.36755        -4.60081         7.11712
     2019.37029        -5.96204         7.17949
     2019.37303         4.71973         6.99815
     2019.37577         2.98750         6.97043
     2019.37850         4.27626         6.92077
     2019.38124       -10.48397         7.10904
     2019.38398        -4.78520         6.93925
     2019.38672         7.78657         7.14484
     2019.38945         6.68734         7.21183
     2019.39219         2.34711         7.18642
     2019.39493         2.31388         7.10557
     2019.39767         0.68765         6.93232
     2019.40041        -0.40658         7.00393
     2019.40314        -1.12981         7.16910
     2019.40588         7.31996         7.13214
     2019.40862        -4.92227         7.30423
     2019.41136         0.30150         7.20144
     2019.41410         7.71527         7.03973
     2019.41683        -1.73696         6.94387
     2019.41957        -1.65719         6.96119
     2019.42231        -2.56442         7.02125
     2019.42505        -5.78565         6.99007
     2019.42778         5.06612         7.27420
     2019.43052        -4.42911         7.52599
     2019.43326         7.02466         7.08132
     2019.43600         2.76043         7.22916
     2019.43874       -14.19180         6.96812
     2019.44147        -5.03503         7.31694
     2019.44421         4.93274         7.23378
     2019.44695        -2.38549         7.42435
     2019.44969         5.65128         7.06168
     2019.45243        -1.09195         7.35159
     2019.45516        -7.88718         7.22454
     2019.45790         2.97159         7.64034
     2019.46064         0.61636         6.99122
     2019.46338        -6.59387         7.21530
     2019.46611         4.24690         7.09749
     2019.46885         0.47667         7.41511
     2019.47159        10.23744         7.27420
     2019.47433         2.69321         7.27536
     2019.47707        -2.98902         7.08247
     2019.47980        -6.08725         7.05475
     2019.48254         1.18652         6.78448
     2019.48528        10.13429         7.10211
     2019.48802         5.76806         7.14484
     2019.49076         4.26783         7.33888
     2019.49349         8.11660         7.15639
     2019.49623        -2.09063         7.09056
     2019.49897         7.24314         6.96119
     2019.50171         1.53691         7.12059
     2019.50444         6.05768         6.88265
     2019.50718       -13.80155         7.04435
     2019.50992         9.28322         6.84685
     2019.51266         4.01299         6.71402
     2019.51540         9.42576         7.21414
     2019.51813         3.69253         7.14946
     2019.52087         1.82330         7.04435
     2019.52361        -5.32693         6.94733
     2019.52635        -1.02216         7.32849
     2019.52908         2.60161         6.89074
     2019.53182        -3.43362         7.16448
     2019.53456        -1.10485         6.84107
     2019.53730        -7.68508         7.08363
     2019.54004        -2.24231         7.37931
     2019.54277        -0.32054         7.24302
     2019.54551        14.74223         7.27998
     2019.54825        -1.99001         6.97621
     2019.55099        -3.55524         6.70478
     2019.55373         7.92853         6.93694
     2019.55646         0.69830         6.82144
     2019.55920       -10.24593         7.75468
     2019.56194         5.38284         7.23147
     2019.56468       -14.86839         7.20952
     2019.56741        -6.30262         7.04204
     2019.57015        -1.55185         7.14484
     2019.57289        -6.33908         6.78101
     2019.57563         0.60269         6.60892
     2019.57837        -8.80254         6.74983
     2019.58110        -1.63177         7.32502
     2019.58384         0.54200         7.51329
     2019.58658         2.60577         6.86071
     2019.58932         7.43854         6.86417
     2019.59206        15.27831         7.40703
     2019.59479         4.95808         6.75676
     2019.59753        11.72485         6.98314
     2019.60027         6.57162         7.31001
     2019.60301         0.21839         7.41280
     2019.60574        14.48616         7.43706
     2019.60848         8.12093         7.17718
     2019.61122         5.95270         7.07323
     2019.61396         4.69947         7.11597
     2019.61670        -0.82676         7.13791
     2019.61943        -2.06399         6.98891
     2019.62217         2.41878         7.55487
     2019.62491        10.17955         7.58490
     2019.62765        12.58232         7.40472
     2019.63039         8.57809         7.03627
     2019.63312         1.41686         7.11366
     2019.63586        -2.25737         7.63687
     2019.63860         4.25140         6.90806
     2019.64095        -7.51810         9.05059
     2019.69966         2.39675        11.01987
     2019.70157       -16.68189         7.00508
     2019.70431        -4.47012         7.26150
     2019.70705        -8.09035         7.21183
     2019.70978         0.37342         7.10788
     2019.71252       -10.79481         6.82952
     2019.71526        -1.23304         7.07207
     2019.71800         7.79772         7.16794
     2019.72073         1.19749         7.37931
     2019.72347        -6.04374         6.74405
     2019.72621        -0.89697         6.74059
     2019.72895         2.78880         7.35043
     2019.73169        -5.49243         7.02934
     2019.73442         0.49634         7.28113
     2019.73716         4.09311         7.12983
     2019.73990         7.03188         7.41396
     2019.74264        -6.30135         7.29268
     2019.74538        -2.36658         6.60083
     2019.74811        11.68019         6.97852
     2019.75085        -5.85504         6.90229
     2019.75359        -4.32327         7.55140
     2019.75633        -5.47350         6.86879
     2019.75906        -9.15273         7.49943
     2019.76180        -2.71096         6.91499
     2019.76454        -5.55519         7.49019
     2019.76728         8.14858         6.81913
     2019.77002         4.10335         6.76484
     2019.77275        -5.87588         7.47979
     2019.77549         6.84789         7.37122
     2019.77823         5.80966         6.47840
     2019.78097         4.70043         7.26496
     2019.78371         8.56320         6.91730
     2019.78644         0.85697         7.23031
     2019.78918         2.27074         6.71864
     2019.79192         9.23551         6.61816
     2019.79466         7.27328         7.02818
     2019.79739        -1.57995         7.14484
     2019.80013         8.37182         6.42989
     2019.80287       -11.70841         7.29153
     2019.80561         3.55036         7.04551
     2019.80835        -1.42987         7.36314
     2019.81108        -1.64910         6.68630
     2019.81382        -6.71433         6.64819
     2019.81656         1.49744         6.90806
     2019.81930        -1.39979         7.02934
     2019.82203        10.15398         6.51421
     2019.82466         1.93997         7.53870
     2019.82751        -1.33248         6.80065
     2019.83025         0.94529         7.22800
     2019.83299        -8.32894         6.91384
     2019.83572        -2.93017         6.55117
     2019.83846         5.35660         7.31463
     2019.84120         7.36237         6.83761
     2019.84394        -6.90486         7.43706
     2019.84668       -13.14609         6.82721
     2019.84941         6.72868         7.28806
     2019.85215         4.21245         7.16679
     2019.85489        -6.92978         6.51305
     2019.85763        -4.10301         6.77293
     2019.86036       -11.07124         7.03511
     2019.86310       -11.50247         7.00970
     2019.86584         1.54630         6.87919
     2019.86858         4.50907         6.90575
     2019.87132         7.77684         7.09287
     2019.87405        -0.52539         7.29268
     2019.87679         6.85538         6.83068
     2019.87953        -6.35885         6.62047
     2019.88227        17.65392         7.05821
     2019.88501         9.14969         7.35159
     2019.88774        11.39145         7.21183
     2019.89048         2.55922         7.23840
     2019.89322        15.57899         7.42320
     2019.89596        -7.16724         7.34119
     2019.89869         0.52753         6.76369
     2019.90143         7.41330         6.57427
     2019.90417         5.95707         7.19335
     2019.90691        10.91184         7.17718
     2019.90965         8.99061         7.05706
     2019.91238        13.48938         6.65512
     2019.91512         5.81115         7.02587
     2019.91786         7.12992         7.04435
     2019.92060         4.46769         6.72442
     2019.92334        -9.77754         6.57311
     2019.92607       -12.68077         6.91384
     2019.92881       -14.62300         6.65165
     2019.93155         3.84277         6.68861
     2019.93429        11.25154         6.63202
     2019.93702        -1.75169         7.15408
     2019.93976         4.50508         7.21299
     2019.94250         1.13885         7.15986
     2019.94524        -8.15838         7.40703
     2019.94798       -17.43561         6.82721
     2019.95071       -11.23784         7.16794
     2019.95345        -3.34807         6.65165
     2019.95619         4.86470         7.35967
     2019.95893        -7.64653         7.08363
     2019.96167         0.17924         7.18873
     2019.96440         8.80501         7.14138
     2019.96714        -2.65322         7.46362
     2019.96988       -11.68245         6.83530
     2019.97262       -21.18168         6.73250
     2019.97535        -9.58991         6.35135
     2019.97809        -6.72314         7.18873
     2019.98083        -5.98137         7.05359
     2019.98357        -2.49660         7.59991
     2019.98631        -4.21783         6.80065
     2019.98904        -2.20006         7.05590
     2019.99178        -2.37229         7.07092
     2019.99452         1.89048         6.78794
     2020.00000         0.08802         7.54101
     2020.00273         7.86579         6.85724
     2020.00547         1.64856         7.40934
     2020.00821         0.27033         7.23031
     2020.01095         5.42010         7.22338
     2020.01368       -13.58213         7.15524
     2020.01642       -11.46836         6.95657
     2020.01916        -0.33659         6.62278
     2020.02190       -11.96482         6.86417
     2020.02464        -3.56605         7.01432
     2020.02737         4.69072         6.95426
     2020.03011        -6.10951         6.82490
     2020.03285        -5.15774         6.85378
     2020.03559         0.10003         6.62509
     2020.03833         4.91380         6.51190
     2020.04106         4.44157         6.49688
     2020.04380        -0.15566         6.92654
     2020.04634         5.66048         7.79511
     2020.04927        -1.08111         9.37630
     2020.05208       -12.05348         8.35297
     2020.05475        -5.15458         6.81913
     2020.05749        -7.00382         6.60199
     2020.06023        -3.39705         6.56734
     2020.06297       -10.39728         6.44491
     2020.06570         0.23849         6.96812
     2020.06844         1.51926         7.18873
     2020.07118         2.61403         6.66898
     2020.07666        -4.55543         6.70594
     2020.07939        -0.08566         6.88727
     2020.08213       -15.63289         6.79141
     2020.08487        -6.09312         6.57542
     2020.08761        -1.15735         6.74290
     2020.09034        -4.86658         7.13676
     2020.09308        -2.08181         6.67244
     2020.09582         1.18896         6.58813
     2020.09856        -7.12827         6.70709
     2020.10130        -8.60150         6.48880
     2020.10403         3.56127         6.76022
     2020.10677         1.40704         6.61931
     2020.10951       -12.40619         7.00162
     2020.11225         5.50758         6.91268
     2020.11498         4.88835         6.83530
     2020.11772       -13.68488         6.69785
     2020.12046       -12.27211         6.97274
     2020.12320        -8.73734         6.95195
     2020.12594        -0.02057         7.00970
     2020.12867       -21.35780         6.70709
     2020.13141       -14.92603         6.62162
     2020.13415         0.27874         7.27651
     2020.13689        -6.89549         6.97159
     2020.13963        -0.60272         7.29037
     2020.14236        -0.72595         6.66898
     2020.14510        -0.97718         6.51190
     2020.14784        -6.43041         6.80180
     2020.15058        -1.17664         6.94156
     2020.15331        -7.10487         6.75214
     2020.15605        -5.60110         7.13791
     2020.15879         8.53067         6.75214
     2020.16153         8.70044         6.74174
     2020.16427         2.74421         6.86533
     2020.16700        -2.91302         6.71056
     2020.16974       -13.29125         7.12290
     2020.17248         0.03152         6.71749
     2020.17522         4.34729         6.86302
     2020.17796         2.62206         6.90113
     2020.18069         1.19083         6.77755
     2020.18343         2.06960         6.71287
     2020.18617         1.37737         6.76600
     2020.18891        -2.58786         6.90344
     2020.19164       -14.50309         7.00277
     2020.19438        -7.76732         6.98314
     2020.19712         2.27245         6.69208
     2020.19986        -3.64378         6.97736
     2020.20260        -0.72801         6.93925
     2020.20533        -3.92524         6.81220
     2020.20807         1.10253         6.73712
     2020.21081        -2.83070         6.75214
     2020.21355        -3.39593         7.54101
     2020.21629       -15.83816         7.06630
     2020.21902         3.46361         7.11481
     2020.22176       -10.63862         7.04782
     2020.22450        -5.54985         6.90229
     2020.22717         8.61404         7.08363
     2020.22997        -2.46332         6.90344
     2020.23271       -11.04955         6.89998
     2020.23545        -7.10178         6.90344
     2020.23819        -5.48701         6.97274
     2020.24093       -10.39924         6.71864
     2020.24366        -3.13247         7.50751
     2020.24640         1.18630         6.94156
     2020.24914        -2.68893         6.79834
     2020.25188         4.52884         6.76831
     2020.25462         9.46561         6.81797
     2020.25735        -2.89362         6.85378
     2020.26009         8.55715         6.96581
     2020.26283         2.71192         7.12867
     2020.26557         2.13069         7.31809
     2020.26830         5.31746         7.12059
     2020.27104         0.61123         6.89305
     2020.27378         9.40200         6.85147
     2020.27652        -0.66323         6.67244
     2020.27926         0.61754         7.41973
     2020.28199        -3.49969         6.85609
     2020.28473        -0.69592         6.89998
     2020.28747         8.82385         7.46131
     2020.29021         7.59862         7.00277
     2020.29295        -1.45961         6.76022
     2020.29568         0.36516         7.19220
     2020.29842        -1.95507         6.69439
     2020.30116         6.40770         7.34119
     2020.30390         8.20247         7.07207
     2020.30663        -7.07576         6.70132
     2020.30937        -8.71399         7.33888
     2020.31211        -9.13822         7.40587
     2020.31485        -3.13445         6.84916
     2020.31759         0.59632         7.15524
     2020.32032         2.85209         6.74867
     2020.32306         0.42686         7.34350
     2020.32580        -6.66937         6.82952
     2020.32854         2.32040         6.46916
     2020.33128        -0.89283         6.84800
     2020.33401        -4.77206         6.85724
     2020.33675         6.81371         6.67013
     2020.33949         3.02848         7.00855
     2020.34223        -8.02575         7.26265
     2020.34496        -4.82298         7.15062
     2020.34770       -11.19921         6.85493
     2020.35044        -2.75044         6.74867
     2020.35318         7.58533         7.17603
     2020.35592         4.50210         7.08132
     2020.35865         4.53287         7.35967
     2020.36139         6.52464         7.10673
     2020.36412        -7.28858         7.36198
     2020.36687         0.11618         7.03973
     2020.36960        -7.14304         7.37815
     2020.37234        -9.04628         7.49019
     2020.37480       -11.33097         8.46616
     2020.37782         3.49126         7.41396
     2020.38056        -6.38997         6.87919
     2020.38329       -11.07920         7.64958
     2020.38603        -0.18643         7.34812
     2020.38877         1.46934         7.51098
     2020.39151         5.06011         6.84107
     2020.39425        -5.31912         7.15177
     2020.39698        -4.03836         7.26612
     2020.39972        -9.36959         7.40587
     2020.40246        -4.48582         7.38855
     2020.40520        16.00595         7.44052
     2020.40794       -12.81328         7.56295
     2020.41067        -9.72251         7.38277
     2020.41342         1.56725         7.12521
     2020.41615         0.05003         7.26265
     2020.41889        -0.64320         7.37584
     2020.42162        -6.77543         7.00508
     2020.42436        -6.23066         7.19104
     2020.42710        -0.24889         7.12867
     2020.42984       -15.66312         6.86186
     2020.43258         6.08365         7.55949
     2020.43531        -4.43058         7.37931
     2020.43805         0.01519         7.48557
     2020.44079        -0.38204         8.55163
     2020.44353        -8.73027         7.57681
     2020.44626       -15.97150         7.19913
     2020.44900        -3.63473         7.26150
     2020.45174        -5.84296         7.53639
     2020.45448        -0.91819         7.53870
     2020.45722         2.17858         7.44630
     2020.45995         4.13335         7.15293
     2020.46269        -7.46388         6.92539
     2020.46543        -4.77611         7.15177
     2020.46817        -6.78634         6.73250
     2020.47091         7.18543         7.02241
     2020.47364        -0.86180         7.14138
     2020.47638       -12.81203         7.28922
     2020.47912        -1.13926         7.22338
     2020.48186        -1.49749         7.32156
     2020.48459        -0.54972         7.44630
     2020.48733       -11.97295         7.31694
     2020.49007        -3.36818         6.93809
     2020.49281        -4.24841         7.35736
     2020.49555         0.75536         6.92654
     2020.49828        -6.54287         6.99815
     2020.50102         2.72290         7.26843
     2020.50376        -1.88333         7.83322
     2020.50650         4.66644         7.23262
     2020.50924        -1.72679         7.14138
     2020.51197        -3.94502         6.81913
     2020.51471         6.35075         7.03396
     2020.51745        -0.39748         7.08132
     2020.52019        -2.62771         7.69809
     2020.52292        -3.57194         7.11481
     2020.52566        -8.02017         7.41511
     2020.52840        -3.34940         6.74867
     2020.53114         0.50937         6.83414
     2020.53388        -8.78986         6.92539
     2020.53661        -7.72709         7.02241
     2020.53935       -12.71132         7.21645
     2021.75496         3.13248         7.16794
     2021.75770         6.98425         7.39548
     2021.76043        10.67902         7.74891
     2021.76317         0.33279         6.93116
     2021.76591         9.27656         7.07669
     2021.76865         7.84833         7.40010
     2021.77138         5.47910         7.05821
     2021.77412         9.55287         7.24533
     2021.77686         6.49564         7.04551
     2021.77960         5.95341         7.79511
     2021.78234         4.74618         7.22685
     2021.78507         9.75595         6.99700
     2021.78781        10.10572         7.15293
     2021.79055         2.82349         7.38739
     2021.79329         0.54526         7.17372
     2021.79603         0.79803         7.32156
     2021.79876        21.08280         7.32733
     2021.80150        15.21157         7.91176
     2021.80424         0.60034         7.78471
     2021.80698        10.37511         7.00624
     2021.80971         2.02188         7.07901
     2021.81245        23.75965         7.42320
     2021.81519        16.90342         7.67383
     2021.81793        10.69519         7.39779
     2021.82067         3.04496         7.43013
     2021.82340        13.04373         7.49019
     2021.82614         8.53050         7.29615
     2021.82888        12.17327         6.81913
     2021.83162        14.45204         6.96350
     2021.83436        18.44981         7.69462
     2021.83709        11.28258         7.31347
     2021.83983         0.35535         8.27559
     2021.84257         0.94712         8.04574
     2021.84531         5.81089         7.58028
     2021.84804         7.69366         7.77547
     2021.85078         7.58943         7.09749
     2021.85352         3.96420         6.82952
     2021.85626         5.41197         7.28229
     2021.85900         2.70974         7.41396
     2021.86173         4.56651         7.44861
     2021.86447         5.42628         7.47286
     2021.86721       -10.95495         7.53292
     2021.86995         3.88482         7.45554
     2021.87269         3.60859         7.40356
     2021.87542         9.42936         7.06630
     2021.87816        10.16413         7.05244
     2021.88090        -0.54610         7.37122
     2021.88364        -2.19833         7.28806
     2021.88637         3.30544         7.25572
     2021.88911         5.17421         7.29268
     2021.89185         4.36998         7.48326
     2021.89459         9.26575         6.95426
     2021.89733        -0.06348         6.81335
     2021.90006         4.92429         6.99122
     2021.90280        -1.07394         7.17949
     2021.90554         8.12083         7.54332
     2021.90828         9.21260         7.56180
     2021.91102         1.16837         7.18296
     2021.91375         4.75814         7.64496
     2021.91649         4.93891         7.03280
     2021.91923         4.52568         7.11597
     2021.92197        -9.46156         7.17949
     2021.92470        -0.52779         7.34581
     2021.92744        -1.85202         6.87688
     2021.93018         8.02875         7.15177
     2021.93292         6.69652         7.16332
     2021.93566        14.24929         7.40818
     2021.93839         8.54206         7.14600
     2021.94113         7.99483         7.24186
     2021.94387         0.02960         6.91730
     2021.94661        -2.67263         7.33773
     2021.94935        21.63014         6.90575
     2021.95208        21.26291         7.01086
     2021.95482         7.55168         7.02472
     2021.95756        15.35445         7.20490
     2021.96030         7.32622         7.01086
     2021.96303         7.92399         7.05244
     2021.96577         9.89276         6.71980
     2021.96851         8.83753         7.12405
     2021.97125         4.46530         7.00508
     2021.97399         2.90707         6.87457
     2021.97672        14.88084         7.06745
     2021.97946        12.48761         6.95542
     2021.98220        13.11938         6.89651
     2021.98494        17.33915         6.91268
     2021.98767        18.01792         6.72673
     2021.99041        14.55069         7.20028
     2021.99315        11.60546         6.80758
     2021.99589        12.48523         6.98891
     2021.99868        10.11189         7.18873
     2022.00136         9.68177         6.99584
     2022.00410        10.40254         7.07323
     2022.00684        -5.31369         7.90599
     2022.00958         3.85508         6.74752
     2022.01232        -9.71615         7.02587
     2022.01505        14.85862         6.69208
     2022.01779        11.75139         6.92539
     2022.02053         4.99216         6.80296
     2022.02327        -9.62007         7.34235
     2022.02600        -4.66830         7.24879
     2022.02874         1.70747         7.18180
     2022.03148       -13.60876         6.83761
     2022.03422       -17.35699         7.38855
     2022.03696        -6.65222         7.03396
     2022.03969        -6.06945         7.03511
     2022.04243         0.86532         7.15639
     2022.04517         1.46909         6.95773
     2022.04791         4.67886         6.93809
     2022.05065         4.06263         7.32733
     2022.05338        -3.85360         7.16332
     2022.05612        -3.05783         7.48095
     2022.05886        -4.62606         6.86533
     2022.06160        -2.51729         7.31925
     2022.06433        -6.23652         7.46131
     2022.06707        -7.00775         7.00739
     2022.06981        -8.45798         6.91037
     2022.07255        -7.97621         7.25688
     2022.07529        -0.79344         7.14946
     2022.07802         9.01333         6.87226
     2022.08076         8.67610         6.77524
     2022.08350        -1.94913         7.02472
     2022.08624        -4.98236         7.12521
     2022.08898         3.32041         6.93925
     2022.09171        -4.26283         6.99238
     2022.09445         0.74494         7.31347
     2022.09719        -3.45329         7.10095
     2022.09993         2.49648         7.46940
     2022.10266         5.49925         7.02241
     2022.10540         3.38102         7.13560
     2022.10814         6.21779         7.12636
     2022.11088        10.02756         6.93925
     2022.11362         7.75233         6.98429
     2022.11635       -15.06190         7.36545
     2022.11909        16.30387         6.82606
     2022.12183         2.48564         7.00393
     2022.12457         0.81441         7.15986
     2022.12731        -3.08782         6.95195
     2022.13004       -22.88105         7.15408
     2022.13278        -6.49728         6.86302
     2022.13552         3.99049         6.73828
     2022.13826         4.48326         7.33080
     2022.14099        12.31203         6.85262
     2022.14373        -5.41420         6.88958
     2022.14647        11.21057         6.82952
     2022.14921        -2.81066         6.94387
     2022.15195         2.70911         7.18527
     2022.15468        -0.26712         7.03049
     2022.15742         1.74865         6.90806
     2022.16016         3.77342         6.97852
     2022.16264        -1.90832         7.44283
     2022.16837        13.78673         7.20606
     2022.17111         8.93550         6.77408
     2022.17385         9.58727         6.78679
     2022.17659        10.58904         6.78563
     2022.17932         0.08181         6.77639
     2022.18206        -6.33342         7.10557
     2022.18480         5.52235         6.78910
     2022.18754         6.71212         7.45669
     2022.19028         1.80689         7.32733
     2022.19301         0.59166         6.83992
     2022.19575         2.53043         6.87572
     2022.19849         6.67220         6.83068
     2022.20123         9.85097         6.83992
     2022.20397         6.53074         6.91268
     2022.20670        -2.07549         7.04897
     2022.20944         9.67028         7.71888
     2022.21218        -0.23495         6.87341
     2022.21492        -6.09518         6.97967
     2022.21765        -1.78841         6.91846
     2022.22039         1.87836         6.97736
     2022.22313         2.61613         6.85147
     2022.22587        -1.85510         7.16563
     2022.22861        -1.31933         7.02241
     2022.23134        -5.81756         7.04089
     2022.23408        -4.83079         6.86186
     2022.23682         1.37298         7.02587
     2022.23956         4.02475         6.98198
     2022.24230         0.87352         6.95657
     2022.24503        -2.80671         7.11943
     2022.24777         1.45606         6.87919
     2022.25051        -7.24617         6.79834
     2022.25325        -1.71640         7.19335
     2022.25598        -0.82863         7.18758
     2022.25872        -4.22186         6.96466
     2022.26146        -5.34410         7.06976
     2022.26420        -5.33433         6.89420
     2022.26694       -23.36256         7.12405
     2022.26967        -5.01579         7.03280
     2022.27241         1.17498         7.08709
     2022.27515         3.49475         7.31809
     2022.27789         4.47352         6.81913
     2022.28062         0.02029         7.10095
     2022.28336        10.29106         7.17141
     2022.28610         1.82083         7.15177
     2022.28884        -1.14240         6.97043
     2022.29158        -5.52763         7.00162
     2022.29431         2.83714         7.28922
     2022.29705        -1.21709         7.28229
     2022.29979         4.61468         6.88150
     2022.30253         2.88545         7.22454
     2022.30527         0.21622         7.34581
     2022.30800        -4.66701         7.03742
     2022.31074        -3.41224         6.91961
     2022.31348        -6.10047         6.75907
     2022.31622        -7.63970         7.24533
     2022.31895       -21.56493         7.25226
     2022.32169       -13.58716         7.06861
     2022.32443       -12.50139         7.11135
     2022.32717        -1.17362         7.08363
     2022.32991       -10.41285         6.92654
     2022.33538        -6.25331         7.19451
     2022.33812        -7.20254         7.98453
     2022.34086       -18.42377         7.14138
     2022.34360        -4.01400         7.05706
     2022.34633         2.09477         7.14831
     2022.34907        -2.85846         7.00046
     2022.35181         2.10731         7.22454
     2022.35455        -1.74792         6.79603
     2022.35728        -9.02015         6.76022
     2022.36002        -7.15938         7.32618
     2022.36276        -2.96661         6.93578
     2022.36550         1.32516         7.18411
     2022.36824        -7.21807         7.21530
     2022.37097        -8.93830         7.13214
     2022.37371       -11.66653         7.14484
     2022.37645       -11.81376         6.82375
     2022.37919       -11.96499         7.28922
     2022.38193       -22.13622         8.36337
     2022.38466       -11.87245         7.15986
     2022.38740       -12.20668         6.80642
     2022.39014        -5.69191         7.26265
     2022.39288        -6.66014         7.12290
     2022.39561       -16.58137         7.22454
     2022.39835       -15.75660         7.30423
     2022.40109        -7.47183         7.16794
     2022.40383        -7.52506         7.07207
     2022.40657         2.27871         6.92654
     2022.40930        -7.93452         7.16563
     2022.41204        -0.62975         7.19451
     2022.41478         1.43102         7.27420
     2022.41752        -8.58021         7.44976
     2022.42026       -13.07744         7.16217
     2022.42299        -3.34767         6.93578
     2022.42573       -18.26190         7.17949
     2022.42847        -0.73413         7.39894
     2022.43121         6.73063         7.07554
     2022.43394        12.20040         7.14600
     2022.43668       -12.17583         7.05590
     2022.43943        -8.00906         7.08709
     2022.44216        -4.18729         7.04897
     2022.44490        10.76548         7.05013
     2022.44763         6.80425         7.07207
     2022.45037        -3.83998         7.11828
     2022.45311       -11.66921         6.99931
     2022.45585         2.74656         7.22454
     2022.45859       -16.34567         7.24186
     2022.46132        -1.36990         6.91730
     2022.46406         1.00987         6.85840
     2022.46680        -6.68436         6.95542
     2022.46954        -3.00059         7.10211
     2022.47227       -14.48182         7.34466
     2022.47501         9.05095         6.88727
     2022.47775        -7.87928         7.17834
     2022.48049       -10.59251         7.26727
     2022.48323        15.24526         7.15177
     2022.48596        18.45303         6.99815
     2022.48870        -1.25320         6.86995
     2022.49144        -0.11343         7.21530
     2022.49418         8.37434         7.76854
     2022.49692         5.94511         7.00508
     2022.49965       -14.07912         6.87457
     2022.50239       -24.09635         7.33888
     2022.50513        -1.36158         7.83207
     2022.50787        30.16019         7.97529
     2022.51060         2.15496         7.27651
     2022.51334        -6.60427         7.21299
     2022.51608       -15.12850         7.24186
     2022.51882       -22.37773         7.10095
     2022.52156       -13.74796         7.14715
     2022.52429        11.87281         7.40934
     2022.52703        -6.06442         6.95773
     2022.52977        13.91535         6.87688
     2022.53251        -7.82088         7.12290
     2022.53525        -6.54211         7.28806
     2022.53798        -4.46934         7.33657
     2022.54072       -13.84257         7.27420
     2022.54346        -4.57080         7.22338
     2022.54620        -2.94203         7.27420
     2022.54893        -8.51526         7.12174
     2022.55167         5.73751         7.36660
     2022.55441        -4.60172         6.93232
     2022.55715         4.54005         7.27189
     2022.55989        -2.03918         7.76970
     2022.56262        -9.94541         7.18411
     2022.56536       -22.35964         7.29961
     2022.56810         4.22513         7.60569
     2022.57072        -0.96688         7.51444
     2022.57363         8.16956         7.73043
     2022.57631       -17.08356         7.11250
     2022.57905        -2.67279         7.35852
     2022.58179        11.68198         8.16240
     2022.58453        10.89975         7.92678
     2022.58726       -12.22048         7.58721
     2022.59000        -7.27171         7.58952
     2022.59274        -8.43394         6.93809
     2022.59548       -16.36517         7.87480
     2022.59822       -10.90940         7.67383
     2022.60095       -13.62764         7.14253
     2022.60369       -13.86087         7.40934
     2022.60643         6.01290         7.00046
     2022.60917       -11.25933         7.24879
     2022.61190         7.94444         7.43244
     2022.61464        -0.08379         6.92192
     2022.61738         8.31398         7.58374
     2022.62012        -8.96525         7.21068
     2022.62286         7.00652         6.90806
     2022.62559         5.89829         7.03973
     2022.62833         0.79006         7.02356
     2022.63107        11.55983         7.18758
     2022.63381         4.11760         7.29384
     2022.63655        -1.68863         7.22223
     2022.63928         0.27514         7.24186
     2022.64202         3.40091         7.51560
     2022.64476        14.90668         7.14022
     2022.64750         0.39745         7.55949
     2022.65023         2.19022         6.97274
     2022.65297         8.24499         6.92192
     2022.65571         2.75176         7.43590
     2022.65845         5.56353         7.45785
     2022.66119        10.94630         6.92192
     2022.66392         7.83307         7.66921
     2022.66666         4.99584         6.98545
     2022.66940         9.02061         7.63918
     2022.67214        16.76138         7.85863
     2022.67488         6.53315         7.32618
     2022.67761        -0.91508         7.39779
     2022.68035         4.25469         7.49481
     2022.68309        12.19246         7.16332
     2022.68583        -7.73177         7.41165
     2022.68856         7.22000         7.24186
     2022.69130         1.30477         7.34119
     2022.69404        13.43854         7.95334
     2022.69678         5.27831         7.47171
     2022.69952        -7.97692         7.49250
     2022.70225         2.75585         7.63225
     2022.70499        -1.17638         7.41165
     2022.70773        -2.35661         7.31232
     2022.71047        -4.07784         7.07092
     2022.71321         3.01393         7.49827
     2022.71594         8.33870         6.78217
     2022.71868         3.39347         7.08016
     2022.72142         7.91724         7.07901
     2022.72416        -6.74199         7.32964
     2022.72689        -0.76122         7.48441
     2022.72963         7.51455         7.08016
     2022.73237        10.93032         7.16217
     2022.73511         4.24409         7.44399
     2022.73785        -0.76014         6.89651
     2022.74058         3.02663         7.43706
     2022.74332         9.51240         7.52368
     2022.74606        10.89517         7.35505
     2022.74880         7.16594         7.35274
