# ================= DQRFIT RESULTS ================
# INPUT FILE: series/BNDM.rad
# OUTPUT: LDETRENDED
# FILTER FUNCTION: f(t)
# f(t)=+line(t)+annual(t)
# line(t)=+P 1+P 2*t
# annual(t)=+P 3*sin(2*pi*t+P 4)
# heav(t)=(t<0?0:1)
# TOTAL OBSERVATIONS MTOT= 1790
# INITIAL TIME INTERVAL= 2022.7488 - 2016.3587 =  6.3901
# TOTAL OBSERVATIONS AFTER PREFILTER M= 1787
# TIME-SPAN= 2022.7488 - 2016.3587 =  6.3901
# OBSERVATIONS: USED M=  1787 REJECTED MTOT-M=     3 %USED=   99.8324
# N=  4 PARAMETERS
# MAXSIG= 175.00000
# MAXRES=  23.73964
# SCALE FACTOR FOR LENGTHS: SCL=  10.00000
# SCALE FACTOR FOR SIGMAS: SCLSIG=   1.00000
# CHI^2=   1564.344 DOF=  1783 CHI^2/DOF=   0.87737
# RMS=      5.401 SDEV=      5.403 MEAN=   -0.04322
#  P #       PARAMETER +-    SIGMA %error PARAMETER NAME
# P 1 =       507.01048 +-  122.976  24.26 YZERO                              
# P 2 =        -0.25038 +-    0.061  24.32 SLOPE                              
# P 3 =         4.44515 +-    0.177   3.97 ANNUAL AMPLITUDE                   
# P 4 =         3.08782 +-    0.056   1.82 ANNUAL PHASE                       
#       T            LDETRENDED       SIG_OBS
     2016.35865        -5.30975         5.48706
     2016.36139        -5.32007         5.29411
     2016.36413         0.58562         5.06930
     2016.36687         3.32830         5.18358
     2016.36966         8.97100         5.45803
     2016.37240         8.57169         5.25008
     2016.37514         1.26837         5.37279
     2016.37782        -5.88396         5.37653
     2016.38056        -0.40727         5.69126
     2016.38329         1.87041         5.20231
     2016.38603        -1.35590         5.41025
     2016.38877         7.52079         5.40651
     2016.39162        -0.31750         5.37279
     2016.39425        -1.73784         4.93255
     2016.39698         3.73184         4.91850
     2016.39972         4.24053         4.96721
     2016.40246        -1.33979         5.04495
     2016.40822        -2.64034         5.63037
     2016.41438        -8.09380         9.73490
     2016.41615        -5.47636         4.98313
     2016.41889        -5.92867         5.01779
     2016.42162         2.02101         5.01217
     2016.42436        -4.34230         4.94566
     2016.42710         1.90238         4.96065
     2016.42984        -3.38893         4.99718
     2016.43258         2.11375         5.00093
     2016.43531         6.72644         5.36529
     2016.43805         3.60912         4.97657
     2016.44079        -1.05219         5.03371
     2016.44353        -5.24950         4.97938
     2016.44626        -2.42282         4.95690
     2016.44900        -1.15513         5.05619
     2016.45174         3.94055         5.01966
     2016.45448         3.62124         4.96814
     2016.45722        -0.90108         4.98032
     2016.45995         2.64661         4.99062
     2016.46269         2.56529         5.02903
     2016.46543        -1.43002         4.91569
     2016.46822         1.31368         5.05525
     2016.47096         3.29137         5.17983
     2016.47370         3.07405         5.08335
     2016.47644         9.67674         5.29036
     2016.47918         5.12342         5.17047
     2016.48191        -0.01589         5.04308
     2016.48465         4.05379         5.06462
     2016.48739         1.18648         5.75589
     2016.49013         2.93516         5.08523
     2016.49287         1.91385         5.07586
     2016.49560         3.23053         5.05057
     2016.49828         3.78921         5.02060
     2016.50102         7.84589         5.01217
     2016.50376         4.70458         5.16203
     2016.50650         1.21326         5.15079
     2016.50924         6.37795         4.97470
     2016.51197        -1.86837         4.99999
     2016.51477        10.27933         5.09928
     2016.51751         3.15102         5.20231
     2016.52024        -0.40530         5.72592
     2016.52298         1.73039         5.31378
     2016.52572         6.05108         5.10209
     2016.52846         5.01476         5.14049
     2016.53120        -0.01755         5.00093
     2016.53393         0.94613         5.08429
     2016.53667        -0.54018         5.04776
     2016.53941         3.48050         5.02809
     2016.54215         8.03119         5.08523
     2016.54488         6.79087         5.28006
     2016.54762         0.82256         5.10771
     2016.55036         0.55624         5.13862
     2016.55310         9.51893         5.15079
     2016.55584         6.70762         5.27444
     2016.55852         1.13329         5.45428
     2016.56131         5.50899         5.09553
     2016.56405         4.65267         5.06462
     2016.56679         6.58436         5.25196
     2016.56953         4.81904         5.22292
     2016.57226        10.78173         5.07867
     2016.57500         9.37041         5.21824
     2016.57774        17.17610         5.16391
     2016.58048         9.17279         5.12176
     2016.58321         2.13047         4.98594
     2016.58595         4.33116         5.06649
     2016.58869         3.96384         5.04776
     2016.59137         0.28351         4.97189
     2016.59411         9.69920         5.14611
     2016.59685         7.14388         5.09272
     2016.59958         7.21557         5.06837
     2016.60232         9.23826         5.02809
     2016.60506         8.71694         5.01498
     2016.60780         3.29563         5.04870
     2016.61054         5.93631         4.98594
     2016.61327         5.97000         4.98688
     2016.61601         0.10668         4.98032
     2016.61875         8.75037         5.00936
     2016.62149         6.74805         5.00467
     2016.62423         7.53674         5.15829
     2016.62696         8.91442         4.95503
     2016.62970         4.58111         4.99437
     2016.63244         4.30180         5.01779
     2016.63518         7.65148         4.93068
     2016.63791        14.96617         4.97938
     2016.64065        16.71585         5.02153
     2016.64339        10.48154         5.50111
     2016.64613         5.27622         4.98594
     2016.64887         1.54291         5.73809
     2016.65160         7.29759         5.08242
     2016.65434         4.40928         4.99531
     2016.65708         9.07397         5.00748
     2016.65982         3.14165         4.97657
     2016.66256         6.17534         5.14143
     2016.66529         9.86602         4.98313
     2016.66803         7.28671         5.03652
     2016.67077        10.00439         5.09553
     2016.67351         8.40708         4.97751
     2016.67624         9.13876         4.91944
     2016.67898        10.25445         5.10677
     2016.68172         7.89513         4.97002
     2016.68446         7.63782         5.23229
     2016.68720         5.21451         5.23041
     2016.68993        10.77619         5.11239
     2016.69267         7.29488         4.89508
     2016.69541        13.90956         4.97564
     2016.69815        13.31825         4.96721
     2016.70089        10.55893         4.89414
     2016.70362        10.18262         5.00936
     2016.70636         8.72130         5.18826
     2016.70910        12.27499         5.15360
     2016.71184        15.51568         4.96440
     2016.71457        17.90836         5.21543
     2016.71731         8.37105         4.99905
     2016.72005        18.00473         5.00186
     2016.72279        13.61742         4.88103
     2016.72553        11.64710         5.03371
     2016.72826        14.31479         5.06837
     2016.73100         6.74047         4.93817
     2016.73374         2.81916         4.90820
     2016.73648        11.30684         4.91569
     2016.73921        10.60853         4.91007
     2016.74195         9.53222         4.91756
     2016.74469         5.15190         4.92974
     2016.74743         9.16459         5.00936
     2016.75000        13.02523         5.33719
     2016.77481         9.66144         5.01498
     2016.77754         7.60513         4.89508
     2016.78028         8.27481         4.94660
     2016.78302        10.91850         5.02341
     2016.78576        16.20318         5.07118
     2016.78850        21.03287         5.03277
     2016.79123        11.43755         5.03465
     2016.79397        13.35224         5.17328
     2016.79677         6.98694         5.08429
     2016.79945         1.10461         4.96908
     2016.80219        11.23530         5.09740
     2016.80492        10.49998         5.14049
     2016.80766         5.83967         5.07867
     2016.81040         4.32735         5.02434
     2016.81314         9.03504         5.08429
     2016.81587         9.05972         5.06930
     2016.81856         2.25240         5.11707
     2016.82135         6.67110         4.98126
     2016.82409         4.40078         5.48332
     2016.82683         7.49947         4.99531
     2016.82956         4.33615         4.93817
     2016.83230         5.69684         5.05525
     2016.83504         3.64952         4.91569
     2016.83778         0.55921         4.96346
     2016.84052         0.95089         4.93068
     2016.84325         2.94958         4.95316
     2016.84599         5.08126         4.95222
     2016.84873         3.81995         5.01685
     2016.85147         5.61364         4.95784
     2016.85420         3.75632         5.02622
     2016.85694        10.52701         4.93161
     2016.85968         4.77769         5.10864
     2016.86242         7.94638         4.94285
     2016.86516         9.11706         5.02809
     2016.86789         6.29275         4.97002
     2016.87063        10.91143         5.02434
     2016.87337        11.43312         5.06368
     2016.87611         3.70681         4.92880
     2016.87885         4.45449         4.92787
     2016.88158        -1.97282         4.91475
     2016.88432         3.49286         5.00467
     2016.88706         8.82155         4.98407
     2016.88980         6.70923         4.94285
     2016.89253         4.08992         4.96065
     2016.89527         5.35360         4.99343
     2016.89801         7.89129         4.93817
     2016.90075        -0.59203         5.01591
     2016.90349         6.95266         5.07961
     2016.90622         8.93535         5.04963
     2016.90896         8.70903         4.98126
     2016.91170         4.13172         4.92693
     2016.91444         0.88740         4.97002
     2016.91718         0.83209         5.25196
     2016.91991        -3.79923         5.06087
     2016.92265         2.70146         5.01217
     2016.92539         4.73114         4.95597
     2016.92813        -1.55717         4.92880
     2016.93086        -1.65248         4.91007
     2016.93360         3.40720         5.52734
     2016.93634         3.07489         5.05619
     2016.93908        -9.01243         5.19295
     2016.94182        13.74626         5.04027
     2016.94455        -3.36306         4.99812
     2016.94729        -1.20937         5.03184
     2016.94998        -1.52270         5.17421
     2016.95277         3.09600         5.13206
     2016.95551        -1.34932         5.17140
     2016.95824         2.30037         5.20138
     2016.96098        -2.47594         5.11426
     2016.96372        -0.29926         5.12550
     2016.96646        -0.54057         5.08242
     2016.96919         4.85911         5.23978
     2016.97193        -2.84320         4.99250
     2016.97467         2.90048         5.01966
     2016.97741        11.37117         5.05244
     2016.98015        12.98985         4.98032
     2016.98288         4.30154         5.01029
     2016.98562         1.25323         4.99156
     2016.98836         7.36391         5.01779
     2016.99110         0.73160         4.99812
     2016.99384         7.32328         5.00748
     2016.99657         9.21597         5.04870
     2016.99931         4.57965         4.93068
     2017.00088        11.59505        14.31900
     2017.00479         2.31502         4.90820
     2017.00690        -5.52045         7.04663
     2017.01026        -4.07361         4.94473
     2017.01300         1.99408         4.93536
     2017.01574        -4.76623         4.94285
     2017.01848        -1.90555         4.92506
     2017.02121         7.60014         4.98594
     2017.02395         6.09682         5.06556
     2017.02669         8.88051         5.06087
     2017.02943        -1.21481         5.03184
     2017.03216        -5.39912         4.92318
     2017.03490        -5.12644         4.95690
     2017.03764        -5.69775         4.98407
     2017.04038        -2.99506         4.95878
     2017.04312        -0.61238         4.98781
     2017.04585        -2.72669         5.15267
     2017.04859         5.27699         5.25102
     2017.05133         8.11568         4.96159
     2017.05281        12.06705        19.75267
     2017.06616        -4.70461        12.79315
     2017.06776        -4.89721         4.98594
     2017.07049        -3.73152         4.92225
     2017.07323        -9.77284         4.95316
     2017.07580       -13.13620         5.30254
     2017.08145        -9.95578         5.00842
     2017.08418        -6.44310         4.97189
     2017.08692        -1.36141         4.96627
     2017.08966        -3.28473         5.02903
     2017.09240        -4.84904         4.96440
     2017.09514        12.25165         5.15735
     2017.09787         2.35633         5.03465
     2017.10061         7.60502         4.97657
     2017.10335         6.00070         5.07961
     2017.10609         2.94039         5.06837
     2017.10882         3.73907         5.09178
     2017.11156        -2.86624         5.03839
     2017.11430        -6.92256         4.95316
     2017.11704       -11.07887         5.10864
     2017.11978        -9.27118         5.00093
     2017.12251        -9.88650         5.01498
     2017.12531        -2.20680         5.24727
     2017.12805         2.65889         5.12925
     2017.13078         2.35357         5.09366
     2017.13347         3.92324         4.98875
     2017.13620         2.71193         5.07211
     2017.13894        -0.92239         5.05057
     2017.14168        -3.21470         4.99437
     2017.14442        -5.68302         5.05338
     2017.14715        -9.90433         4.98407
     2017.14989        -6.94564         4.96065
     2017.15263        -4.68396         5.07399
     2017.15537        -7.15327         5.01123
     2017.15811        -2.47659         5.09272
     2017.16084        -1.17090         5.02715
     2017.16358       -10.49522         5.09366
     2017.16632        -8.12553         5.12176
     2017.16911        -7.95583         5.13581
     2017.17168        -3.47219         5.51329
     2017.17727        -4.64479         5.10115
     2017.18001        -2.11110         5.02809
     2017.18275       -10.10242         5.23603
     2017.18548        -0.99173         5.05244
     2017.18822       -13.77705         5.06462
     2017.19096        -5.55836         5.10771
     2017.19370        -8.34668         5.06649
     2017.19644        -7.23199         5.02434
     2017.19917         5.08869         5.01591
     2017.20191         0.34838         5.04589
     2017.20465        -3.32493         5.13112
     2017.20739        -6.99525         5.04027
     2017.21013        -2.32656         5.02247
     2017.21286        -3.56188         5.04027
     2017.21560        -5.66719         5.08804
     2017.21834        -3.27551         5.14798
     2017.22108        -0.40182         4.99718
     2017.22381        -6.91714         5.06368
     2017.22655         5.44755         5.16391
     2017.22929        -7.36776         5.00467
     2017.23203        -2.38608         5.00842
     2017.23477        -5.92939         5.07024
     2017.23750        -9.43871         4.99437
     2017.24024        -6.38302         5.00748
     2017.24298        -6.59734         4.97470
     2017.24572        -5.53065         5.06462
     2017.24823       -13.64902         5.43180
     2017.25393        -8.75660         4.97189
     2017.25667        -9.35291         4.94660
     2017.25941       -13.62422         5.07211
     2017.26186        -3.57661         5.57979
     2017.26579         3.76138         9.14011
     2017.26762        -5.80617         4.99999
     2017.27036        -4.08648         4.96721
     2017.27310       -11.50780         5.10490
     2017.27566       -10.38115         5.35405
     2017.29312        -6.63778         8.35986
     2017.29500        -6.85731         7.84375
     2017.29871        -8.96738         9.65622
     2017.30047       -11.40994         5.03277
     2017.30321        -8.64626         5.01498
     2017.30595        -9.37457         5.02715
     2017.30851       -13.44093         5.44491
     2017.33145       -15.00419         8.60526
     2017.33205       -15.40703        38.22210
     2017.34280       -11.92034       124.31596
     2017.34428       -11.39497         6.57267
     2017.34702       -13.37529         6.84150
     2017.34976       -11.32760         7.02509
     2017.35250       -19.10692         6.44809
     2017.35524       -18.75923         7.05225
     2017.35797       -21.91955         6.81902
     2017.36071        -9.76186         7.00073
     2017.36345       -14.80517         6.89864
     2017.36619       -13.87849         6.74221
     2017.36893       -10.08080         7.47750
     2017.37166       -23.41612        18.02076
     2017.37440       -12.70143         7.31546
     2017.37713       -11.81875         7.12719
     2017.37987       -16.56806         7.01947
     2017.38261       -10.41638         4.99999
     2017.38529        -9.47971         5.12738
     2017.38880       -13.25683       110.43533
     2017.39079        -3.58233        97.94191
     2017.39656       -20.50588        97.35086
     2017.39879        -6.31233       133.12168
     2017.40187       -51.19956       127.94466
     2017.41085         5.89669         8.98181
     2017.41253         1.74112         9.54194
     2017.42094        -5.03778         6.72160
     2017.42368       -11.45009         6.10527
     2017.42642        -0.75941         6.73846
     2017.42916        -3.84272         6.31790
     2017.43189        -3.37904         6.28792
     2017.43463        -1.48035         6.27949
     2017.43702         2.78725         7.80440
     2017.44663       -17.96635        11.33006
     2017.44832        -1.58392         4.96346
     2017.45191         0.15898         8.63149
     2017.45379         1.05545         5.11239
     2017.45653        -2.03487         5.20044
     2017.45927        -7.41018         4.96908
     2017.46201        -2.30750         4.95409
     2017.46475        -1.39081         5.02153
     2017.46748       -10.50013         5.27444
     2017.47022        -5.35144         4.97938
     2017.47296        -3.80476         4.98219
     2017.47570        -6.58307         4.96908
     2017.47843        -6.09138         4.94941
     2017.48117        -7.16270         4.94004
     2017.48391        -2.63701         5.06743
     2017.48665         7.17267         5.07961
     2017.48939        -8.75664         5.04214
     2017.49212        -5.59996         4.93161
     2017.49486        -3.55527         4.96627
     2017.49760        -5.05859         4.92412
     2017.50034        -2.22890         4.97657
     2017.50308         2.03479         4.95971
     2017.50581        -1.07853         5.00467
     2017.50855        -8.06384         4.97751
     2017.51129        -3.33416         5.02996
     2017.51403        -7.67747         5.04120
     2017.51676        -5.35879         4.96346
     2017.51950        -2.97910         4.96440
     2017.52224         2.09558         5.04495
     2017.52498        -1.60673         4.89040
     2017.52772        -1.02204         5.05713
     2017.53045        -8.87236         4.97283
     2017.53319        -5.38367         4.97095
     2017.53593         0.83101         5.05338
     2017.53867         0.49470         4.94285
     2017.54141         5.18638         4.88665
     2017.54414         2.91507         5.00561
     2017.54688        -0.91325         4.98781
     2017.54962        -5.66956         5.05994
     2017.55236        -4.54788         4.93161
     2017.55509         0.17581         4.91288
     2017.55783         0.41650         4.98126
     2017.56057        -0.83282         4.96814
     2017.56331        -0.47213         4.99812
     2017.56605        -2.16545         5.07867
     2017.56878        -3.31576         5.04870
     2017.57152         1.63892         4.98313
     2017.57426        -1.40939         4.95128
     2017.57700        -2.75371         5.01123
     2017.57974        -3.12802         4.92131
     2017.58247        -1.02133         4.95878
     2017.58521        -2.14565         4.88197
     2017.58795        -2.44896         5.00093
     2017.59069        -1.62728         5.04308
     2017.59342         0.46241         4.92225
     2017.59616        -1.52491         4.93536
     2017.59890         0.31278         4.92506
     2017.60164         0.38646         4.97751
     2017.60438        -1.88985         5.07399
     2017.60711        -8.71417         5.01779
     2017.60985        -0.52048         5.20981
     2017.61259         0.09121         5.09178
     2017.61533         1.26489         5.05900
     2017.61807         6.29358         5.02715
     2017.62080         0.86026         4.96814
     2017.62354        -1.64805         4.97189
     2017.62628        -1.25837         5.13487
     2017.62902         2.12132         5.16578
     2017.63175        -1.92500         4.96533
     2017.63449        -0.36431         4.93911
     2017.63723        -0.29162         4.92506
     2017.63997        -1.51294         4.99624
     2017.64271         4.39975         5.00467
     2017.64544        -0.33157         4.92693
     2017.64818         3.09512         5.01404
     2017.65092        -5.07820         4.96721
     2017.65366         0.55649         4.92880
     2017.65639         3.57217         4.93068
     2017.65913         4.90186         4.92131
     2017.66187        -2.17846         5.08429
     2017.66461         6.49523         5.04870
     2017.66735         3.77492         5.03090
     2017.67008         5.99960         4.91194
     2017.67282         4.34429         5.03371
     2017.67556         2.13097         4.89976
     2017.67830         2.12966         4.92131
     2017.68104         5.36434         4.94847
     2017.68377         4.94003         5.20981
     2017.68651         5.62971         5.17140
     2017.68925         6.66140         4.93723
     2017.69199        -1.58891         5.04027
     2017.69472         4.16277         4.95597
     2017.69746         4.68246         4.98594
     2017.70020         6.68914         5.04682
     2017.70294         5.49083         5.12363
     2017.70568         3.91251         5.01029
     2017.70841         6.26320         4.94379
     2017.71115         1.33288         5.02153
     2017.71389        -2.32543         5.35874
     2017.71663         1.24925         4.97189
     2017.71937         6.11294         5.12082
     2017.72210         5.38463         4.94847
     2017.72484         1.42331         4.93442
     2017.72758         3.94400         4.93255
     2017.73032         2.97568         4.91475
     2017.73305         3.57237         4.94098
     2017.73579         0.21305         4.93349
     2017.73853         3.44074         4.95409
     2017.74127         3.74542         4.99437
     2017.74401         3.52711         4.95690
     2017.74674         3.23080         4.92880
     2017.74948        -0.35552         4.96627
     2017.75222         3.41017         4.99718
     2017.75496         3.16285         4.97376
     2017.75770         2.05054         5.06743
     2017.76043        -1.52378         4.92693
     2017.76317         5.38591         4.93068
     2017.76591         0.38659         5.05806
     2017.76865         5.44628         4.98219
     2017.77138         0.80896         4.98969
     2017.77412         3.91065         4.97938
     2017.77686        -0.74766         5.02715
     2017.77960         2.36102         5.00748
     2017.78234        -2.52929         4.95690
     2017.78507        -0.33261         4.94566
     2017.78781        -2.23092         4.95316
     2017.79055        -0.54924         4.99343
     2017.79329        -2.04055         4.99531
     2017.79603         6.17913         4.98407
     2017.79876        10.39182         5.07118
     2017.80150         4.44851         5.11707
     2017.80424         0.04319         5.02622
     2017.80698         9.25888         5.14236
     2017.80971         1.91556         4.97376
     2017.81245        -2.18475         4.96065
     2017.81519         2.87693         5.00093
     2017.81793        -2.05638         5.01029
     2017.82067        -1.12870         5.05994
     2017.82340         2.89599         4.96908
     2017.82614         0.18667         4.93161
     2017.82888        -1.27264         4.92412
     2017.83162         1.44905         4.94473
     2017.83436        -1.58627         5.03371
     2017.83709         3.07442         5.13206
     2017.83983        -6.18190         4.96721
     2017.84257        -2.63621         4.91756
     2017.84531        -4.49053         4.95690
     2017.84804        -9.35684         4.98500
     2017.85078        -3.37416         4.99062
     2017.85352        -0.85347         5.04682
     2017.85626         8.05322         5.08804
     2017.85900         4.46190         5.07773
     2017.86173         0.79859         5.03746
     2017.86447        -0.54573         4.99156
     2017.86721         6.31696         4.99624
     2017.86995         0.71664         4.95690
     2017.87269         8.44133         5.01404
     2017.87542         1.63801         4.97376
     2017.87816         1.87170         4.94941
     2017.88090         0.45638         4.92318
     2017.88364        -3.48993         4.92318
     2017.88637         9.17976         4.96627
     2017.88911        12.24244         4.99250
     2017.89185         9.39813         5.11145
     2017.89459         7.15381         5.21074
     2017.89733         7.85950         4.98500
     2017.90006        -2.29782         4.93255
     2017.90280         2.99487         4.97376
     2017.90554         6.26855         5.01685
     2017.90828         2.23924         4.93536
     2017.91102         0.32693         5.04401
     2017.91375        -2.73939         5.01966
     2017.91649        -1.70470         4.89227
     2017.91923         6.31198         4.92412
     2017.92197         3.68867         4.95316
     2017.92470        -2.52665         4.93068
     2017.92744        -6.98296         4.97938
     2017.93018        -7.15328         4.92318
     2017.93292        -4.77359         4.93068
     2017.93566        -3.48691         4.95971
     2017.93839        -1.48322         4.95597
     2017.94113        -4.91253         4.95222
     2017.94387        -2.49385         4.93630
     2017.94661        -2.06316         4.95222
     2017.94935         0.61352         4.92880
     2017.95208        -0.54979         5.07024
     2017.95482         0.01689         5.00842
     2017.95756        -1.29642         4.93911
     2017.96030         2.57426         4.95409
     2017.96303        -2.72605         4.99156
     2017.96577         7.36064         5.17421
     2017.96851         0.50432         4.92318
     2017.97125        -4.05199         4.96908
     2017.97399        -3.04431         4.95222
     2017.97672        -6.22862         4.93536
     2017.97946        -1.54794         4.95878
     2017.98220        -6.57925         4.96908
     2017.98494        -6.68257         4.89789
     2017.98767       -11.40988         4.96814
     2017.99041        -5.95920         5.00280
     2017.99315         3.50949         5.29130
     2017.99589        -0.63682         5.17515
     2017.99863        -2.12014         4.90632
     2018.00136       -10.24745         4.89602
     2018.00410       -10.87977         4.89227
     2018.00684        -9.87508         4.91194
     2018.00958        -5.69740         4.88290
     2018.01232        -5.84571         4.93255
     2018.01505         0.03397         5.02903
     2018.01779         0.71366         4.96533
     2018.02053        -0.07265         4.95878
     2018.02327         2.68103         4.90632
     2018.02600        -1.13128         4.90726
     2018.02874         6.48040         4.99999
     2018.03148       -11.66191         5.03652
     2018.03422       -10.60523         4.89695
     2018.03696        -7.92354         4.90726
     2018.03969        -7.42186         4.92974
     2018.04243       -11.06617         4.96908
     2018.04517        -7.63448         4.96440
     2018.04791        -2.84680         4.90726
     2018.05065        -3.97811         4.90351
     2018.05338        -2.66443         4.88290
     2018.05612        -3.78574         4.99343
     2018.05886        -8.47306         4.92506
     2018.06160         0.21263         4.90726
     2018.06433        -0.33869         5.09085
     2018.06707         0.62700         5.01685
     2018.06981       -15.02532         5.01404
     2018.07255       -10.24463         5.07492
     2018.07529       -17.68594         5.02528
     2018.07802        -7.71126         5.07024
     2018.08076         7.47143         5.11520
     2018.08350        -6.58789         4.98875
     2018.08624        -5.70920         5.03933
     2018.08898        -5.23452         5.14611
     2018.09171        -8.41683         5.10490
     2018.09445        -7.05715         5.03558
     2018.09719        -9.28846         5.11988
     2018.09993        -5.12077         5.01029
     2018.10266        -6.14009         5.01310
     2018.10540        -9.14040         5.12082
     2018.10814        -4.98972         5.01498
     2018.11088        -4.73203         5.00374
     2018.11362        -2.86935         5.02341
     2018.11635        -5.48866         4.98313
     2018.11909        -9.02898         5.09928
     2018.12183        -6.02629         5.11988
     2018.12457        -3.32661         4.99156
     2018.12713       -11.48896         5.31565
     2018.18480         8.99148         5.18452
     2018.18754        -3.92284         5.00280
     2018.19028        -6.86515         4.99531
     2018.19301        -3.71547         4.99812
     2018.19575        -0.13878         5.01310
     2018.19849         0.31290         4.97845
     2018.20123         4.76659         5.07586
     2018.20397         0.92427         4.97657
     2018.20670         0.39396         4.95222
     2018.20944        -0.66535         4.98407
     2018.21218        -4.91867         4.97095
     2018.21492       -15.47398         4.97095
     2018.21765        -3.10830         4.95409
     2018.22039        -1.15561         4.96346
     2018.22313        -1.49593         4.93536
     2018.22587        -5.94424         4.89976
     2018.22861        -7.47856         4.90726
     2018.23134        -7.18687         4.97095
     2018.23408       -10.63619         4.92225
     2018.23682       -11.06550         4.89414
     2018.23944        -7.86984         5.16672
     2018.24230        -7.49013         4.90070
     2018.24503        -2.78544         4.90820
     2018.24777        -4.04676         4.94285
     2018.25051        -3.26307         4.89976
     2018.25325       -10.16939         4.89227
     2018.25598        -3.67670         4.87916
     2018.25872        -5.94602         5.00748
     2018.26146        -7.85733         5.04308
     2018.26420        -0.23164         5.31846
     2018.26694        -3.30296         4.97751
     2018.26967       -10.76627         4.85949
     2018.27241        -3.77559         4.89321
     2018.27515         0.45810         4.89883
     2018.27789         3.79878         5.01404
     2018.28062        -7.88353         4.99062
     2018.28336        -5.35885         4.90726
     2018.28610        -4.15816         4.85012
     2018.28884         0.99452         4.88852
     2018.29158        -5.93879         4.98219
     2018.29431        -7.29710         4.95316
     2018.29705        -6.41142         4.85387
     2018.29979        -8.28573         4.84825
     2018.30253        -7.26905         4.92693
     2018.30527        -3.58536         4.83982
     2018.30800        -5.53468         4.83045
     2018.31074        -7.79899         4.85106
     2018.31348        -3.38131         4.87728
     2018.31622        -6.41662         4.87260
     2018.31895         1.28907         5.00186
     2018.32169        -1.64025         4.84356
     2018.32443        -5.03656         4.84075
     2018.32717        -8.28788         4.86042
     2018.32991        -5.62019         5.01591
     2018.33264        -1.73251         4.87541
     2018.33538        -4.91782         5.15173
     2018.33812        -7.39414         5.05432
     2018.34086        -6.40745         4.87541
     2018.34360        -8.05477         4.88946
     2018.34633        -6.26608         4.85199
     2018.34907        -0.68639         4.87916
     2018.35181         4.32529         4.87822
     2018.35455         0.50798         4.87541
     2018.35728        -2.19434         4.86230
     2018.36002        -1.38265         4.89133
     2018.36276         0.91203         4.91194
     2018.36550        -2.34328         4.86136
     2018.36824        -1.79360         4.87541
     2018.37099        -0.13891         4.94660
     2018.37371        -2.73622         4.90445
     2018.37645        -2.21854         5.02434
     2018.37919         2.15515         4.89133
     2018.38193         1.71983         4.93442
     2018.38466         1.06452         4.85855
     2018.38740         0.37820         4.92037
     2018.39014         3.79889         4.88009
     2018.39288        -1.16843         4.88384
     2018.39561         1.76126         4.91944
     2018.39835         1.29494         4.94379
     2018.40109        -0.74637         4.88478
     2018.40383        -4.15068         4.90445
     2018.40657         3.46600         4.90726
     2018.40930        10.63169         5.01498
     2018.41204         4.48837         4.94473
     2018.41478        -0.22694         4.89508
     2018.42299         6.01011         4.93911
     2018.42573         6.54080         4.88009
     2018.42847         2.40749         4.92880
     2018.43121         2.03317         5.00186
     2018.43394        -6.49314         4.97751
     2018.43668        -1.79446         5.00280
     2018.43942        -5.67877         4.94285
     2018.44216         1.29391         4.89789
     2018.44490        -1.36240         4.89414
     2018.44763         2.87028         4.97845
     2018.45037        -1.15303         4.88852
     2018.45311        -0.37435         4.88290
     2018.45585         3.87934         4.88665
     2018.45859         7.99203         4.88290
     2018.46132        -5.45629         4.93068
     2018.46406        -2.79560         4.91756
     2018.46680         0.54808         4.95971
     2018.46954         1.13477         4.95035
     2018.47227         1.83045         5.09553
     2018.47501         2.49114         4.91663
     2018.47775         0.57982         4.93068
     2018.48049        -1.67949         5.04682
     2018.48323        -3.40980         4.89414
     2018.48596         1.42588         4.89321
     2018.48870         3.84157         4.91663
     2018.49144        -3.58575         4.90445
     2018.49418         0.67694         5.01029
     2018.49692         1.68962         5.00748
     2018.49965         5.73331         4.88197
     2018.50239        -1.46901         4.90726
     2018.50513        -2.44232         4.94754
     2018.50787        -0.72263         5.01685
     2018.51060        -4.85295         5.12082
     2018.51334        -2.75026         4.97189
     2018.51608        -1.53958         4.91756
     2018.51882         1.53911         4.97938
     2018.52156         2.24079         5.03277
     2018.52429         0.06248         4.92974
     2018.52703         0.70616         4.92225
     2018.52977        -3.78515         4.88103
     2018.53251         1.13253         4.92599
     2018.53525         7.07422         4.94379
     2018.53798         1.48191         5.06556
     2018.54072         2.79459         4.95878
     2018.54346        -2.78872         4.90351
     2018.54620         1.54796         4.88103
     2018.54893         0.86465         4.85761
     2018.55167         0.49133         4.91475
     2018.55441        -3.30098         4.92599
     2018.55715        -0.71230         5.02809
     2018.55989         3.09439         5.09647
     2018.56262         1.29208         4.91007
     2018.56536         2.35076         4.93161
     2018.56810         1.77945         4.94285
     2018.57084        -0.93587         4.95128
     2018.57357        -1.29918         5.02060
     2018.57631        -2.71550         5.07305
     2018.57905        -0.08481         5.11707
     2018.58179         8.77787         5.06368
     2018.58453         4.83856         5.07961
     2018.58726        -2.72976         5.02060
     2018.59000         3.03593         4.94004
     2018.59274         4.54462         4.95035
     2018.59548         5.59330         4.93911
     2018.59822         1.93599         4.96252
     2018.60095         5.96267         4.94566
     2018.60369         8.53736         4.93161
     2018.60643         7.21704         5.05806
     2018.60917         6.02673         4.96814
     2018.61190         2.41341         4.88197
     2018.61464         2.81010         4.94285
     2018.61738         6.75879         4.94941
     2018.62012         5.70647         4.89321
     2018.62286        19.31616         5.11239
     2018.62559         7.76384         5.16672
     2018.62833         0.68653         4.93161
     2018.63107         5.98221         4.92131
     2018.63381         5.28990         5.06275
     2018.63655        -0.07642         4.90351
     2018.63928         4.71127         5.09553
     2018.64202         4.66395         5.09740
     2018.64487         3.22367         5.24634
     2018.64750         5.37733         4.92787
     2018.65023         7.12501         4.94285
     2018.65297         9.76770         4.92787
     2018.65582         3.25641         5.15548
     2018.65845         4.48307         4.94754
     2018.66119         9.93975         5.12082
     2018.66392         4.41844         4.91756
     2018.66666         7.85612         4.93442
     2018.66940         3.42781         4.94660
     2018.67214         3.22850         4.91007
     2018.67488         4.28018         4.96908
     2018.67761         3.51987         4.96065
     2018.68035         2.75755         4.96814
     2018.68309        -0.29276         5.02715
     2018.68583         0.34192         4.96346
     2018.68856         3.68161         4.89133
     2018.69130        -0.48771         4.95597
     2018.69404         5.18498         5.05619
     2018.69678         4.55366         4.94941
     2018.69952         1.56235         4.90351
     2018.70225         2.91204         5.03933
     2018.70499         2.17072         4.92880
     2018.70773         4.27941         4.93911
     2018.71047         0.07009         4.94847
     2018.71321         1.45278         4.92787
     2018.71594         3.04346         4.93349
     2018.71868        -3.85185         4.97470
     2018.72142        -2.82517         4.94754
     2018.72416        -1.91348         5.21074
     2018.72689         1.87521         4.88946
     2018.72963         0.68189         4.92787
     2018.73237        -1.33742         4.95690
     2018.73511        -3.31274         4.95035
     2018.73785         1.22295         4.88197
     2018.74058        -2.46437         4.91475
     2018.74332         5.84532         4.87354
     2018.74606         6.35300         4.91663
     2018.74880        -2.72631         4.91101
     2018.75154        -6.91763         4.98875
     2018.75427         3.61806         5.02996
     2018.75701         4.53075         5.08335
     2018.75975         0.65343         4.90820
     2018.76249         4.99312         4.91663
     2018.76522        -2.08020         5.02809
     2018.76796         3.48149         4.92318
     2018.77070         8.47917         5.10115
     2018.77344         3.81586         4.93161
     2018.77618         3.33854         4.93068
     2018.77891         4.81423         4.95128
     2018.78165         2.30292         5.01404
     2018.78439         3.64460         4.89602
     2018.78713         1.05129         4.88384
     2018.78987        -6.12903         4.98313
     2018.79260        -0.25834         4.91288
     2018.79534         6.31834         4.91288
     2018.79808        -2.20197         4.88290
     2018.80082         2.81971         4.88290
     2018.80355         2.26640         4.91288
     2018.80629         4.15908         5.02715
     2018.80903         1.38677         4.94192
     2018.81177         2.26246         5.20700
     2018.81451         4.18914         5.07773
     2018.81724         8.88383         5.02153
     2018.81998         5.70851         4.95503
     2018.82272        18.95120         5.04589
     2018.82546         3.20288         4.93723
     2018.82820        -0.69243         4.93817
     2018.83093        -2.96275         4.92787
     2018.83367        -1.57206         4.96440
     2018.83641         4.35363         5.17609
     2018.83915         0.13931         4.92318
     2018.84188        -4.77400         5.21262
     2018.84462        -1.83432         4.95316
     2018.84736        -4.95563         4.88665
     2018.85010         2.82705         4.92318
     2018.85284        -2.53626         4.89695
     2018.85557        -6.19458         4.91756
     2018.85831        -2.13089         5.00186
     2018.86105        -0.58421         4.95503
     2018.86379        -1.31352         4.99062
     2018.86653         1.79817         4.95222
     2018.86926        -6.50215         4.94285
     2018.87200        -1.18346         4.93161
     2018.87474         1.20522         4.95503
     2018.87748         0.89891         4.96908
     2018.88022         1.18059         4.96159
     2018.88295         3.06728         4.96159
     2018.88569         3.20696         4.95503
     2018.88843         8.04565         5.16859
     2018.89117         9.03634         5.08616
     2018.89390         3.43402         5.09459
     2018.89664         1.67671         5.17702
     2018.89938        -0.28261         5.00936
     2018.90212        -0.15692         5.03090
     2018.90485        11.03476         5.06649
     2018.90759         1.55945         5.02247
     2018.91033         6.29013         5.00748
     2018.91307        12.40382         5.18545
     2018.91581         4.62150         5.10958
     2018.91855         7.99219         4.95222
     2018.92128         2.63588         4.93349
     2018.92402         2.54156         4.95409
     2018.92676         5.13825         5.00280
     2018.92950         5.74893         5.19107
     2018.93223         1.88162         5.28474
     2018.93497         2.03530         5.00186
     2018.93771         0.48699         5.09272
     2018.94045         6.26067         4.98313
     2018.94318         6.46036         4.94285
     2018.94592         3.50805         5.11239
     2018.94866         2.18373         5.03558
     2018.95140        11.27842         5.28849
     2018.95414         7.90310         4.97095
     2018.95688         5.92179         4.96440
     2018.95961        10.20447         4.96533
     2018.96235        10.32816         5.11426
     2018.96509         2.63284         5.03184
     2018.96783         1.59753         4.95784
     2018.97056         6.24322         4.98594
     2018.97330        -0.58510         4.95971
     2018.97604        11.40159         5.20231
     2018.97878         5.28327         4.97283
     2018.98151         0.86796         4.96533
     2018.98425         3.15464         5.13019
     2018.98699        -6.82967         5.07211
     2018.98973        -3.86099         5.02060
     2018.99247        -2.50730         5.02060
     2018.99521        -1.23461         5.09178
     2018.99794        -8.44793         5.01217
     2019.00068       -12.00524         4.98032
     2019.00342        -7.12556         5.02153
     2019.00616        -2.52087         5.02528
     2019.00889         3.30981         5.00936
     2019.01163        -1.20150         4.94847
     2019.01437         0.79818         4.97657
     2019.01711         6.88087         4.96627
     2019.01984        -4.29145         5.03090
     2019.02258        -0.88976         4.96252
     2019.02532        -4.76507         5.06743
     2019.02806        -4.40539         5.11239
     2019.03080        -5.15270         5.00186
     2019.03354        -4.68102         4.93911
     2019.03627        -5.98533         4.95597
     2019.03901         1.58635         4.98313
     2019.04175        -5.75196         4.95971
     2019.04449         3.07972         5.00374
     2019.04722        -5.82359         5.08148
     2019.04996        -2.16191         5.13581
     2019.05270        -1.61022         5.17983
     2019.05544        -2.65053         5.06087
     2019.05817        -7.53185         5.10302
     2019.06091        -0.25716         5.16484
     2019.06365        -3.30448         5.01685
     2019.06639        -2.60179         5.02434
     2019.06913        -2.73711         5.11145
     2019.07187        -2.48742         5.06275
     2019.07460        -3.34874         4.97002
     2019.07734         1.45095         4.97564
     2019.08008         1.45564         4.96721
     2019.08282        -1.82968         5.08804
     2019.08555         1.20301         4.95878
     2019.08829         0.87369         4.95503
     2019.09103         5.33438         4.98219
     2019.09377         5.82406         4.95878
     2019.09650         8.10975         4.95128
     2019.09924         0.82643         4.94473
     2019.10198        -3.35788         4.96721
     2019.10472         0.17080         4.96721
     2019.10746        -2.49251         4.95503
     2019.11020         0.30118         4.93442
     2019.11293         9.29486         5.09740
     2019.11567        15.03355         5.24540
     2019.11841        14.43623         4.96252
     2019.12115        15.23492         5.13674
     2019.12388         9.97360         5.07305
     2019.12662         1.91729         4.96252
     2019.12936        -0.52402         4.97938
     2019.13210        -0.20234         5.00093
     2019.13483        -3.43665         4.99437
     2019.13757        -1.08697         5.12269
     2019.14031         2.18272         4.95128
     2019.14305        -3.20260         4.97376
     2019.14579        -7.54291         4.96721
     2019.14853         4.99477         4.88290
     2019.15126        -2.28554         4.99156
     2019.15400       -15.07986         4.99812
     2019.15674        -6.39517         4.97376
     2019.15948        -9.54749         4.95128
     2019.16221       -11.34280         5.08523
     2019.16495        -6.36511         4.87728
     2019.16769       -11.60243         4.86042
     2019.17043        -7.79674         4.97189
     2019.17316        -6.27906         4.96065
     2019.17590        -4.25737         4.93911
     2019.17864        -0.80069         4.94004
     2019.18138        -1.25500         4.93817
     2019.18412       -13.50632         4.91569
     2019.18686        -7.84063         4.94566
     2019.18959        -7.75894         4.91944
     2019.19233        -2.71226         4.97470
     2019.19507        -7.27957         4.93442
     2019.19780       -10.19889         4.92318
     2019.20054       -10.08720         4.99437
     2019.20328       -12.12952         4.90913
     2019.20602       -10.23583         4.89695
     2019.20876       -12.40415         4.90820
     2019.21149       -11.32546         4.92880
     2019.21423        -7.37078         4.91382
     2019.21697        -7.72709         4.91194
     2019.21971        -9.28240         5.12363
     2019.22245        -9.15072         4.89602
     2019.22519        -7.93203         4.89789
     2019.22792        -4.59735         4.90632
     2019.23066        -8.59066         4.91569
     2019.23340        -1.55098         4.92037
     2019.23613        -7.20629         4.92412
     2019.23887       -10.89461         4.91850
     2019.24161       -11.31592         5.02060
     2019.24435        -8.51023         4.98219
     2019.24709        -6.56855         4.99999
     2019.24982        -3.18386         4.92599
     2019.25256        -7.69918         5.02153
     2019.25530       -10.15049         4.94566
     2019.25804        -7.89681         4.96908
     2019.26078        -0.03212         4.99250
     2019.26352         3.19557         5.09553
     2019.26625        -2.53775         4.91101
     2019.26899        -6.40107         5.00374
     2019.27173        -9.64338         5.10302
     2019.27446       -10.96769         4.94192
     2019.27720        -8.49301         5.00748
     2019.27994        -3.47532         4.89976
     2019.28268        -7.46864         4.91101
     2019.28542        -2.32795         4.91756
     2019.28815        -4.30027         4.91944
     2019.29089        -6.23058         4.90820
     2019.29363        -6.15790         4.91101
     2019.29637        -3.20521         5.02622
     2019.29911        -1.29352         4.92974
     2019.30185        -2.93484         4.93723
     2019.30458       -11.17615         4.92974
     2019.30732        -7.01147         4.91475
     2019.31006        -4.49578         5.04214
     2019.31279        -9.15810         4.99250
     2019.31553         0.21159         4.87822
     2019.31827        -3.44073         4.91194
     2019.32101        -6.04004         4.92599
     2019.32375       -14.84236         4.89883
     2019.32648       -10.11267         4.89883
     2019.32922        -8.92898         4.87260
     2019.33196        -8.62430         4.98781
     2019.33470        -4.33961         5.04027
     2019.33744        -3.63093         4.91288
     2019.34018        -5.89724         4.93630
     2019.34290        -3.91656         4.91288
     2019.34565        -4.76087         5.00467
     2019.34839       -12.38119         4.97002
     2019.35112        -5.53650         4.91475
     2019.35386        -6.99581         4.91569
     2019.35660        -5.71413         4.89133
     2019.35934        -3.80644         4.91194
     2019.36208        -1.93376         4.98126
     2019.36481        -1.66007         4.94566
     2019.36755        -2.59839         4.91850
     2019.37029        -0.32470         4.96346
     2019.37303        -0.57902         4.95035
     2019.37577        -3.75233         5.08429
     2019.37851        -2.72464         4.93349
     2019.38124         2.17804         4.96346
     2019.38398         0.83773         4.89602
     2019.38672        -4.15759         4.92693
     2019.38945        -9.15290         4.95690
     2019.39219         0.51678         5.05713
     2019.39493        -4.07953         4.95128
     2019.39767        -0.07085         4.94941
     2019.40041        -3.43616         4.91007
     2019.40314        -3.12848         5.02060
     2019.40588        -2.07179         4.96159
     2019.40862        -3.29310         4.94660
     2019.41136        -1.18242         4.93068
     2019.41410        -3.57273         5.00467
     2019.41684        -5.04205         5.00280
     2019.41957        -2.81936         4.98875
     2019.42231        -6.10868         4.94660
     2019.42505        -5.94699         5.00842
     2019.42778        -6.07231         5.13955
     2019.43052        -0.90262         4.91382
     2019.43326        -8.43694         4.97938
     2019.43600       -11.54625         4.93817
     2019.43874        -8.13956         4.98126
     2019.44147        -8.49188         4.99156
     2019.44421        -4.86619         5.01966
     2019.44695        -2.63651         5.06181
     2019.44969        -1.36582         5.04495
     2019.45243        -0.76314         4.97845
     2019.45517         0.61855         5.00093
     2019.45790        -6.20877         4.99624
     2019.46064        -9.82808         5.07867
     2019.46338        -9.08039         5.29973
     2019.46611        -2.84271         5.24540
     2019.46885         0.49298         5.23135
     2019.47159        -0.85634         4.98781
     2019.47433        -1.05765         5.03558
     2019.47707        -2.12597         5.02153
     2019.47980        -3.97828         5.04870
     2019.48254        -5.47860         5.05338
     2019.48528        -1.65491         5.06743
     2019.48802        -6.71622         5.03465
     2019.49076        -8.24454         4.98688
     2019.49350        -3.87285         5.00186
     2019.49623        -2.41317         5.04682
     2019.49897        -2.03048         4.98594
     2019.50142        -0.46987         5.89545
     2019.51933         9.30962        16.28041
     2019.52087        -3.37800         5.08804
     2019.52361        -4.35431         5.03277
     2019.52635        -7.93063         5.10302
     2019.52908        -2.25994         5.24727
     2019.53182        -8.68826         5.13674
     2019.53456        -7.89357         5.12738
     2019.53730        -4.86089         5.11333
     2019.54004         2.30180         5.21074
     2019.54277         3.74049         5.28193
     2019.54551        -3.28483         5.28568
     2019.54825        -0.95014         4.99062
     2019.55099        -3.11346         5.04589
     2019.55373        -1.30377         5.63599
     2019.55646         2.72491         5.25196
     2019.55920        -8.53340         5.40838
     2019.56194         4.32328         7.80534
     2019.56468        -9.19503         5.21074
     2019.56741       -10.82535         5.15454
     2019.57015        -4.86466         5.09085
     2019.57289        -2.26097         5.21636
     2019.57563         1.42571         5.06275
     2019.57837        -2.99460         5.08991
     2019.58110         0.96308         5.04963
     2019.58384         5.40977         5.32033
     2019.58658         4.38245         5.09834
     2019.58932         3.35214         5.00186
     2019.59206        -0.18418         5.11520
     2019.59479        -1.25149         5.04870
     2019.59753         4.96720         5.29785
     2019.60027         4.96088         5.30722
     2019.60301         0.40157         5.08897
     2019.60574         2.79825         5.39714
     2019.60848         2.00094         5.15922
     2019.61122        -3.17838         4.99531
     2019.61396        -2.13869         5.05525
     2019.61670         2.63599         4.99343
     2019.61943         0.47768         4.98126
     2019.62217         2.85236         5.11801
     2019.62491         7.13005         5.01966
     2019.62765         3.48974         4.97938
     2019.63039         2.31642         5.06930
     2019.63312        -2.98489         5.04401
     2019.63586         2.15979         5.24915
     2019.63860         3.73948         5.13862
     2020.89253         5.10644         5.13206
     2020.89527         7.53812         5.20325
     2020.89801         4.07081         5.21543
     2020.90006        13.09432         7.51965
     2020.91568         4.21923        18.69423
     2020.91718         0.10761         5.09085
     2020.91991         1.58329         5.12644
     2020.92168        -2.04026         9.91006
     2020.93765        25.65373       155.56918
     2020.93908        -4.84291         5.09928
     2020.94182        -1.30622         5.07399
     2020.94455        -0.64354         5.08710
     2020.94729        -4.00585         5.08616
     2020.95003        -2.08917         5.16672
     2020.95277       -10.11748         5.06930
     2020.95551        -2.87780         5.13487
     2020.95824        -3.99811         5.10302
     2020.96098         2.72958         5.17515
     2020.96372        -3.80874         5.09834
     2020.96646        -1.07805         5.24540
     2020.96919         1.53563         5.23416
     2020.97193        -5.27168         5.05338
     2020.97467         0.52800         5.16110
     2020.97741        -5.74131         5.11052
     2020.98015        -6.80163         5.25851
     2020.98288        -0.90794         5.21730
     2020.98562         2.27575         5.04589
     2020.98836         3.99043         4.99437
     2020.99110         4.35312         4.99531
     2020.99384         1.74580         4.98500
     2020.99657         5.94349         5.03371
     2020.99931         4.04617         5.06275
     2021.00205        -1.15414         4.98126
     2021.00479        14.58054         5.04308
     2021.00752        11.39323         5.12644
     2021.01026         4.21691         5.05432
     2021.01300         4.88760         5.04027
     2021.01574        10.45629         5.07305
     2021.01848         0.37897         4.97845
     2021.02121         0.47366         4.98969
     2021.02395        -0.17466         4.99718
     2021.02669        -3.19297         5.05713
     2021.02943        -3.77429         5.03652
     2021.03216         8.45240         5.05713
     2021.03450        17.79098         6.44716
     2021.04038         0.20246         5.10958
     2021.04312        -0.29986         5.06087
     2021.04585         1.27683         5.19107
     2021.04859        -0.16049         5.03090
     2021.05133        -1.87780         5.07305
     2021.05407         3.51288         5.28568
     2021.05681         4.26057         5.15829
     2021.05954        -4.42675         5.10490
     2021.06776         4.70331         5.02715
     2021.07049         1.79300         4.98875
     2021.07323         6.83968         5.10490
     2021.07597        -3.55063         5.05151
     2021.07871         0.68705         4.99718
     2021.08145         1.56574         5.09366
     2021.08418        -1.43058         5.06368
     2021.08692        -0.96589         5.01591
     2021.08966        -1.23121         5.06743
     2021.09240        -9.09952         5.01966
     2021.09514        -2.67283         5.14049
     2021.09787        -7.49015         5.23603
     2021.10061        -0.52446         5.10302
     2021.10335        -4.22178         5.10771
     2021.10609        -6.51909         5.02153
     2021.10882        -1.38141         5.00374
     2021.11156        -3.12972         5.02809
     2021.11430        -6.05904         5.01123
     2021.11704        -3.03135         5.05525
     2021.11978         2.05333         5.10115
     2021.12251        -4.24598         5.05806
     2021.12525         5.68771         5.18639
     2021.12799        -3.90161         5.11801
     2021.13073        -4.36592         5.01685
     2021.13347        -8.17324         5.10115
     2021.13620        -5.00455         5.16953
     2021.13894        -0.42187         5.00655
     2021.14168        -7.16918         5.01966
     2021.14447        -7.46848         5.12457
     2021.14715        -7.07981         5.05900
     2021.14989        -4.33812         5.08804
     2021.15166        -8.17668        10.21073
     2021.18377        -4.57364        10.04588
     2021.18548        -7.98621         5.02622
     2021.18822        -4.24653         4.97283
     2021.19096        -9.92284        12.43441
     2021.19370        -6.07816         5.07492
     2021.19644        -7.06847         4.98969
     2021.19917       -10.62279         5.02341
     2021.20191        -4.35410         5.03465
     2021.20465        -0.49741         5.00561
     2021.20739        -3.85273         4.98969
     2021.21013         6.90996         5.17140
     2021.21286        -2.94436         5.09272
     2021.21560        -4.32967         4.99905
     2021.21834        -3.05499         5.00655
     2021.22108        -8.79530         5.01872
     2021.22381        -6.16462         5.04870
     2021.22655        -2.37093         5.00655
     2021.22929         3.83075         4.98500
     2021.23203         1.68544         4.93349
     2021.23477        -6.78087         4.99062
     2021.23750         2.88681         5.11520
     2021.24024        -2.40850         5.10677
     2021.24298        -2.81982         4.93630
     2021.24572        -6.47513         4.96533
     2021.25119        -2.99176         5.01779
     2021.25393        -1.41808         5.11895
     2021.25667        -4.68739         4.98500
     2021.25941         0.25530         5.01404
     2021.26214        -2.84302         4.99250
     2021.26488        -0.56833         5.05244
     2021.26762        -5.26265         5.14330
     2021.27036        -0.70996         5.05619
     2021.27310         0.60072         5.00186
     2021.27583        -1.97059         4.99343
     2021.27857        -3.64391         5.10021
     2021.28131        -1.20122         5.10490
     2021.28405        -3.99454         5.13393
     2021.28679        -0.23985         5.05713
     2021.28952         1.11584         5.07867
     2021.29226        -2.23548         5.18452
     2021.29500         5.43421         5.21355
     2021.29774         3.87589         5.29036
     2021.30047         0.03958         5.11239
     2021.30321         4.97826         5.13112
     2021.30595        10.18095         5.29879
     2021.30869         9.50063         5.25196
     2021.31143         4.12132         5.15267
     2021.31416         9.96501         5.07305
     2021.31690         4.31869         5.08054
     2021.31964         4.71138         5.16297
     2021.32238        -0.73994         5.27163
     2021.32512        -5.27825         5.10115
     2021.32785        -1.03157         5.17234
     2021.33059         1.92212         5.20700
     2021.33333         6.32080         5.08054
     2021.33607        -1.88151         5.16578
     2021.33880        -0.20983         5.00280
     2021.34154         2.19286         5.08616
     2021.34428         1.86255         5.29598
     2021.34702        -1.71577         5.27912
     2021.34976        -3.84408         5.08616
     2021.35249        -4.38440         5.08335
     2021.35523        -3.48271         5.11426
     2021.35797        -3.26603         5.08148
     2021.36071        -2.11634         5.07024
     2021.36344        -6.23866         5.07773
     2021.36618       -11.25397         5.10677
     2021.36892        -7.52928         5.39620
     2021.37166        -2.08660         5.10302
     2021.37440        -2.41391         5.23322
     2021.37622        -5.42046         9.23846
     2021.37987        -4.33254         5.28474
     2021.38261        -2.13886         5.41213
     2021.38535        -2.87717         5.30816
     2021.38809        -3.19049         5.26320
     2021.39082         0.97220         5.14424
     2021.39356         0.53889         5.20044
     2021.39630        -2.50143         5.19669
     2021.39904        -1.79774         5.13674
     2021.40177        -1.55606         5.43742
     2021.40451        -1.90437         5.28380
     2021.40725        -3.90569         5.14798
     2021.40999         1.54300         5.12550
     2021.41273        -0.67032         5.13581
     2021.41546        -0.13563         5.23135
     2021.41820        -5.50195         5.16391
     2021.42094         2.37474         5.31378
     2021.42368         3.22343         5.23884
     2021.42642         5.23511         5.29973
     2021.42915         3.11380         5.27350
     2021.43189        11.51248         5.17421
     2021.43463        -1.76183         5.12269
     2021.43737         0.72285         5.14424
     2021.44010        -3.06846         5.22760
     2021.44284        -3.39978         5.23603
     2021.44558        -0.40209         5.38590
     2021.44832         1.48460         5.32970
     2021.45106         2.32728         5.42805
     2021.45379         6.08297         5.31846
     2021.45653        -2.29535         5.28661
     2021.45927         5.36234         5.18077
     2021.46201        -1.17098         5.24634
     2021.46475        -3.06029         5.11895
     2021.46748         0.31439         5.18639
     2021.47022         1.61408         5.23041
     2021.47296         8.39676         5.21730
     2021.47570         5.14145         5.28849
     2021.47843         1.50314         5.29130
     2021.48117        -2.26818         5.17890
     2021.48391         1.55551         5.11707
     2021.48665        -3.34781         5.14798
     2021.48939         3.51488         5.15922
     2021.49212        -5.72744         5.19201
     2021.49486         4.64925         5.24915
     2021.49760         3.71593         5.55919
     2021.50034         0.53562         5.28568
     2021.50308         5.01931         5.16578
     2021.50581        -2.07601         5.18358
     2021.50855        -3.99432         5.12082
     2021.51129         1.87136         5.15829
     2021.51403         4.01805         5.37841
     2021.51676         2.97073         5.25383
     2021.51950        -2.94358         5.28380
     2021.52224         0.35010         5.13019
     2021.52498         8.11579         5.11426
     2021.52772         4.71947         5.15173
     2021.53045         4.65316         5.14424
     2021.53319        -2.03515         5.19482
     2021.53593         4.84253         5.21355
     2021.53867         6.35922         5.47114
     2021.54141         2.69890         5.24727
     2021.54414        -8.18041         5.34188
     2021.54688        -1.15473         5.24821
     2021.54962        -3.80204         5.25196
     2021.55509         4.99933         5.18077
     2021.55783        -2.46298         5.33251
     2021.56057         3.34470         5.15735
     2021.56331         3.00839         5.15267
     2021.56605        -0.23293         5.19201
     2021.56878        -0.06924         5.14143
     2021.57152        -3.12056         5.33251
     2021.57426        -3.27887         5.18452
     2021.57700         0.62181         5.29879
     2021.57974        -4.56150         5.26132
     2021.58247        -8.43082         5.30160
     2021.58521         2.98687         5.36155
     2021.58795         2.28956         5.22667
     2021.59069        -1.19076         5.30441
     2021.59342        -5.09107         5.16203
     2021.59616         3.37961         5.24446
     2021.59890         1.35530         5.26788
     2021.60164         5.94598         5.41213
     2021.60438         0.48367         5.07305
     2021.60711         0.02235         5.08991
     2021.60985         0.91404         5.08710
     2021.61259         3.34773         5.13393
     2021.61533        -0.44559         5.07492
     2021.61807         0.51910         5.09272
     2021.62080         2.42478         5.09834
     2021.62354         0.88447         5.11707
     2021.62628         5.97315         5.31565
     2021.62902         6.35584         5.05619
     2021.63175         3.54952         5.19107
     2021.63449         2.51221         5.12269
     2021.63723         1.60589         5.31378
     2021.63997         3.30458         5.21168
     2021.64271         1.37027         5.25196
     2021.64544         3.55495         5.07586
     2021.64818         1.54764         5.16297
     2021.65092         1.86732         5.18733
     2021.65366         1.03801         5.12176
     2021.65639         0.47469         5.06462
     2021.65913        -0.73762         5.13112
     2021.66187         3.02606         5.10864
     2021.66461         1.76075         5.05057
     2021.66735         4.47144         5.06837
     2021.67008         2.17212         5.15454
     2021.67282         4.17481         5.24821
     2021.67556         3.71449         5.32033
     2021.67830         3.09018         5.24072
     2021.68104         5.81186         5.07680
     2021.68377         2.21155         5.14049
     2021.68651         8.71923         5.20325
     2021.68925         4.41992         5.09740
     2021.69199         4.55660         5.13862
     2021.69472         6.26129         5.06930
     2021.69746         0.85598         5.13768
     2021.70020        10.71966         5.10115
     2021.70294         2.50435         5.06743
     2021.70568         7.44303         5.20325
     2021.70841         2.08272         5.12925
     2021.71115         6.22440         5.15173
     2021.71389         4.35709         5.49362
     2021.71663         6.08977         5.28193
     2021.71937         1.27346         5.10209
     2021.72210        -1.07885         5.06930
     2021.72484        -0.84617         5.15267
     2021.72758         0.17052         5.12176
     2021.73032        -1.28780         5.35499
     2021.73305         7.59889         5.10864
     2021.73579        17.32157         5.17983
     2021.73853        11.38926         5.13019
     2021.74127         8.46794         5.08616
     2021.74401         2.52163         5.09928
     2021.74674         5.69031         5.07867
     2021.74948         7.49400         5.26413
     2021.75222         6.29769         5.12644
     2021.75496         8.98237         5.14798
     2021.75770         3.50406         5.14049
     2021.76043        11.21574         5.13862
     2021.76317         5.71643         5.18358
     2021.76591         0.59811         5.10771
     2021.76865         5.94080         5.09178
     2021.77138         5.76148         5.10771
     2021.77412         5.38017         5.11801
     2021.77686         6.68786         5.17702
     2021.77960        11.20154         5.09928
     2021.78234         3.00023         5.09834
     2021.78507        10.10491         5.04870
     2021.78781         7.79660         5.09928
     2021.79009         4.41317         6.26825
     2021.79603         9.16265         5.13487
     2021.79876         4.30434         5.09178
     2021.80150        14.59102         5.31940
     2021.80424         5.64771         5.33626
     2021.80698        13.06440         5.11520
     2021.80971         3.95708         5.14798
     2021.81245        21.12677         5.42805
     2021.81519        12.55945         5.15360
     2021.81793         7.31514         5.11988
     2021.82067        -0.75718         5.33438
     2021.82340         8.66551         5.25383
     2021.82614         9.56119         5.27350
     2021.82888         9.36188         5.20512
     2021.83162         9.30257         5.16203
     2021.83436        11.07825         5.18452
     2021.83709         1.94994         5.22667
     2021.83983        -2.82738         5.25008
     2021.84240        12.57626         5.94791
     2021.84531         7.60799         5.24821
     2021.84804        12.29568         5.22854
     2021.85078         2.01136         5.16391
     2021.85352         0.03205         5.20138
     2021.85626         7.20374         5.34750
     2021.85900         1.61642         5.06087
     2021.86173         0.27511         5.21168
     2021.86447        -1.47121         5.33813
     2021.86721        -1.28852         5.33532
     2021.86995         6.04016         5.37372
     2021.87269         6.20385         5.27163
     2021.87542         4.96553         5.35499
     2021.87816        -2.14878         5.08991
     2021.88090         3.39690         5.16672
     2021.88364        -5.53741         5.26694
     2021.88637        -2.78872         5.10302
     2021.88911        -6.54304         5.07118
     2021.89185        -8.40235         5.10677
     2021.89459         6.43633         5.20325
     2021.89733        -4.53098         5.09553
     2021.90006        -3.51130         5.17328
     2021.90280         1.86539         5.24259
     2021.90554         0.93607         5.14705
     2021.90828         6.40676         5.19857
     2021.91102         6.33245         5.13206
     2021.91375         2.37213         5.11895
     2021.91649         0.35782         5.14705
     2021.91923         2.91750         5.23603
     2021.92197        -4.36781         5.37747
     2021.92470        -1.14613         5.20231
     2021.92744         5.48456         5.29598
     2021.93018        -1.01676         5.25477
     2021.93292         7.04093         5.35031
     2021.93566        -3.94739         5.41681
     2021.93839         7.89930         5.25570
     2021.94113        11.17899         5.38028
     2021.94387        18.96067         5.27631
     2021.94661         6.15236         5.19576
     2021.94935        10.51304         5.24072
     2021.95208         8.16073         5.14986
     2021.95482         7.35641         5.29411
     2021.95756         2.96610         5.31284
     2021.96030         1.77378         5.33532
     2021.96303         1.18447         5.32221
     2021.96577        13.13916         5.48332
     2021.96851         5.48584         5.30066
     2021.97125         6.90053         5.35780
     2021.97399         8.49921         5.31565
     2021.97672         9.82590         5.37185
     2021.97946        10.83158         5.35593
     2021.98220         8.71427         5.32502
     2021.98494         6.96395         5.31752
     2021.98767         8.52164         5.33345
     2021.99041        11.27532         5.19857
     2021.99315         6.81301         5.20606
     2021.99589         7.05270         5.16672
     2021.99863        -1.54162         5.17890
     2022.00136         3.91507         5.24821
     2022.00410         4.91375         5.30160
     2022.00684         2.92544         5.28193
     2022.00958        -0.69088         5.28661
     2022.01232        -8.51719         5.29411
     2022.01505         5.34949         5.35593
     2022.01779        11.75318         5.52172
     2022.02053        -0.84813         5.27725
     2022.02327        -5.19045         5.57136
     2022.02600       -10.75276         5.27163
     2022.02874        -5.10708         5.26788
     2022.03148        -8.48739         5.32689
     2022.03422        -3.91371         5.26413
     2022.03696        -6.71802         5.26413
     2022.03969       -12.78534         5.19950
     2022.04243        -2.64165         5.51516
     2022.04517        -3.56597         5.18264
     2022.04791        -3.71428         5.25477
     2022.05065        -0.40259         5.23510
     2022.05338        -9.54791         5.30909
     2022.05612       -12.79122         5.22573
     2022.05886       -12.10254         5.25570
     2022.06160       -14.34985         5.21074
     2022.06433        -1.93817         5.24727
     2022.06707        -9.02848         5.19014
     2022.06981        -1.71780         5.18826
     2022.07255       -13.54611         5.13487
     2022.07529        -4.15042         5.10490
     2022.07802        -2.50074         5.15267
     2022.08076         1.77795         5.21355
     2022.08350         1.53063         5.20512
     2022.08629        -1.67467         5.36436
     2022.08898        -3.39500         5.30628
     2022.09171        -6.26331         5.16859
     2022.09445        -7.86963         5.17234
     2022.09719        -9.85994         5.09553
     2022.09993        -8.84226         5.21636
     2022.10266       -10.56657         5.25102
     2022.10540        -5.41488         5.24259
     2022.10814         0.90080         5.19295
     2022.11088         0.74849         5.13112
     2022.11362        -0.84683         5.09178
     2022.11635         1.22486         5.24821
     2022.11909        -2.84146         5.17421
     2022.12183         9.62223         5.34843
     2022.13278        -5.31103         5.12269
     2022.13552        -3.68034         5.12925
     2022.13826         1.14634         5.12363
     2022.14099        -3.26297         5.10209
     2022.14373        -7.24229         5.13862
     2022.14647        -1.04360         5.09647
     2022.14921        -2.17192         5.37466
     2022.15195        -1.73223         5.37841
     2022.15468        -0.07455         5.11052
     2022.15742         1.19614         5.15735
     2022.16016         3.25183         5.28849
     2022.16290         8.49151         5.21824
     2022.16564        -0.21980         5.23041
     2022.16837        -3.91412         5.14049
     2022.17111        -6.28743         5.14705
     2022.17385         0.48625         5.18733
     2022.17659        -1.92206         5.13768
     2022.17932        -6.16438         5.15735
     2022.18206        -8.08369         5.13768
     2022.18480        -4.28900         5.09647
     2022.18754         1.41468         5.19857
     2022.19028        -4.45863         5.21355
     2022.19301         0.42505         5.18826
     2022.19575         4.14374         5.21074
     2022.19849        -4.00258         5.11988
     2022.20123         0.70311         5.27912
     2022.20397         1.10279         5.13768
     2022.20670        -2.66352         5.24727
     2022.20944         2.14316         5.25945
     2022.21218         4.05785         5.18358
     2022.21492        -3.02346         5.84675
     2022.21765        -3.82178         5.11239
     2022.22039        -6.36709         5.10864
     2022.22313        -5.87541         5.21262
     2022.22587        -1.18372         5.19857
     2022.22861        -2.36204         5.24821
     2022.23134         0.10865         5.21824
     2022.23408         2.54233         5.18452
     2022.23682         2.29702         5.28099
     2022.23956         1.76971         5.11988
     2022.24230         4.45639         5.15079
     2022.24503         3.85508         5.12176
     2022.24777         5.54976         5.16672
     2022.25051        -5.47355         5.16578
     2022.25336         1.27516         5.62569
     2022.25598        16.72882         5.37747
     2022.25872        -1.97350         5.25664
     2022.26146        -3.03681         5.18264
     2022.26420        -2.76513         5.16672
     2022.26694        -3.05644         5.25945
     2022.26967         0.79225         5.25008
     2022.27241         4.73593         5.17890
     2022.27515         5.00462         5.32221
     2022.27789         5.47230         5.14611
     2022.28062        -2.08401         5.19201
     2022.28336         0.48267         5.20700
     2022.28610         3.49236         5.26226
     2022.28884         0.55904         5.20887
     2022.29158        -8.59727         5.10864
     2022.29431        -1.92658         5.14143
     2022.29705        -4.37190         5.15173
     2022.29979         1.13579         5.16297
     2022.30253         4.99347         5.27350
     2022.30527        -2.50084         5.20887
     2022.30800        -4.63516         5.10958
     2022.31074        -4.05247         5.16953
     2022.31348        -2.76079         5.19014
     2022.31622        -4.10210         5.16297
     2022.31895       -19.51241         5.24446
     2022.32169        -0.42573         5.22573
     2022.32443        -5.04404         5.14424
     2022.32717        -6.72436         5.29036
     2022.32991        -3.83467         5.15829
     2022.33264       -10.30699         5.33345
     2022.33538        -6.71730         5.29223
     2022.33812        -3.41462         5.36810
     2022.34086         5.27907         5.21449
     2022.34360         8.46875         5.43555
     2022.34633         1.13744         5.28849
     2022.34907        -6.81187         5.14892
     2022.35181         1.57681         5.12831
     2022.35455        -4.15750         5.14705
     2022.35728        -5.98782         5.12082
     2022.36002        -3.93913         5.18639
     2022.36276         2.73755         5.19763
     2022.36550         3.72924         5.18264
     2022.36824        -1.76008         5.18452
     2022.37097       -11.28439         5.17515
     2022.37371        -7.05470         5.11333
     2022.37645        -3.40502         5.26320
     2022.37919        -5.97833         5.27163
     2022.38193       -10.24365         5.16391
     2022.38466        -8.74296         5.11988
     2022.38740       -15.73528         5.13487
     2022.39014        -7.27859         5.14236
     2022.39288        -8.33091         5.15454
     2022.39561        -8.27122         5.22479
     2022.39835        -0.08154         5.16578
     2022.40109        -8.42885         5.17140
     2022.40383        -2.67916         5.14705
     2022.40657        -2.27148         5.12925
     2022.40930       -10.23679         5.20981
     2022.41204        -3.35011         5.19482
     2022.41478        -3.17342         5.22854
     2022.41752        -9.25974         5.27818
     2022.42026         1.41095         5.25945
     2022.42299        -3.15837         5.10490
     2022.42573         3.82632         5.38028
     2022.42847        -1.42599         5.28849
     2022.43121        -2.27231         5.28287
     2022.43394         2.88938         5.27818
     2022.43668       -12.95194         5.28568
     2022.43942        -6.25325         5.18733
     2022.44216        -4.96157         5.24353
     2022.44490         1.88812         5.27350
     2022.44763         2.82280         5.07024
     2022.45037        -3.07351         5.05338
     2022.45311        -9.82383         5.12550
     2022.45585        -4.05214         5.11239
     2022.45859       -17.12245         5.08991
     2022.46132        -5.19577         5.06087
     2022.46406        -6.74708         5.05994
     2022.46680        -2.04540         5.00936
     2022.46954        -5.48471         5.14143
     2022.47227       -17.65903         5.08523
     2022.47501         0.34266         5.13300
     2022.47775        -4.51566         5.20325
     2022.48049        -6.79597         5.06368
     2022.48323         4.70572         5.06930
     2022.48596         8.71640         5.13955
     2022.48870        -2.51891         5.14892
     2022.49144        -4.90723         5.06462
     2022.49418         0.53846         5.16391
     2022.49692        -0.26686         5.06649
     2022.49965        -6.21617         5.15079
     2022.50239       -16.32549         5.26601
     2022.50513        -3.49280         5.42337
     2022.50787         3.78388         5.35218
     2022.51060        -1.82843         5.31846
     2022.51334        -1.48574         5.12831
     2022.51608        -9.30006         5.13768
     2022.51882        -5.60937         5.22854
     2022.52156        -7.65569         5.15735
     2022.52429        -2.53700         5.11145
     2022.52703         0.19068         5.14798
     2022.52977         5.66737         5.10583
     2022.53251        -1.95195         5.24727
     2022.53525        -4.26526         5.22573
     2022.53798        -5.29657         5.11614
     2022.54072        -9.72889         5.13674
     2022.54346        -2.10120         5.08991
     2022.54620        -3.86952         5.08335
     2022.54893         0.51617         5.32408
     2022.55167         2.96785         5.33064
     2022.55441         1.45854         5.07680
     2022.55715         3.75422         5.04120
     2022.55989        -4.73909         5.04682
     2022.56262        -3.23541         5.11520
     2022.56536       -13.09572         5.12363
     2022.56810        -4.59703         5.15173
     2022.57084        -5.88235         5.09366
     2022.57357         0.49434         5.21355
     2022.57631        -8.06298         5.17983
     2022.57905        -4.69129         5.21074
     2022.58179         4.00839         5.25008
     2022.58453         7.05208         5.28006
     2022.58726        -7.63624         5.34188
     2022.59000         3.12245         5.23697
     2022.59274        -7.79286         5.18639
     2022.59548        -3.79818         5.07492
     2022.59822       -10.75249         5.13862
     2022.60095       -10.19981         5.13674
     2022.60369        -1.28012         5.37279
     2022.60643         3.24756         5.32127
     2022.60917        -1.13175         5.17234
     2022.61190         3.55493         5.19014
     2022.61464         5.81462         5.29504
     2022.61738         2.17230         5.04120
     2022.62012        -5.76101         5.04963
     2022.62286        -0.26432         5.10302
     2022.62559        -0.73864         5.06181
     2022.62833         1.45205         5.04214
     2022.63107        -0.22427         5.07211
     2022.63381         4.90342         5.10677
     2022.63655         2.26410         5.15454
     2022.63928         5.78079         5.09366
     2022.64202         4.82847         5.50392
     2022.64476         8.10316         5.40370
     2022.64750         3.78385         5.11895
     2022.65023         4.90753         5.14611
     2022.65297         6.50322         5.25289
     2022.65571         7.77190         5.16484
     2022.65845         9.31759         5.06649
     2022.66119         5.82927         4.97938
     2022.66392         8.76696         5.14892
     2022.66666         7.96264         4.98313
     2022.66940         7.40633         5.02528
     2022.67214         2.45901         5.05994
     2022.67488         4.36670         5.01310
     2022.67761        11.45139         5.08148
     2022.68035         7.16307         5.07867
     2022.68309         5.17176         5.02153
     2022.68583         9.49444         5.24727
     2022.68856         8.95113         5.07492
     2022.69130         4.33381         5.16672
     2022.69404         4.90750         5.06087
     2022.69678         1.64418         5.16016
     2022.69952        -2.93813         5.22011
     2022.70225         5.63856         5.16578
     2022.70499         6.15324         5.18171
     2022.70773         7.02593         5.10490
     2022.71047         2.42561         4.98875
     2022.71321        11.89930         5.03465
     2022.71594        12.16598         5.07586
     2022.71868         7.10467         4.98594
     2022.72142        10.48735         4.97376
     2022.72416         1.36504         5.09834
     2022.72689         5.13072         5.10677
     2022.72963         7.60041         4.96159
     2022.73237         7.15210         5.00467
     2022.73511         4.51678         4.98126
     2022.73785         4.82247         5.01591
     2022.74058         4.99415         5.31659
     2022.74332        11.52684         5.31752
     2022.74606         7.05152         5.09647
     2022.74880         5.96221         5.08242
