# ================= DQRFIT RESULTS ================
# INPUT FILE: series/BOIL.rad
# OUTPUT: LDETRENDED
# FILTER FUNCTION: f(t)
# f(t)=+line(t)
# line(t)=+P 1+P 2*t
# heav(t)=(t<0?0:1)
# TOTAL OBSERVATIONS MTOT=  375
# INITIAL TIME INTERVAL= 2022.6804 - 2006.3628 = 16.3176
# TOTAL OBSERVATIONS AFTER PREFILTER M=  374
# TIME-SPAN=    0.0000 -    0.0000 =  0.0000
# OBSERVATIONS: USED M=   374 REJECTED MTOT-M=     1 %USED=   99.7333
# N=  2 PARAMETERS
# MAXSIG= 175.00000
# MAXRES=  16.08179
# SCALE FACTOR FOR LENGTHS: SCL=  10.00000
# SCALE FACTOR FOR SIGMAS: SCLSIG=   1.00000
# CHI^2=    383.559 DOF=   372 CHI^2/DOF=   1.03107
# RMS=      6.150 SDEV=      6.158 MEAN=    0.06272
#  P #       PARAMETER +-    SIGMA %error PARAMETER NAME
# P 1 =      -427.63717 +-  201.199  47.05 YZERO                              
# P 2 =         0.21468 +-    0.100  46.63 SLOPE                              
#       T            LDETRENDED       SIG_OBS
     2006.36277         4.52366         6.07118
     2006.36551        -7.30092         6.09758
     2006.36825         0.70749         6.12805
     2006.37098         1.01590         6.21436
     2006.37372        -0.02469         6.24888
     2006.37646         8.10372         6.09149
     2006.37920         5.32214         6.36667
     2006.38193         3.05055         6.28747
     2006.38467         5.75896         6.23670
     2006.38741         8.98437         6.31793
     2006.39015        16.08179         6.20420
     2006.39289         9.65520         6.25599
     2006.39562        -8.63239         6.83579
     2006.41205         2.83908         6.20928
     2006.41479         4.55150         6.28341
     2006.41715         7.44599         7.77099
     2006.91582         0.28294         6.10977
     2006.91855        -2.03865         6.24482
     2006.92129         0.59576         6.21233
     2006.92403        -0.21583         6.17374
     2006.92677         0.28859         6.15546
     2006.92951         0.96300         6.31285
     2006.93224         3.41141         6.22451
     2006.93498         1.89982         6.24177
     2006.93772         2.44624         6.26614
     2006.94046         5.52565         6.30067
     2006.94319        -0.50094         6.26817
     2006.94593         1.88347         6.27325
     2006.94867         8.21988         6.34332
     2006.95141        -0.27670         6.23060
     2006.95415         9.05871         6.41135
     2006.95688         9.60212         6.26107
     2006.95962         4.49553         6.26411
     2006.96236         4.43195         6.28442
     2006.96510         5.25636         6.37682
     2006.96784         6.74277         6.22451
     2006.97057         2.55418         6.21436
     2006.97331        -7.71841         6.27934
     2006.97605         4.62401         6.26817
     2006.97879         8.52242         6.38292
     2006.98152        -0.37517         6.30981
     2006.98426         5.52524         6.40322
     2006.98700        -1.78034         6.58295
     2006.98974        -0.95793         6.50883
     2006.99248        -7.17752         6.44283
     2006.99521        -1.09011         6.37987
     2006.99795        -1.19069         6.39104
     2007.00343         4.78313         6.39104
     2007.00616        -3.77046         6.35753
     2007.00890        -7.28805         6.34738
     2007.01164        -0.42363         6.28239
     2007.01438         1.52578         6.25700
     2007.01712       -10.53981         6.29051
     2007.01985        -3.95440         6.26513
     2007.02259        -5.16398         6.20014
     2007.02533        -4.80557         6.28950
     2007.02807        -2.64116         6.34230
     2007.03081        -4.27375         6.19303
     2007.03354        -7.53734         5.99503
     2007.03628        -6.54392         6.02549
     2007.03902        -8.18951         6.01534
     2007.04176        -7.86310         6.06915
     2007.04449        -7.00469         6.03361
     2007.04723       -11.16527         6.14835
     2007.04997        -6.04986         6.21639
     2007.05271        -3.13345         6.23162
     2007.05545        -0.86104         6.00924
     2007.05818        -6.31463         5.95543
     2007.06092        -7.89521         6.00417
     2007.06366        -4.04880         6.06103
     2007.06640        -3.86039         6.01229
     2007.06914        -2.24198         5.95238
     2007.07187         2.35244         5.89958
     2007.07461         1.73785         6.00823
     2007.07735        -1.45874         5.92293
     2007.08009         4.94467         6.00315
     2007.08282         1.35708         5.90770
     2007.60575         6.75982         6.12195
     2007.60849         3.88724         6.12500
     2007.61123         5.95565         6.08337
     2007.61397         0.62306         6.01026
     2007.61671        -2.72853         6.56671
     2007.61944        -2.32011         6.48040
     2007.62218         4.61230         6.37581
     2007.62492         3.41371         6.34230
     2007.62766         4.28312         6.38596
     2007.63039         2.22754         6.60123
     2007.63313        -1.37505         6.50680
     2007.63587         6.12436         6.28137
     2007.63861         0.22477         6.39815
     2007.64135         0.56218         6.17272
     2007.64408         2.28360         6.44283
     2007.64682        -3.24499         6.31184
     2007.64956         2.00642         6.43876
     2007.65230         1.14883         6.51289
     2007.65504         1.80825         6.32098
     2007.65777        -3.17634         6.39713
     2007.66051         4.57807         6.41541
     2007.66325        -3.13052         6.51492
     2007.66599         8.93989         6.54741
     2007.66872         8.92431         6.40627
     2007.67146        -4.05928         6.33519
     2007.67420        -0.79687         6.50578
     2007.67694         7.45954         6.38292
     2007.67968        -3.26604         6.29762
     2007.68241         3.32737         6.40322
     2007.68515         6.18478         6.45806
     2007.68789         1.37119         6.55655
     2007.69063         1.73560         6.30574
     2007.69337         0.30802         6.41338
     2007.69610        -1.05657         6.39713
     2007.69884         3.39684         6.35652
     2007.70158         2.12325         6.43166
     2007.70432        10.84967         6.62459
     2007.70705         5.15308         6.36058
     2007.70979         6.05149         6.44181
     2007.71253        12.44090         6.29051
     2007.71527        14.12531         6.32301
     2007.71801         5.25073         6.13820
     2007.72074         5.27114         6.20014
     2007.72348        10.36455         6.16257
     2007.72622         2.43596         6.07220
     2007.72896         6.28838         6.09555
     2007.73170         3.73379         6.20928
     2008.17523        -5.23343         6.22248
     2008.17797        -7.82201         6.01432
     2008.18070        -7.62360         5.97167
     2008.18344        -2.32519         6.10672
     2008.18618        -5.02378         6.05900
     2008.18892       -11.55937         6.02346
     2008.19165        -5.84595         6.05494
     2008.19439        -6.44354         5.99604
     2008.19713        -5.81713         6.20522
     2008.19987       -24.88772         6.24177
     2008.20261        -3.96130         6.01330
     2008.20534         0.21711         6.06306
     2008.20808        -4.76048         6.27934
     2008.21082         2.93193         6.18491
     2008.21356       -13.88466         6.27224
     2008.21629        -4.79524         6.11180
     2008.21903        -5.42483         6.22654
     2008.22177        -4.50542         6.20826
     2008.22451        -4.37401         6.15952
     2008.22725        -0.35259         6.18999
     2008.22998        -1.39918         6.30676
     2008.23546        -5.47236         6.20420
     2008.23820         1.01405         6.26513
     2008.24094        -6.63153         6.24482
     2008.24367         1.23588         6.06306
     2008.24641        -5.31871         6.05494
     2008.24915         2.24670         6.02549
     2008.25189         3.29712         6.11891
     2008.25462        -0.05547         6.06408
     2008.25736        -1.65106         6.12805
     2008.26010         7.71635         6.12906
     2008.26284        -4.60523         6.15343
     2008.26558        -5.24582         6.01330
     2008.26831         1.98359         6.07321
     2008.27105         6.06100         6.05087
     2008.27379         1.35241         6.04681
     2008.27653        -3.43917         6.08946
     2008.27927        -9.86876         6.21131
     2008.28200         2.44665         6.07626
     2008.28474         0.73806         6.20420
     2008.28748        -4.39552         6.34128
     2008.29022         2.51289         6.16968
     2008.29295        -0.45770         6.09251
     2008.29569         2.04571         5.99909
     2008.29843        -6.66188         6.04681
     2008.30117         9.28254         6.29864
     2008.30391         8.19295         6.02143
     2008.30664         7.83136         6.03666
     2008.30938        -3.05923         6.22146
     2008.31212        -4.47981         6.16968
     2008.31486         0.91160         6.05697
     2008.31760        -0.79799         6.11586
     2008.32033        -2.53458         6.15952
     2008.32307        -0.57217         6.27021
     2008.32581        -3.46975         6.57280
     2008.32855       -12.54334         6.19608
     2008.33128         0.21607         6.11992
     2008.33402        -3.83452         6.06306
     2008.33676        -4.77810         5.99401
     2008.33950         1.92631         6.17476
     2008.34224         0.98472         5.99604
     2008.34497        -4.54587         6.05798
     2008.34771         3.56954         6.12297
     2008.35045        -1.43104         6.01026
     2008.35319        -2.74663         6.10063
     2008.35593        -1.97322         6.00315
     2008.35866       -10.30981         6.11891
     2008.36140         3.85461         6.07220
     2008.36414         2.99102         5.99097
     2008.36688        -2.65357         5.95949
     2008.36961        -3.80216         5.99909
     2008.37235        -7.97274         5.97675
     2008.37509        -9.95933         5.96863
     2008.37783         5.87108         6.08235
     2008.38057        -7.69351         6.15952
     2008.38330        -5.59410         6.12094
     2008.38604         7.32332         6.05900
     2008.38878         2.14373         6.08845
     2008.39152        -1.61086         6.15749
     2008.39426        -1.08345         5.98081
     2008.39699        -5.01903         5.96660
     2008.39973        -1.57162         5.96253
     2008.40247        -3.89421         6.01534
     2008.40521         0.85620         6.00518
     2008.40794        -0.10439         5.99198
     2008.41068        -7.88597         5.96660
     2008.41342        -2.02456         6.00112
     2008.41616         2.74185         6.11586
     2008.41890         4.88326         6.05087
     2008.42163        -7.42932         6.11180
     2008.42437        -1.57291         6.24076
     2008.42711         5.65150         6.01026
     2008.42985        -4.21109         6.27934
     2008.43259         3.17732         6.24685
     2008.43532        -0.34026         6.12500
     2009.36619         2.30690         6.17882
     2009.36893         0.16731         6.14632
     2009.37167        -1.30027         6.18694
     2009.37441        -9.59186         6.17882
     2009.37714       -15.92545         6.18389
     2009.37988         0.64796         6.31996
     2009.38262        -4.16362         6.08946
     2009.38536        -7.22521         6.12297
     2009.38810        -1.94980         6.13109
     2009.39083        -3.20239         6.11992
     2009.39357         2.22602         6.23365
     2009.39631        -6.67956         6.15749
     2009.39905         1.40985         6.11078
     2009.40178         2.43826         6.16765
     2009.40452         0.93467         6.19608
     2009.40726         1.47609         6.14125
     2009.41000         6.71250         6.25700
     2009.41274       -14.82509         6.33316
     2009.41547        -5.09168         6.28544
     2009.41821        -9.11527         6.35652
     2009.42095        -0.91885         6.20826
     2009.42369        -4.35644         6.18389
     2009.42643        -9.96603         6.27630
     2009.42916        -7.26462         6.25396
     2009.43190        -8.84820         6.16562
     2009.43464         5.51121         6.19913
     2009.43738         1.19062         6.29661
     2009.44011        -0.69097         6.17882
     2009.44285        -3.73055         6.27934
     2009.44559        -4.64614         6.13922
     2009.44833        -5.97673         6.11891
     2009.45107         2.42168         6.18796
     2009.45380        -3.58891         6.22248
     2009.45654         3.00851         6.07931
     2009.45928         0.40392         6.11383
     2009.46202         4.09133         6.18186
     2009.46475        -4.05726         6.27427
     2009.46749        -7.92284         6.36870
     2009.47023         5.25757         6.06306
     2009.47297        -1.70302         6.02955
     2009.47571         1.41039         6.09657
     2010.27242         3.76736         6.22959
     2010.27516         2.29377         6.18288
     2010.27790         0.38218         6.20319
     2010.28063        -1.96641         6.10063
     2010.28337        -4.90699         6.23568
     2010.28611        -6.12158         6.28239
     2010.28885         5.49383         6.04884
     2010.29159        -2.69576         6.27630
     2010.29432        -4.43434         6.16765
     2010.29706         1.13307         6.06712
     2010.29980        -0.69352         6.21233
     2010.30254        -2.86511         6.24482
     2010.30528         3.76330         6.25396
     2010.31075         2.91613         6.02447
     2010.31349         2.71854         6.07423
     2010.31623         0.23495         6.08946
     2010.31896         2.23637         6.48852
     2010.32170        -7.51422         6.22248
     2010.32444         1.38519         6.12094
     2010.32718         5.19060         5.98386
     2010.32992         2.70601         6.02244
     2010.33265        -1.36857         6.14632
     2010.33539         5.24684         6.17171
     2010.33813        -4.62075         6.21842
     2010.34087         1.31066         6.00315
     2010.34361         6.59708         5.91278
     2010.34634         2.45449         6.01229
     2010.34908        12.79590         5.99198
     2010.35182        -0.62669         6.06001
     2010.35456        -1.53028         6.00924
     2010.35729        -6.36086         6.01127
     2010.36003        -1.73845         6.01026
     2011.84395         2.90499         6.01127
     2011.84669        -0.64760         5.97878
     2011.84942         1.33081         5.98081
     2011.85216        -8.25777         6.02244
     2011.85490        -2.90836         6.15242
     2011.85764        -0.30195         6.08540
     2011.86037        10.84246         6.04681
     2011.86311        13.19088         5.92598
     2011.86585         6.09429         6.13515
     2011.86859         4.21970         5.99807
     2011.87133         6.45811         5.98995
     2011.87406         1.01652         6.09251
     2011.87680         5.73194         6.14937
     2011.87954        -8.93865         6.42049
     2011.88228       -10.99824         5.95339
     2011.88502         0.68617         5.96558
     2011.88775        -1.18041         6.32098
     2011.89323        -0.95559         7.08355
     2013.62355         7.61995         5.96253
     2013.62629         3.04536         5.98081
     2013.62903         1.55978         6.00112
     2013.63176         8.64719         5.95035
     2013.63450         1.84260         6.16866
     2013.63724         5.02801         6.53624
     2013.63998        10.46543         6.42455
     2013.64272         7.25984         5.99503
     2013.64545        14.12525         5.87622
     2013.64819         6.85166         6.03767
     2013.65093        11.79408         6.34332
     2013.65367        10.28549         6.01330
     2013.65640         7.10690         5.89044
     2013.65914        13.74931         6.11383
     2013.66188        15.11872         6.32098
     2013.66462         0.60414         6.80127
     2013.66736        15.32255         6.13617
     2013.67009         8.66296         6.01127
     2013.67283         2.39237         6.44587
     2013.67557        11.05479         6.45196
     2013.68105        13.97561         5.98487
     2013.68378         6.11202         5.87825
     2013.68652         5.24843         6.03666
     2013.69473        10.47867         6.05798
     2013.70295         7.05991         6.80025
     2013.71664         3.76497         6.03057
     2013.71938         7.36238         6.01737
     2013.72211         8.83079         6.20420
     2013.72759        13.74562         6.96983
     2013.73033        12.59603         7.03786
     2013.73580        13.91885         6.18085
     2013.74128        10.36668         5.85693
     2017.25668        -7.67399         5.94121
     2017.25942        -9.40958         5.91989
     2017.26215        -6.86217         6.11180
     2017.26489       -13.95475         5.98893
     2017.26763        -2.84334         6.06915
     2017.27037        -1.92993         5.94730
     2017.27311        -4.71652         5.96355
     2017.27584       -12.58110         5.96558
     2017.27858        -5.62269         5.96355
     2017.28132        -2.57328         6.23670
     2017.28406        -6.04087         5.85490
     2017.28679        -6.97546         5.84373
     2017.28953        -6.89304         5.88841
     2017.29227         1.42337         6.06001
     2017.29501        -3.03822         5.99198
     2017.29775        -7.50281         5.85693
     2017.30048        -2.80139         5.89044
     2017.30322        -6.62798         5.81733
     2017.30596        -5.66957         5.90567
     2017.30870        -4.31816         5.97269
     2017.31144       -11.74375         5.95035
     2017.31417         4.74067         5.92496
     2017.31691         2.08208         5.98487
     2017.31965        -5.12451         6.10266
     2017.32239        -6.35210         6.01432
     2017.32512        -9.93268         5.87115
     2017.32786         1.46973         5.85896
     2017.33060        -7.22186         5.81022
     2017.33334        -7.70245         5.82444
     2017.33608       -10.60203         5.83053
     2022.67488         8.21085         6.03564
     2022.68036        11.19368         6.09454
