# ================= DQRFIT RESULTS ================
# INPUT FILE: series/BRDG.rad
# OUTPUT: LDETRENDED
# FILTER FUNCTION: f(t)
# f(t)=+line(t)
# line(t)=+P 1+P 2*t
# heav(t)=(t<0?0:1)
# TOTAL OBSERVATIONS MTOT=  183
# INITIAL TIME INTERVAL= 2010.9979 - 2010.2998 =  0.6982
# TOTAL OBSERVATIONS AFTER PREFILTER M=  182
# TIME-SPAN= 2010.9979 - 2010.2998 =  0.6982
# OBSERVATIONS: USED M=   182 REJECTED MTOT-M=     1 %USED=   99.4536
# N=  2 PARAMETERS
# MAXSIG= 175.00000
# MAXRES=  21.93248
# SCALE FACTOR FOR LENGTHS: SCL=  10.00000
# SCALE FACTOR FOR SIGMAS: SCLSIG=   1.00000
# CHI^2=    468.608 DOF=   180 CHI^2/DOF=   2.60338
# RMS=      9.267 SDEV=      9.292 MEAN=   -0.05329
#  P #       PARAMETER +-    SIGMA %error PARAMETER NAME
# P 1 =     20751.97422 +- 6654.951  32.07 YZERO                              
# P 2 =       -10.33206 +-    3.310  32.03 SLOPE                              
#       T            LDETRENDED       SIG_OBS
     2010.29979        21.93248        23.69409
     2010.30253        -4.31304         9.17489
     2010.30527        -5.60926         9.42422
     2010.30801        -0.32491         9.13343
     2010.31075        -9.01924         9.07540
     2010.31348        -5.96801         9.04924
     2010.31622         0.67378         9.05983
     2010.31896        -5.50327         9.34293
     2010.32170        -9.16482         9.22456
     2010.32444        -3.36946         9.19757
     2010.32717       -12.91444         9.08489
     2010.32991        -9.97093         9.08073
     2010.33265       -13.93411         9.04234
     2010.33539        -9.41855         9.37827
     2010.33812       -10.19069         9.17711
     2010.34086       -17.15786         8.99419
     2010.34360       -15.41253         9.13811
     2010.34634       -17.25397         9.09650
     2010.34908       -15.47033         9.03738
     2010.35181        -7.55960         9.00596
     2010.35455        -4.25672        10.23346
     2010.37645        -0.73229        21.10944
     2010.38193       -11.12304         9.31609
     2010.39288       -16.49337         9.14979
     2010.39562       -12.52693         9.16508
     2010.39836       -11.33150         8.92534
     2010.40110        -6.14948         8.90354
     2010.40383       -12.51787         8.92650
     2010.40657       -22.31009         9.00865
     2010.40931        -9.06548         9.03064
     2010.41205        -8.82855         9.10777
     2010.41478        -2.32519         9.32916
     2010.49144         2.01341        55.74921
     2010.49418        -7.83038         9.00626
     2010.49692        -1.76219         8.92606
     2010.49966        -5.61373         8.88473
     2010.50240         1.69107         8.85171
     2010.50513         1.50646         8.86469
     2010.50787        -4.23450         8.92411
     2010.51061         1.23224         8.92199
     2010.51335         7.05096         8.86868
     2010.51608         5.65566         8.83502
     2010.51882         8.95286         8.90151
     2010.52156         0.11299         8.94394
     2010.52430         2.86069         8.95413
     2010.52704        -5.39400         8.91147
     2010.52977         6.02713         8.88498
     2010.53251         1.45855         8.88081
     2010.53525         1.86901         8.94871
     2010.53799         3.56158         8.98514
     2010.54073         3.92408         8.96788
     2010.54346         2.15817         8.92774
     2010.54620         4.25702         8.91828
     2010.54894         2.88068         8.91052
     2010.55168         4.18630         8.97669
     2010.55441        11.54026         8.95238
     2010.55715         2.58338         8.89607
     2010.55989         3.19215         8.89572
     2010.56263        13.44276         9.15456
     2010.56537         8.58885         8.95802
     2010.56810         5.28020         8.99031
     2010.57084        10.28890         8.93012
     2010.57358        -1.55551         9.13815
     2010.57632         0.93233         9.19428
     2010.57906         2.79481         9.07237
     2010.58179        15.41392         8.93546
     2010.58453         1.19069         9.06451
     2010.58727         3.86735         9.16427
     2010.59001        20.08008         9.18841
     2010.59274        15.86357         8.95066
     2010.59548        13.36379         8.98652
     2010.59822         8.40950         9.00612
     2010.60096         5.56299         8.93878
     2010.60370         8.74234         8.99695
     2010.60643         8.34475         8.96902
     2010.60917         8.68895         8.92656
     2010.61191         7.65008         8.97088
     2010.61465         8.56858         8.93867
     2010.61739        17.54657         8.96726
     2010.62012        16.97092         9.01864
     2010.62286         7.85133         8.96439
     2010.62560         5.43919         8.97379
     2010.62834         6.49853         9.13414
     2010.63107        14.61791         9.18621
     2010.63381         9.69696         9.01091
     2010.63655        16.68062         9.05728
     2010.63929         2.37437         8.97385
     2010.64203         3.12887         9.02973
     2010.64476         6.22481         9.15895
     2010.64750        11.25853         9.00458
     2010.65024        11.20330         9.19450
     2010.65298         9.31926         9.31675
     2010.65572         3.00529         8.86874
     2010.65845        12.82381         8.84023
     2010.66119         8.61719         8.95166
     2010.66393         3.74639         9.00689
     2010.66667         3.88241         8.90899
     2010.66940         0.74968         8.81824
     2010.67214         9.52019         8.85994
     2010.67488        13.37398         8.89401
     2010.67762         9.11881         8.85052
     2010.68036         5.41396         8.99173
     2010.68309        -2.20910         8.86859
     2010.68583         2.51670         8.87554
     2010.68857         0.77049         8.88010
     2010.69131         6.23445         8.87531
     2010.69405         7.69083         9.12134
     2010.69678         1.53776         8.90115
     2010.69952        18.79006        10.23329
     2010.77892       -11.88283        25.17007
     2010.78166         2.83691         8.93663
     2010.78439         5.45259         9.27627
     2010.78713         2.82898         9.09096
     2010.78987         6.46243         9.10823
     2010.79261         7.09524         8.91631
     2010.79535         1.43854         8.88243
     2010.79808        -1.31298         8.97545
     2010.80082         4.06022         9.00311
     2010.80356        11.92510         9.15276
     2010.80630        -1.28258         8.88346
     2010.80903        11.86575         8.94411
     2010.81177        12.16796         9.06746
     2010.81451         6.64048         9.01851
     2010.81725         3.81598         8.90979
     2010.81999         0.78854         9.00970
     2010.82272        12.12796         8.97978
     2010.82546         4.23539         9.10610
     2010.82820         2.31018         9.11362
     2010.83094         4.89543         9.39533
     2010.83368        -5.50800         9.29403
     2010.83641        -5.48677         9.01406
     2010.83915         5.04184         9.02201
     2010.84189         2.56712         8.89755
     2010.84463        13.38767         8.90531
     2010.84736         7.50994         8.94160
     2010.85010         3.24493         9.06266
     2010.85284        -4.27735         8.97437
     2010.85558        -0.64266         8.98628
     2010.85832        -1.46046         8.82141
     2010.86105       -14.55932         8.81316
     2010.86379        -6.94034         8.95301
     2010.86653        -7.21942         8.83630
     2010.86927        -6.84345         8.87147
     2010.87201       -20.63833         9.04613
     2010.87474        -3.19766         8.91316
     2010.87748        -1.53279         9.11295
     2010.88296        -4.80596         9.06067
     2010.88569        -1.83056         8.85116
     2010.88843        -2.05102         9.24324
     2010.89117        -2.55977        12.51773
     2010.91307       -21.57803        27.00548
     2010.91581        -5.80255         9.34161
     2010.91855        -8.88227         8.77044
     2010.92129       -11.46611         8.75947
     2010.92402         7.63283         8.75553
     2010.92676        -4.29159         8.92707
     2010.92950         0.36666         8.72449
     2010.93224        -3.76209         8.86831
     2010.93498        -3.74021         8.92747
     2010.93771        -4.89908         8.77374
     2010.94045        -4.23151         8.97550
     2010.94319        -8.05209         8.74688
     2010.94593       -17.22085         8.75865
     2010.94867        -9.83415         8.78034
     2010.95140       -10.32686         9.20373
     2010.95414        -7.66662         8.99479
     2010.95688       -27.58473         8.81703
     2010.95962        -1.54456         9.01426
     2010.96235         1.94430         9.25645
     2010.96509         0.86568         8.83486
     2010.96783         7.88623         8.98689
     2010.97057         0.31247         8.90436
     2010.97331        -0.59285         8.79423
     2010.97604        -8.34000         8.99482
     2010.97878        -8.64142         8.81166
     2010.98152        -8.48343         8.80022
     2010.98426        -8.77538         8.94129
     2010.98700       -32.01838         8.97117
     2010.98973       -10.75034         9.66984
     2010.99247       -11.33394         9.15247
     2010.99521        -8.27712         9.05233
     2010.99795        -5.46129         8.95995
