# ================= DQRFIT RESULTS ================
# INPUT FILE: series/BRN3.rad
# OUTPUT: LDETRENDED
# FILTER FUNCTION: f(t)
# f(t)=+line(t)+annual(t)
# line(t)=+P 1+P 2*t
# annual(t)=+P 3*sin(2*pi*t+P 4)
# heav(t)=(t<0?0:1)
# TOTAL OBSERVATIONS MTOT= 2521
# INITIAL TIME INTERVAL= 2020.5337 - 2013.5633 =  6.9704
# TOTAL OBSERVATIONS AFTER PREFILTER M= 2492
# TIME-SPAN= 2020.5337 - 2013.5633 =  6.9704
# OBSERVATIONS: USED M=  2492 REJECTED MTOT-M=    29 %USED=   98.8497
# N=  4 PARAMETERS
# MAXSIG= 175.00000
# MAXRES= 287.49983
# SCALE FACTOR FOR LENGTHS: SCL=  10.00000
# SCALE FACTOR FOR SIGMAS: SCLSIG=   1.00000
# CHI^2=   6341.313 DOF=  2488 CHI^2/DOF=   2.54876
# RMS=     16.826 SDEV=     16.820 MEAN=    0.57424
#  P #       PARAMETER +-    SIGMA %error PARAMETER NAME
# P 1 =      1656.54035 +-  194.498  11.74 YZERO                              
# P 2 =        -0.82195 +-    0.096  11.73 SLOPE                              
# P 3 =         5.02617 +-    0.286   5.70 ANNUAL AMPLITUDE                   
# P 4 =        -2.61588 +-    0.069   2.66 ANNUAL PHASE                       
#       T            LDETRENDED       SIG_OBS
     2013.56331        13.52385         9.12390
     2013.56605         3.97310         9.01694
     2013.56878        10.24135         9.14146
     2013.57152         7.13960         9.13987
     2013.57426        17.58585         9.22608
     2013.57700        13.00710         8.98341
     2013.57974         2.08735         9.08239
     2013.58247        17.32460         9.07282
     2013.58521         8.53285         9.11911
     2013.58795        13.85010         9.11752
     2013.59069        13.25735         9.06324
     2013.59342         9.21260         9.13508
     2013.59616         3.14385         9.37615
     2013.59890        11.44311         9.00257
     2013.60164         6.25536         9.21011
     2013.60438         6.96761         9.20852
     2013.60711        16.36486         9.16701
     2013.60985        14.02411         9.15424
     2013.61259        10.51636         9.05525
     2013.61533        10.42861         9.41287
     2013.61807         9.17886         9.32825
     2013.62080        11.67611         9.22448
     2013.62354        12.13936         9.10794
     2013.62628        12.42261         9.05525
     2013.62902        10.78986         9.06962
     2013.63175        12.60311         9.16062
     2013.63449         9.22836         9.28036
     2013.63723        14.93761         9.11592
     2013.63997        12.87386         9.11273
     2013.64271         8.21011         9.33304
     2013.64544         2.87236         9.32825
     2013.64818        14.82261         9.14306
     2013.65092        15.44286         9.21011
     2013.65366         0.74011         9.19894
     2013.65639        14.94136         9.08878
     2013.65913         8.54161         9.57411
     2013.66187         4.31786         9.43362
     2013.66461         8.18111         9.14306
     2013.66735        11.22636         9.21171
     2013.67010        11.96363         9.27717
     2013.67282        11.92687         9.60125
     2013.67556         0.94812         9.47353
     2013.67830         7.61937         9.21331
     2013.68104         6.85862         9.14785
     2013.68377        10.75487         9.06324
     2013.68651         6.86812         9.24045
     2013.68925        -0.87963         9.20692
     2013.69199        12.25662         9.12550
     2013.69472         9.03087         9.22129
     2013.69746        13.16412         9.00896
     2013.70020        18.18637         9.05845
     2013.70294        24.86862         9.03769
     2013.70536        14.27561        10.02751
     2013.70910         7.90369        14.01712
     2013.71115         8.82637         9.19255
     2013.71389         7.27862         9.11432
     2013.71663        15.58287         9.20852
     2013.71937        19.12512         9.05366
     2013.72210        10.15137         9.21171
     2013.72484        12.71962         9.05206
     2013.72758        12.01187         9.16541
     2013.73032         9.58912         9.14466
     2013.73305        12.50937         9.16701
     2013.73579         5.14862         9.22448
     2013.73853         6.92187         9.04408
     2013.74127         6.20113         9.09996
     2013.74401         9.66238         9.27876
     2013.74674         6.73963         9.06643
     2013.74948        -8.58312        13.42483
     2013.75222        -4.08487         9.24524
     2013.75496         0.13438         9.00257
     2013.75770        -7.09137         9.32985
     2013.76043         9.94588         9.07760
     2013.76317         4.34413         9.15104
     2013.76591        12.60338         9.17499
     2013.76865         7.76363         9.13348
     2013.77138         7.59888         9.13189
     2013.77412        16.73113         9.16701
     2013.77686         2.69638         9.04089
     2013.77960         3.25763         9.11752
     2013.78234         2.98688        10.44260
     2013.78507        -8.67287         9.11273
     2013.78781        -6.60062         9.11911
     2013.79055        -9.18637         9.20692
     2013.79329         0.94988         9.09038
     2013.79603         1.89013         9.05685
     2013.79876         2.01938         8.95787
     2013.80150        12.51963         9.22448
     2013.80424         7.29088         9.13029
     2013.80698        11.08713         8.96425
     2013.80971         6.20139         9.06962
     2013.81245         5.23064         8.98980
     2013.81519         3.15189         9.12071
     2013.81793         6.29514         8.93392
     2013.82067         5.16939         9.15264
     2013.82340         9.73664         9.03131
     2013.82569         8.09151        11.03649
     2013.82888         4.21314         9.32666
     2013.83162        -4.80361         9.02492
     2013.83436         6.08264         9.27876
     2013.83709        -0.82911         9.16541
     2013.83983         1.63314         9.17978
     2013.84257        -0.05761         9.09996
     2013.84531        -2.60336         9.32666
     2013.84804         3.93489         9.01853
     2013.85078         1.32414         9.12550
     2013.85352         7.22039         9.15583
     2013.85626        -3.25736         9.12071
     2013.85900        -3.10411         8.96425
     2013.86173         1.16014         9.09836
     2013.86447        -3.84061         8.92913
     2013.86721         3.69764         9.06164
     2013.86995        -0.28611         9.11273
     2013.87269        -3.47886         9.04887
     2013.87542        -1.44261         9.30271
     2013.87816        12.09564         8.95468
     2013.88090        13.40690         9.14306
     2013.88364        11.14715         9.50546
     2013.88637         4.45040         8.97862
     2013.88911        -4.25835         9.03450
     2013.89185         2.32090         9.04727
     2013.89459        -1.08585         9.04727
     2013.89733         1.92940         9.04248
     2013.90006        -4.69235         9.18457
     2013.90280       -10.21110         9.30271
     2013.90554         2.35915         8.96745
     2013.90828        -0.16160         8.96266
     2013.91102        -1.38135         9.01375
     2013.91375       -11.57610         9.11113
     2013.91649        -8.81785         9.10794
     2013.91923         9.93240         9.07122
     2013.92197         3.19065         9.13987
     2013.92470         0.52690         9.16701
     2013.92744        -0.31285         9.30111
     2013.93018         5.22840        15.17138
     2013.93292         6.82765         9.09357
     2013.93566        -0.25010         9.19574
     2013.93839         4.09815         8.97224
     2013.94113        -6.30460         9.04727
     2013.94296       -28.15510        16.65292
     2013.94661        -1.39110         9.13348
     2013.94935        -1.01785         9.02332
     2013.95208         3.76641         9.02811
     2013.95482        -0.41434         9.77367
     2013.95756        -4.18309         9.00257
     2013.96030         4.18816         9.22288
     2013.96303         9.94541         9.04248
     2013.96577         9.28766         9.01853
     2013.96851        -1.59109         9.01055
     2013.97125       -16.72984         8.91317
     2013.97399        -8.37859         8.83015
     2013.97672       -11.76934         9.08878
     2013.97946        -5.72809         8.80780
     2013.98220         0.35616         9.05685
     2013.98494        -0.11859         9.04727
     2013.98767       -14.00634         9.03610
     2013.99041       -12.39909         9.01534
     2013.99315        -7.87284         9.17978
     2013.99589         2.74441         9.09996
     2013.99863        -1.60134         9.28515
     2014.00410        -5.52184         9.09836
     2014.00684        -6.45459         9.06643
     2014.00958        -0.80434         9.06803
     2014.01232        -2.11909         9.30111
     2014.01505        -1.99884         9.16381
     2014.01779        -3.15859         9.23406
     2014.02053       -10.22134         9.13508
     2014.02327        -2.39308         9.58688
     2014.02600        11.01817         9.35380
     2014.02874         8.82742         9.08559
     2014.03148         9.57867         9.16541
     2014.03422        -1.31508         8.94031
     2014.03694         2.19416         9.27876
     2014.03969        -5.38358         9.05845
     2014.04243         6.72667         9.29952
     2014.04517         2.66792         9.37136
     2014.04791        -8.10283         9.09836
     2014.05065         0.58042         8.96904
     2014.05338        -8.71533         8.96904
     2014.05612        -9.26808         9.13667
     2014.05886        -7.36983         9.13189
     2014.06160        -0.70758         8.91476
     2014.06433        -4.01133         9.33623
     2014.06707        -3.18108         9.37295
     2014.06981        -3.71483         9.20692
     2014.07255         0.25642         9.07601
     2014.07529         0.08967         9.10155
     2014.07802        -0.92808         9.22608
     2014.08076        -1.08383         9.02811
     2014.08350         3.27842         8.99299
     2014.08624        -3.34133         8.96745
     2014.09017        -8.52709        42.34832
     2014.09171        -3.19382         9.52462
     2014.09445         0.07243         9.03769
     2014.09712        -5.92838         9.53101
     2014.09995        -4.69005         9.16222
     2014.10266         2.51918         9.16541
     2014.10540         0.92643         8.97703
     2014.10814         2.69568         9.02173
     2014.11088        -8.50607         9.44480
     2014.11362        -0.80482         9.19574
     2014.11635         0.91643         9.98121
     2014.11909        -5.40832        10.20313
     2014.12183         5.31393         8.97703
     2014.12457        10.76018        12.09655
     2014.12731         4.96243         9.29792
     2014.13004         2.37268         9.02492
     2014.13278         3.36293         9.27238
     2014.13552         8.66318         9.38413
     2014.13826        -4.50957        10.53040
     2014.14099        -2.04732         8.94510
     2014.14373        -4.35607         9.17499
     2014.15468         9.87593         9.37774
     2014.15742         2.84118         9.21011
     2014.16016         5.70243         9.51025
     2014.16290         0.67369         9.23566
     2014.16564        -9.05506         9.40808
     2014.16837        -2.30581         9.58848
     2014.17111         2.92344         9.91895
     2014.17385        -3.67931         9.40808
     2014.17659         2.98994        10.17758
     2014.17932        -1.32281         9.72258
     2014.18206         1.44844         9.54697
     2014.18480         1.85969         9.07760
     2014.18754         4.51994        10.27816
     2014.19028       -14.05181         9.51025
     2014.19301        -1.33556         9.07920
     2014.19575         3.21369         9.13348
     2014.19849         1.30594         9.58848
     2014.20123        -7.00881         9.39052
     2014.20397         1.84744         9.35859
     2014.20670        -5.47731         9.18617
     2014.20944        -4.30806         9.10634
     2014.21218         4.48919         9.18776
     2014.21492         1.59844         9.34901
     2014.21765        -0.03631         9.19255
     2014.22039        -0.47506        13.79521
     2014.22307        -4.21685         9.50866
     2014.22602         2.13557         9.81039
     2014.22861         5.16069         9.06962
     2014.23134         6.04194         9.23087
     2014.23408         3.27220         8.96425
     2014.23682        -1.98355         9.28355
     2014.23956        -3.99230         9.29473
     2014.24230       -10.13405         9.34901
     2014.24501        -3.61082        10.14086
     2014.24777         7.06045         9.98760
     2014.25051        -7.86430         9.18138
     2014.25325        -8.72305         9.07282
     2014.25598        -3.05080         9.41766
     2014.25872        -7.64055         9.13348
     2014.26146         0.30770         9.35859
     2014.26420        -3.91105         9.06164
     2014.26694        -3.58980         9.24683
     2014.26967        -4.24855         9.20053
     2014.27241        -2.31130         9.23885
     2014.27464        -3.11747        11.59366
     2014.28084        -6.20337         9.95886
     2014.28336        -1.52230         9.34741
     2014.28610        -8.75505         9.67150
     2014.28884       -13.24880         9.54537
     2014.29158       -10.15755         9.14945
     2014.29431         2.63070         8.93232
     2014.29705        -2.11205         9.29792
     2014.29979        -7.10380         9.35859
     2014.30253        -1.49455         9.17659
     2014.30527         2.09471         9.12550
     2014.30800         0.88296         9.04727
     2014.31074        -1.91479         9.45757
     2014.31348        -5.87154         9.01534
     2014.31622        -8.24229         9.22608
     2014.31895        -3.00504         9.27557
     2014.32169        -3.94279         9.36816
     2014.32443        -8.55754         9.30431
     2014.32717       -10.20229         9.46555
     2014.32991        -1.18704         9.27238
     2014.33264        -5.27679         9.21650
     2014.33538        -1.18654         9.28674
     2014.33812        -2.01829         9.12231
     2014.34086         0.61496         8.97383
     2014.34360        -0.70479         9.25960
     2014.34633       -13.90354         9.30750
     2014.34907       -13.69029         9.68746
     2014.35181        -2.03904        11.51384
     2014.35455         6.58521         9.21011
     2014.35728        -6.64254         9.05366
     2014.36002        -7.49129         9.28195
     2014.36276       -10.80004         9.33304
     2014.36550       -10.39579         9.88702
     2014.36824        -5.75754         9.71779
     2014.37097         9.45871         9.42723
     2014.37371         1.81997         9.12390
     2014.37645         0.58122         9.19734
     2014.37919        -0.93753         9.42085
     2014.38193         0.46572         9.71460
     2014.38466        -1.85303         9.39371
     2014.38740        -5.25778         9.68906
     2014.39014       -10.93753         9.61562
     2014.39288        -3.78728         9.44160
     2014.39561        -1.09903         9.69864
     2014.39835         0.94722        11.06523
     2014.40109        -6.69953         9.56772
     2014.40383        -7.61128         9.48630
     2014.40657       -14.16703         9.85030
     2014.40930       -10.66778         9.97004
     2014.41204         0.37747        10.16481
     2014.41478         1.59772         9.94928
     2014.41752         2.80697         9.47034
     2014.42026        -0.43778         9.59167
     2014.42299        -8.05453        10.10734
     2014.42573       -10.88928         9.80241
     2014.42847        -4.77503         9.68906
     2014.43121         5.47822         9.35220
     2014.43394        -1.15453         9.52622
     2014.43668         0.68872         9.23725
     2014.43942        -7.52903        10.72677
     2014.44216        -8.00978         9.51344
     2014.44490        -4.07352         9.62201
     2014.44763         9.09473         9.47034
     2014.45037        -0.32302        10.15683
     2014.45311        -0.65277         9.44799
     2014.45585        -2.13652         9.50067
     2014.45859        -2.58227         9.37455
     2014.46132        -1.17402         9.28036
     2014.46406       -10.90277         9.40967
     2014.46680        -5.50052         9.86627
     2014.46954         3.94173        10.96465
     2014.47227       -11.90602        13.67388
     2014.47501         0.86223         9.76888
     2014.47775        -4.62952         9.40967
     2014.48049        -3.12727        10.39470
     2014.48323         8.50398        11.60484
     2014.48596         2.69023        10.19674
     2014.48869         4.26947         9.54857
     2014.49144         8.22973         9.92693
     2014.49418        -5.54702        10.94868
     2014.49692        -4.67777        11.29672
     2014.49965         1.12748        13.08478
     2014.50239       -13.76927        11.76449
     2014.50513         2.93498        10.16641
     2014.50787        -4.07177         9.44799
     2014.51060        -8.20652         9.42723
     2014.51334         4.28873         9.57411
     2014.51608        12.39399        10.72837
     2014.51882         5.14824        10.61821
     2014.52156        13.28549        10.71240
     2014.52429         3.45274        10.37555
     2014.52703        10.72499        11.02052
     2014.52977         4.42924        11.53938
     2014.53251         0.44449        10.24783
     2014.53525        -1.97226        10.77946
     2014.53798        -1.25501        10.52242
     2014.54072        10.08024         9.91735
     2014.54346         9.64649         9.52781
     2014.54620         5.63574         9.21650
     2014.54893         1.93199         9.05046
     2014.55167         7.20324         9.42244
     2014.55441         7.03949         9.13987
     2014.55715        -2.21326         9.29792
     2014.55989         4.76699         9.17978
     2014.56262        10.04824         9.20053
     2014.56536         2.79349         9.31867
     2014.56810        -0.49726         9.39052
     2014.57084        -3.14401         9.18138
     2014.57357        -4.91776         9.24524
     2014.57631         6.80849         9.19574
     2014.57905         2.15074         9.13987
     2014.58179         0.80399         9.38413
     2014.58453       -14.16076         9.41446
     2014.58726         1.77850         9.67948
     2014.59000         8.59875         9.66990
     2014.59274         8.40100         9.32187
     2014.59548        11.13125         9.34102
     2014.59822        12.68050         9.67629
     2014.60095        -3.51525         9.46076
     2014.60369         1.11800         9.38573
     2014.60643        -0.12075         9.27078
     2014.60917         5.84550         9.48311
     2014.61190        10.75375         9.65872
     2014.61464        -8.24500         9.53580
     2014.61738         0.91925        10.04507
     2014.62012         7.84150         9.46076
     2014.62286         5.87975         9.79922
     2014.62559         4.97900         9.43362
     2014.62833         7.42725         9.37455
     2014.63107         8.80550         9.49429
     2014.63381         8.92175         9.57890
     2014.63655        11.19500         9.27876
     2014.63928         9.30925         9.27238
     2014.64202        -1.10050         9.97004
     2014.64474         6.83573         9.83434
     2014.64750         9.35900         9.71939
     2014.65023         2.39025         9.35220
     2014.65297         3.77850        10.04028
     2014.65571         7.52976         9.46555
     2014.65843        16.03299        10.77946
     2014.66119         7.70926         9.53420
     2014.66391         8.43849         9.45597
     2014.66673        13.62981         9.21011
     2014.66940        17.35301         9.43681
     2014.67214        10.21826         9.26120
     2014.67488        -1.16149         9.59806
     2014.67761        -2.72924         9.32825
     2014.68035         7.17301         9.40169
     2014.68309         2.14726         9.50067
     2014.68583         5.11551         9.35380
     2014.68856         1.52776         9.33145
     2014.69130         6.32801         9.45597
     2014.69404         0.84426         9.35060
     2014.69678         2.75951         9.23087
     2014.69952         7.00876         9.25002
     2014.70225         0.94901         9.21171
     2014.70499        12.19726         9.36178
     2014.70773        14.01751         9.22448
     2014.71047         9.07676         9.26759
     2014.71321         4.84401         9.25002
     2014.71542         1.13883        11.46435
     2014.72515         7.45283        20.83730
     2014.72689        10.86427         9.27717
     2014.72963       -11.30548         9.51983
     2014.73237         0.68477         9.37934
     2014.73511        -4.63698         9.64276
     2014.73785         8.61627         9.25641
     2014.74058         0.23152         9.29313
     2014.74332        -7.09423         9.72258
     2014.74606         3.31602         9.41925
     2014.74880        -3.01473         9.18138
     2014.75154         3.27652         9.52462
     2014.75427         5.67877         9.89500
     2014.75701         3.28902         9.68906
     2014.75975         1.65627         9.44799
     2014.76249        -4.22348         9.39850
     2014.76522        -2.71023         9.33304
     2014.76793        -3.22200         9.33304
     2014.77002        16.10271        12.47971
     2014.78992         5.08107         9.44160
     2014.79260         3.59727         9.17818
     2014.79534         4.83152         9.52622
     2014.79808         6.43478         9.63478
     2014.80082        -1.17997         9.30750
     2014.80355         6.02428         9.50866
     2014.80629        -4.70047         9.49748
     2014.80903         5.69478         9.41925
     2014.81177         2.17703         9.45437
     2014.81451         6.81428         9.17339
     2014.81724        -0.10547         9.37934
     2014.81998         7.13778         9.47832
     2014.82272         4.17903         9.57571
     2014.82546        -5.12372         9.37455
     2014.82820         1.89753         9.16541
     2014.83093        -7.05922         9.36816
     2014.83367        -2.82197         9.47992
     2014.83641        -2.83872         9.56294
     2014.83915        -0.07547         9.71460
     2014.84188        -8.79822         9.96365
     2014.84462        -4.20197         9.56294
     2014.84736        -0.00972         9.34741
     2014.85010        -0.36747         9.24045
     2014.85284         0.51778         9.51983
     2014.85557         7.76403         9.33943
     2014.85831         0.32128         9.41446
     2014.86105        -9.03447         9.25162
     2014.86379         1.88878         9.41766
     2014.86653        -5.54997         9.42404
     2014.86926         3.50229         9.30590
     2014.87200        -1.20246         9.38413
     2014.87474       -11.15921         9.32825
     2014.87748        -8.72196         9.28355
     2014.88021        -1.86471         9.44959
     2014.88295        -2.40746         9.44320
     2014.88569        11.47779         9.81678
     2014.88843         1.84804         9.68108
     2014.89117         1.65929         9.84232
     2014.89390         4.66954         9.51664
     2014.89664        -3.11021         9.64436
     2014.89938        -2.64296         9.43522
     2014.90212        -6.21371         9.68108
     2014.90485        -5.67146         9.26599
     2014.90759       -10.11821        10.12809
     2014.91033         0.48904         9.12550
     2014.91307        -1.13571         9.25481
     2014.91581         2.37754         9.48790
     2014.91854        -2.04621         9.21650
     2014.92128        -1.97696         9.18138
     2014.92402        -6.24771         9.09197
     2014.92676        -5.45146         9.39850
     2014.92950        -7.74521         9.15743
     2014.93223         1.88504         9.29632
     2014.93497        -4.97871         9.17659
     2014.93771       -10.91845         9.45916
     2014.94045        -5.76920         9.08239
     2014.94318       -10.79295        10.05785
     2014.94592        -6.20270         9.41287
     2014.94866       -13.28945         9.06324
     2014.95140       -10.27720         9.07920
     2014.95414        -7.34895         9.02173
     2014.95687        -1.42870         9.16701
     2014.95961         3.39255         9.12231
     2014.96235        -3.88920         9.10155
     2014.96509         3.25005         9.21331
     2014.96783        -6.30270         8.99299
     2014.97056        -7.44245         9.30271
     2014.97330        -9.92520         9.23885
     2014.97604        -6.36495         9.30590
     2014.97878         5.17830         9.30271
     2014.98151         2.88055         9.28515
     2014.98425       -11.98220         9.31069
     2014.98699        -2.67595         8.94829
     2014.98973        -4.60970         9.18138
     2014.99247        -6.77045         9.14785
     2014.99520       -14.20320         9.09038
     2014.99794        -2.48295         9.10953
     2015.00068        -9.08770         9.07760
     2015.00342       -13.52645         9.22448
     2015.00616        -6.98920         9.06643
     2015.00889       -16.62494         9.28515
     2015.01163       -11.32769         9.38094
     2015.01437        -5.49744         9.23087
     2015.01711       -11.84019         9.51185
     2015.01984        -2.28894         9.41287
     2015.02258         3.40331         9.48950
     2015.02532        -4.08344         9.33943
     2015.02806        -3.87619         9.20692
     2015.03080        -2.63494         9.20053
     2015.03353        -8.08869         9.09517
     2015.03627        -7.99744         9.88064
     2015.03901        -5.68819         9.29153
     2015.04175         3.49206         9.31708
     2015.04449        -3.67069         9.19734
     2015.04722        -8.58044         9.38573
     2015.04996         3.20781         9.30909
     2015.05270        -7.29894         9.24843
     2015.05544        -6.30969         9.42404
     2015.05817        -4.78244         9.07601
     2015.06091        -7.06419         9.15424
     2015.06365         2.81106         9.72418
     2015.06639         8.02031         9.59806
     2015.06913       -10.47644        10.16162
     2015.07186       -14.84819         9.75132
     2015.07460        -2.85194         9.36816
     2015.07734       -13.62569        10.29093
     2015.08008       -11.49043         9.93332
     2015.08282        -5.73418         9.23406
     2015.08555         0.29607         9.17659
     2015.08829         1.61532         9.06324
     2015.09103        -5.53143         9.14306
     2015.09377        -0.66418         8.97703
     2015.09650        -0.86293         9.16381
     2015.09924         2.74532         9.33145
     2015.10198         4.60357         9.15743
     2015.10472        -5.25318         9.04567
     2015.10746         3.68107         9.19415
     2015.11019        -9.31068         9.50546
     2015.11293        -2.55243        10.31967
     2015.11567        -6.25518         9.08878
     2015.11841        -6.33193         9.21650
     2015.12115         4.93432         9.08399
     2015.12388        -0.28543         9.05845
     2015.12662        -1.50118         9.56932
     2015.12936        -2.64193         9.45916
     2015.13210        -7.45868         9.64436
     2015.13483        -3.72543         9.93172
     2015.13757        -0.82818         9.10794
     2015.14031         0.63507         9.41127
     2015.14305        -3.36768         9.31069
     2015.14579        -6.78743         9.35380
     2015.14852        -7.13218         9.23406
     2015.15126       -10.62092         8.99459
     2015.15400         5.33033         9.09517
     2015.15674         3.36158         9.14625
     2015.15948         9.46483         9.61881
     2015.16221         1.76408         9.68746
     2015.16495         1.91433         9.22448
     2015.16769         6.90058         9.33783
     2015.17043         4.97583         9.14466
     2015.17316         8.35408         9.62679
     2015.17590         4.35133         9.35859
     2015.17864        -9.47842         9.02332
     2015.18138        -6.39217         9.25801
     2015.18412        -8.17792         9.20692
     2015.18685        -4.68067         9.34262
     2015.18959         4.39958         9.11752
     2015.19233         0.64183         9.44001
     2015.19507         0.91308         8.89401
     2015.19780        -6.40467         9.03610
     2015.20054         0.24158        10.03230
     2015.20328         1.49983         9.32506
     2015.20602        -0.99392         9.51983
     2015.20876        -0.62067         9.06164
     2015.21149       -13.14042         8.89720
     2015.21423        -8.46217         9.36338
     2015.21697        -6.21092         9.15743
     2015.21971        -1.63366         9.03290
     2015.22245         0.87259         9.03769
     2015.22518        -1.00616         8.97383
     2015.22792        -7.93991         8.93392
     2015.23066         2.13634         9.06803
     2015.23340         0.76159        10.02911
     2015.23613         2.31784         9.37934
     2015.23887        -4.07691         9.48790
     2015.24161         3.01034         9.82476
     2015.24435        -1.77641         9.71939
     2015.24709        -3.25716         9.73855
     2015.24982        -5.28491         9.45278
     2015.25256        -0.41066         8.94989
     2015.25530        -0.62941         8.98980
     2015.25804        -2.80316         9.46236
     2015.26078        10.75609         9.05046
     2015.26351         1.40734         9.33623
     2015.26625         0.75759         9.98281
     2015.26899        -0.80616         8.96745
     2015.27173        11.50009         9.33943
     2015.27446        11.71634         9.77048
     2015.27720        -1.70541         9.86946
     2015.27994        -3.84616         9.87585
     2015.28268        -6.24491         9.32187
     2015.28542        -3.62266         9.25322
     2015.28815       -12.67141         9.92534
     2015.29089         2.58185         9.65234
     2015.29363        -4.60790        10.13767
     2015.29637        -3.85065         9.62041
     2015.29911        -2.07740        11.71340
     2015.30184         8.63185         9.59646
     2015.30458         5.78910         9.53580
     2015.30732         2.23235         8.94190
     2015.31006        -6.68840         9.01853
     2015.31279        -2.88815         9.37934
     2015.31553        -4.95490         9.22288
     2015.31827        -3.15065         9.04089
     2015.32101         0.68260         8.82057
     2015.32375       -12.01115         8.81897
     2015.32648       -12.10290         9.18138
     2015.32922         2.31435         9.11113
     2015.33196        -5.14940         8.90199
     2015.33470         2.71885         8.96585
     2015.33744        -9.90090         8.97383
     2015.34017       -11.41265         9.29632
     2015.34289        -4.24541         9.15583
     2015.34566        -3.16114         8.84133
     2015.34839        -5.90890        10.09935
     2015.35112        -6.58965        11.28394
     2015.35386        -4.01840        10.77307
     2015.35660        -4.65015         8.92594
     2015.35934        -4.79490         9.30271
     2015.36208        -1.70464         8.97383
     2015.36481         4.85561         9.86307
     2015.36755         7.94386         9.26280
     2015.37029        -3.37389         9.94290
     2015.37303        -2.14764         9.78644
     2015.37577        -0.50639        11.83792
     2015.37850       -15.19514        17.71458
     2015.38124       -10.05589        11.30310
     2015.38398         7.82736         8.77587
     2015.38672         1.26461         8.79183
     2015.38945         3.27086         8.77747
     2015.39219         7.92811         8.69605
     2015.39493        -1.27264         9.76250
     2015.39767       -24.12739        15.73973
     2015.40041        -9.14514        10.60065
     2015.40314       -15.82089        12.46215
     2015.40588        -2.25364        12.72876
     2015.40862        19.69661        14.29332
     2015.41136        13.83886        22.82333
     2015.41410         8.55311        27.25995
     2015.41683       -31.11564        44.01824
     2015.41957       -92.45239        51.21199
     2015.42231       -48.63314        27.40364
     2015.42505       -29.32389        32.74068
     2015.42778       -11.22964        25.46710
     2015.43052       -40.97639        16.71199
     2015.43326       -25.38913        16.52201
     2015.43600       -45.02288        29.62914
     2015.43874       -39.23863        37.85741
     2015.44147       -18.67438        24.95463
     2015.44421       -21.57213        43.37166
     2015.44695       -21.49288        96.17056
     2015.44969       -14.60863        16.81097
     2015.45243         0.11962        30.36671
     2015.45516       -13.41613        53.38002
     2015.45790       -32.99388        82.54298
     2015.46064       -86.23763        89.74472
     2015.46338       -57.55738        47.51135
     2015.46611       -43.19413        82.89580
     2015.46885        12.98612        78.01535
     2015.47159       -81.54763        91.05862
     2015.47433       -25.93138        80.75652
     2015.47707        17.82787       105.15238
     2015.47980       -39.96188        25.33779
     2015.48254        -1.95063        20.42860
     2015.48528       -22.29738        27.85544
     2015.48802       -13.05113        25.41921
     2015.49076       -29.79888        20.16997
     2015.49349        15.17237        12.88522
     2015.49897         9.03787        14.04746
     2015.50171        13.96313        10.55754
     2015.50444        22.03538         9.25481
     2015.50718        -8.40937        10.36118
     2015.50992         0.60088        11.91615
     2015.51266        16.41013        16.78064
     2015.51540        17.23938        13.42802
     2015.51813        25.40463        10.68526
     2015.52090        13.46191        14.49447
     2015.52361         2.31513        10.07541
     2015.52635        -8.43862        10.05465
     2015.52908        11.08463        10.25421
     2015.53182        12.76088         8.91317
     2015.53456        16.25913         8.84133
     2015.53730        -3.41862         9.72578
     2015.54004       -13.01637        12.78624
     2015.54277        -2.51412         9.38732
     2015.54551        17.18513         9.16381
     2015.54825        21.24138         9.13987
     2015.55099        14.55663         9.53420
     2015.55373        20.68688        18.36116
     2015.55646        18.43513        10.10414
     2015.55917        19.72636        10.96465
     2015.56469       -42.96911       121.80370
     2015.57014       -52.67262        90.70420
     2015.57289      -121.66436      2562.71402
     2015.57564        11.10990        67.74358
     2015.57837        40.99814        59.61748
     2015.58110       -42.62761        33.42877
     2015.58379        10.39159        68.26563
     2015.58934       -25.26284       558.41130
     2015.59186         7.20922        31.72532
     2015.59753       106.49988        90.21568
     2015.60025        26.39313        47.40278
     2015.60301        -6.01461        54.30598
     2015.60575         0.32065        67.90961
     2015.60841       -28.68417        67.91121
     2015.61387        27.43032        51.68615
     2015.62767         9.85666        59.51211
     2015.63040        51.20091        60.01021
     2015.63312        56.87214        62.41133
     2015.63587        47.23740        44.55785
     2015.63859       178.39164        63.18402
     2015.64134        42.21689        23.20010
     2015.64407        11.30714        35.78358
     2015.64681       -33.38060        64.02058
     2015.64955        13.67165        35.29984
     2015.65229       140.05190        73.05508
     2015.65499        52.93812        69.30654
     2015.65825      -105.72320      2413.46728
     2015.66051       -12.94535        49.15413
     2015.66323        67.40489        64.47398
     2015.66597        31.41014        27.95442
     2015.66872       292.52541        76.33745
     2015.67145        32.00765        37.73608
     2015.67693        -2.40385        22.82652
     2015.67967         9.13440        25.95882
     2015.68240        -0.24035        37.66903
     2015.68514       -58.01110        62.51350
     2015.68787        84.65814        60.82602
     2015.69062        75.54540        59.54564
     2015.69337        23.87866        52.00545
     2015.69609        12.74590        20.61699
     2015.69885        41.91117        32.30963
     2015.70157        58.44140        55.74760
     2015.70431         6.85065        47.41556
     2015.70704        18.65690        35.83626
     2015.70978        71.23315        31.21444
     2015.71252        81.16841        64.19779
     2015.71526        22.21266        54.58536
     2015.71798        90.36989        56.91623
     2015.72073        25.66816        33.67941
     2015.72347       -43.85459        52.76857
     2015.72621        -6.59634        65.40792
     2015.72896        56.93292        41.03441
     2015.73169        -4.27684        60.77174
     2015.73443       -28.07258        50.79691
     2015.73714       -12.20136        75.48972
     2015.73993        -4.43806        43.18009
     2015.74265        15.75017        51.11461
     2015.74539        24.31443        32.13242
     2015.74811       -11.98434        51.51054
     2015.75085         6.26891        35.57444
     2015.75359       -13.67784        38.09050
     2015.75631        -1.00760        39.33256
     2015.75905        32.40265        49.47981
     2015.76179        77.12590        48.70392
     2015.76454       -55.22084        51.50415
     2015.76729         6.78742        55.36125
     2015.77001        61.67066        39.57682
     2015.77275       105.25191        33.97796
     2015.77550        65.76417        49.19883
     2015.77822        31.99440        51.67497
     2015.78097        47.12466        38.99730
     2015.78371        -9.62908        35.94961
     2015.78646        55.04518        43.30302
     2015.78918        -0.75958        52.47641
     2015.79193        75.25368        47.23994
     2015.79466        42.44292        43.23916
     2015.79740        28.87417        28.33758
     2015.80014        24.23942        32.47886
     2015.80287        45.61567        30.70517
     2015.80561        79.65792        38.74665
     2015.80834        39.69716        37.50618
     2015.81108        14.01242        27.29029
     2015.81382        -4.94633        27.07955
     2015.81656        23.15392        31.91370
     2015.81928       106.46116        59.99106
     2015.82203        -1.66558        35.66384
     2015.82479       -73.54431        50.01942
     2015.82750        19.12891        29.35454
     2015.83024        28.55617        24.59702
     2015.83299        22.67542        21.20769
     2015.83573        50.41468        24.26814
     2015.83845       -24.96109        23.50024
     2015.84120        18.58917        42.24934
     2015.84394         9.25042        36.47965
     2015.84668        14.34567        37.77599
     2015.84941       -24.46408        54.05054
     2015.85216         2.93718        21.37372
     2015.85489         9.63743        25.35216
     2015.85764        -4.11331        30.27252
     2015.86035        -7.66109        33.69698
     2015.86309        -2.22183        32.29686
     2015.86584        -0.60457        28.29448
     2015.86858        -2.20832        23.05961
     2015.87132         8.46793        20.57707
     2015.87405        11.40218        24.38149
     2015.87679        22.81143        33.52775
     2015.87953        22.02368        26.54633
     2015.88227        20.30193        24.75028
     2015.88501       -18.91182        50.51114
     2015.88774        -2.70057        21.37053
     2015.89048        -2.51332        21.56051
     2015.89320        21.68192        24.89716
     2015.89596        28.26618        25.09832
     2015.89869        40.75143        47.58159
     2015.90143         4.46268        32.16116
     2015.90417        10.68893        24.83170
     2015.90691        -1.36381        19.90815
     2015.90965        20.94344        19.76766
     2015.91238        19.70868        22.06979
     2015.91514        -2.21205        25.03126
     2015.91787        23.51819        32.83328
     2015.92059       -59.14957        43.91128
     2015.92334        24.68268        44.65204
     2015.92607        28.57994        54.72585
     2015.92882       -28.03381        41.08231
     2015.93153       -15.43758        35.48663
     2015.93427       -68.28033        50.25091
     2015.93702         9.99094        35.63990
     2015.93976        18.53319        41.51815
     2015.94249        70.10243        64.44684
     2015.94524         1.69769        34.09450
     2015.94797        24.80693        29.79517
     2015.95071        -3.16881        33.06636
     2015.95344         1.27643        28.07097
     2015.95619        13.05169        36.77180
     2015.95893       -35.13906        41.95718
     2015.96167        22.31319        49.52770
     2015.96441        -2.41456        35.75165
     2015.96714        19.74169        30.84406
     2015.96988        22.10394        48.12759
     2015.97262        40.94419        39.96796
     2015.97535        22.98543        49.10623
     2015.97809        13.81869        46.15753
     2015.98083        13.71494        31.19529
     2015.98357       -19.10580        28.05660
     2015.98631        -6.34956        27.70537
     2015.98905         0.90570        29.19010
     2015.99177        16.58594        25.77842
     2015.99451       -15.82981        28.62016
     2015.99726        12.24745        30.57745
     2016.00000         4.99870        28.02307
     2016.00273       -10.94805        27.91771
     2016.00548        -7.76680        31.59281
     2016.00821         0.80445        30.08892
     2016.01095        48.41870        38.93344
     2016.01368        -7.54405        47.05635
     2016.01642        -7.73480        26.22543
     2016.01917        -5.23854        44.23217
     2016.02190        -6.58630        60.18742
     2016.02464         3.79495        24.57627
     2016.02737       -16.79980        41.17969
     2016.03011        26.41345        35.76442
     2016.03285       -41.75830        59.74041
     2016.03561        20.75497        63.68851
     2016.03833        11.41121        23.35975
     2016.04108        38.28647        77.64976
     2016.04380       150.95470        87.93271
     2016.04655       -58.24704        23.13464
     2016.04928       133.70921        65.22433
     2016.05201        48.23745        43.77398
     2016.05477       -13.04828        32.60338
     2016.05749       -25.44404        28.93786
     2016.06023        11.14220        27.82671
     2016.06297        13.91845        32.45970
     2016.06572       -12.21428        30.35075
     2016.06846        33.01897        33.66345
     2016.07118        33.58221        31.29746
     2016.07392       -20.85554        37.15815
     2016.07666        11.47971        22.58066
     2016.07940         6.39296        22.30766
     2016.08213        -7.04279        23.19850
     2016.08487         5.40346        24.97379
     2016.08762        12.51072        27.17215
     2016.09035         4.32096        80.47873
     2016.09309        33.50921        45.22997
     2016.09582       -13.74454         9.64116
     2016.09856        -7.25829         9.40488
     2016.10130       -18.39404         9.52622
     2016.10403       -15.11479         9.48950
     2016.10677       -15.83254         9.68586
     2016.10951        -2.35929         9.85190
     2016.11225       -10.47304        10.54637
     2016.11498        -6.82179         9.62520
     2016.11772       -16.63054         9.78165
     2016.12046        -4.84629        10.08499
     2016.12320       -16.19504         9.78964
     2016.12594        -0.99779         9.75771
     2016.12867        14.31946        10.25581
     2016.13141         2.85971         9.60604
     2016.13415        -4.90804        10.00037
     2016.13689       -15.49678        10.81617
     2016.13957        21.57642        10.52881
     2016.14239        -8.03226        10.25421
     2016.14510        -6.27403        11.00137
     2016.14784       -15.79578        11.78364
     2016.15058        -0.63253         9.66351
     2016.15331        -7.41728        10.10095
     2016.15605        -3.37603         9.48950
     2016.15879         4.53822        10.05465
     2016.16153         4.19047         9.93172
     2016.16427         8.97972        10.09297
     2016.16700       -25.43103        10.19035
     2016.16974        -7.13278        10.07860
     2016.17248         1.89147        10.55754
     2016.17522        -8.18628         9.74813
     2016.17796         5.29997        10.41546
     2016.18069        -0.72278        10.15842
     2016.18343        -4.97453        11.28554
     2016.18617       -15.45928         9.64595
     2016.18891        -9.13103         9.29153
     2016.19164        -0.30178         9.31548
     2016.19438         4.59847         9.39530
     2016.19712       -14.14628         9.24204
     2016.19986        -8.80703         9.54537
     2016.20260        -1.92678        10.73635
     2016.20533       -12.66453        11.30949
     2016.20807       -15.71527        10.30849
     2016.21081        13.20498        10.02113
     2016.21355        -6.61577        10.46974
     2016.21629        -3.02252        11.41645
     2016.21902        -0.06127         9.75451
     2016.22176         0.37398         9.59008
     2016.22450         4.73923        10.13128
     2016.22724        -6.58352        10.22867
     2016.22997       -12.70527        10.04028
     2016.23271       -20.18702        10.46974
     2016.23545        -6.12977        10.00356
     2016.23819       -17.34352        11.50905
     2016.24093         1.27073        10.08818
     2016.24366        -7.74902         9.50866
     2016.24640       -12.55377         9.71460
     2016.24914        -9.83052         9.94928
     2016.25188        -2.58127        11.05724
     2016.25462         4.89898         9.97004
     2016.25735        -1.95277         9.74813
     2016.26009        -2.30452        10.36916
     2016.26283       -20.72027        11.73415
     2016.26557        -1.03302        11.84750
     2016.26830         1.42023        10.20313
     2016.27104        -5.83352        12.40148
     2016.27378        10.60373        13.96604
     2016.27926       -14.92876        11.93850
     2016.28199       -11.79551        16.35757
     2016.28458        -3.87439        10.91516
     2016.28747       -10.53401        11.18975
     2016.29021       -21.10476        11.17698
     2016.29295        -6.44251        10.46495
     2016.29568        -3.51526        10.44898
     2016.29842         9.46899        10.48411
     2016.30116        -0.13676         9.92853
     2016.30390        -0.57151        10.07062
     2016.30663        20.59674        10.90079
     2016.30937        -0.61401         9.71141
     2016.31211         6.37124        10.03869
     2016.31485        -2.17951        11.02691
     2016.31759        -9.24026        10.07381
     2016.32032        -5.09301        10.49688
     2016.32306       -17.08276        10.01793
     2016.32580       -35.10351        10.44100
     2016.32854        -6.45626         9.49908
     2016.33128        -5.31801         9.57730
     2016.33401         5.33324         9.62999
     2016.33675       -12.18251         9.88383
     2016.33949         1.56074        10.50646
     2016.34223        -3.91501        14.99098
     2016.34496         1.86424         9.93172
     2016.34770         2.10350        10.26379
     2016.35044        14.01475        10.91037
     2016.35318       -19.19800        10.01953
     2016.35592       -30.03075         9.65074
     2016.35865       -22.34850        10.26858
     2016.36139        -4.24725        10.05146
     2016.36413         6.48800        10.03390
     2016.36687         6.81225         9.46874
     2016.36961        -3.70650         9.72737
     2016.37234        -2.62225         9.70502
     2016.37508         4.81100         9.46715
     2016.37782        -2.12675         9.83274
     2016.39513        21.77447        16.02231
     2016.39698        33.75700         9.54058
     2016.39972        26.71225        10.50805
     2016.40246        -1.29150        10.23665
     2016.40520       -23.09525         9.70981
     2016.40794        -1.73100         9.85509
     2016.41067        -1.10475         9.24524
     2016.41341        -6.34950         9.32985
     2016.41615         1.42375         9.64276
     2016.41889        -1.47999        10.16321
     2016.42162         3.51026        10.27177
     2016.42436        -2.45549         9.23087
     2016.42710        12.13676         9.30750
     2016.42984        -1.77699         9.64436
     2016.43258        -1.85774         9.60444
     2016.43531         2.21851        12.44140
     2016.43805        12.95676         9.94130
     2016.44079        -2.27699         9.61243
     2016.44324         6.75902        11.25840
     2016.45549       -33.60891        20.55632
     2016.45722         8.33451         9.84072
     2016.45995         7.16876         9.92534
     2016.46269        -6.60099         9.97962
     2016.46543         0.84426        10.03390
     2016.46817        15.39051        10.45058
     2016.47091         5.66576         9.88064
     2016.47364         3.76101         9.95567
     2016.47638         6.31426         9.66830
     2016.47912        -3.38549        10.32605
     2016.48186        14.11776        11.66550
     2016.48459        23.68601        10.14884
     2016.48733         4.41226        10.37235
     2016.49007       -16.22548         9.67629
     2016.49281       -19.43723        12.08378
     2016.49555         5.48002        10.02432
     2016.50102        28.38352        10.64216
     2016.50376        -0.39923        11.14824
     2016.50650       -38.30598        11.13228
     2016.50924       -10.80173        11.48031
     2016.51197        20.06052        10.77626
     2016.51471        13.96677        10.82895
     2016.51745        18.37202        10.28934
     2016.52019        -4.47773        13.00974
     2016.52566        -2.17523        11.09077
     2016.52840        28.97002        13.88621
     2016.53114        33.92227        11.29352
     2016.53388         2.40752        11.71659
     2016.53661       -37.81923        12.84690
     2016.53935       -20.34298        12.04227
     2016.54209        35.24827        11.22168
     2016.54483        34.15552        10.45856
     2016.54757         6.98777        10.41067
     2016.55030        -1.61698        10.86886
     2016.55304       -12.87273        10.61342
     2016.55578       -20.02748        11.31108
     2016.55852        22.53978        11.78524
     2016.56125        32.14403        11.76928
     2016.56399        35.77228        11.66391
     2016.56673       -18.63647        12.06941
     2016.56947       -23.58922        11.54098
     2016.57221         6.61003        12.65373
     2016.57494        29.42528        12.79741
     2016.57768        47.19853        12.88841
     2016.58042       -16.63922        13.03529
     2016.58316        -1.91697        12.29452
     2016.58590       -19.24972        13.13108
     2016.58863        10.47253        11.30789
     2016.59137        30.83478        20.53716
     2016.59411         6.38203        11.20093
     2016.59685        23.72528        11.12430
     2016.59958       -30.49847        11.02372
     2016.60232       -13.85722        10.97423
     2016.60506        12.37903        11.04288
     2016.60780        18.02628        13.16620
     2016.61054        15.29053        10.74433
     2016.61327       -20.01622         9.92214
     2016.61601       -19.71197         9.61083
     2016.61875         0.32328         9.58209
     2016.62149        14.44053         9.68427
     2016.62423        36.13478        10.81458
     2016.62696        20.34103        10.49209
     2016.62970        -0.98171         9.45916
     2016.63244       -13.16546         9.53420
     2016.63518         2.86779         8.96745
     2016.63791        27.65104         9.27876
     2016.64065        21.14329         9.25641
     2016.64339         5.57654         9.49748
     2016.64613        -8.72121         9.91097
     2016.64887        -2.89496         9.63797
     2016.65183        26.00048        11.43242
     2016.65434        40.79654        10.81139
     2016.65708         7.66179        10.88642
     2016.65982         7.91604        10.77786
     2016.66256         0.05629        10.45697
     2016.66529        15.50654        11.42124
     2016.66803         2.84679        10.46974
     2016.67077        13.97804        11.37654
     2016.67351         0.11129        15.61520
     2016.67624       -36.96946        27.27432
     2016.68174       -25.62794        20.49885
     2016.68446        23.52429        15.22407
     2016.68720         7.28454        12.76548
     2016.68994        29.25680        16.70560
     2016.69267        27.51804         9.84551
     2016.69541         7.51429        10.53200
     2016.69815        -9.10046        10.30530
     2016.70089        10.26680        13.26518
     2016.70362        49.92105        12.49568
     2016.70636        42.70530        11.56652
     2016.70910         9.18555        14.57430
     2016.71184        -2.74320        10.79861
     2016.71457        13.29705        13.24443
     2016.71731        17.49230        11.61921
     2016.72005        55.33455        12.90597
     2016.72279         5.87780        11.39091
     2016.72553       -19.21695        11.61442
     2016.72826       -11.56870        11.44998
     2016.73100        26.66655        11.17538
     2016.73374        37.27880        11.60484
     2016.73648        47.24605        13.17737
     2016.73921       -11.86470        10.57830
     2016.74195        -7.67545         9.80879
     2016.74469         3.88180         9.49908
     2016.74743        13.44905         9.13987
     2016.75017        23.34630         9.35539
     2016.75290         9.95955         9.51983
     2016.75564        -8.86720         9.90937
     2016.75838         5.32005         9.24045
     2016.76112        27.94730         9.06324
     2016.76386        21.56255         9.62360
     2016.76659        13.15280         9.62201
     2016.76933       -12.41395         9.96206
     2016.77207         1.41331         9.43043
     2016.77481        29.75756        10.05465
     2016.77754        16.85481        10.03230
     2016.78028       -10.06094        10.09616
     2016.78302        -9.94569         9.46715
     2016.78576        -6.90544         9.69864
     2016.78850        14.66581         9.35060
     2016.79123        21.01606         9.42723
     2016.79397        18.25631         9.45916
     2016.79671        -3.25844         9.47673
     2016.79945        -5.24419         9.50227
     2016.80219        -0.91294         9.77367
     2016.80492        17.32131         9.96685
     2016.80766        14.15556         9.20692
     2016.81040         2.13881         9.26439
     2016.81314        -9.85794         9.61881
     2016.81587        -7.50869         9.07920
     2016.81861        -6.64944         9.12869
     2016.82135        13.79681         9.30431
     2016.82409        10.90706         9.11592
     2016.82683        -0.40769         8.95627
     2016.82956         2.15756         8.89561
     2016.83230        -2.00019         9.07282
     2016.83504         2.80406         9.06803
     2016.83778        -1.81469         8.99938
     2016.84052       -12.20343         9.57890
     2016.84325        -1.13518         9.44320
     2016.84599       -10.16693         9.09676
     2016.84873         1.08332         9.63158
     2016.85147         9.60957         9.40329
     2016.85420         9.87982         8.96425
     2016.85694         4.13507         8.94031
     2016.85968        -8.59168         9.14466
     2016.86242         4.02857         9.01215
     2016.86516         9.64682         9.06004
     2016.86789        -0.32393         9.06324
     2016.87063         8.78432         9.38094
     2016.87337        20.37657         9.63158
     2016.87611         3.84282         9.14785
     2016.87885        -7.88393         9.19415
     2016.88158        -9.60768         9.21650
     2016.88432         8.62457         9.16701
     2016.88706         8.97982         9.05366
     2016.88980        10.77607         9.15583
     2016.89253        -0.96468         9.07282
     2016.89527        -2.29343         9.20053
     2016.89801        -2.83618         9.21331
     2016.90075        -0.94193         9.37455
     2016.90349         4.81932         9.23087
     2016.90622         7.66557         9.21331
     2016.90896         1.63282         9.66671
     2016.91170         4.77908         9.37295
     2016.91444        -5.92567         9.20852
     2016.91718         1.00858         9.61243
     2016.91991        -5.64017         9.42404
     2016.92265        -8.95392         8.93073
     2016.92539        -8.24067         9.01215
     2016.93360         9.96508        10.56393
     2016.93634        -4.19967        10.89760
     2016.93908       -19.51942        11.58887
     2016.94455       -10.43592        12.82934
     2016.94729       -32.22367         8.81738
     2016.95003         1.44958        10.28295
     2016.95368         4.12858        16.18834
     2016.95551       -11.00092         9.62679
     2016.95824         1.82133         9.33783
     2016.96098        11.53058         9.13189
     2016.96372         1.03983         8.90518
     2016.96646        -5.53692        11.63038
     2016.96919       -37.05567        10.40588
     2016.97193       -20.43142         8.73596
     2016.97467        -9.23617         8.62899
     2016.97741         6.35808         8.90997
     2016.98015         5.70533         8.88603
     2016.98288         1.73159         9.33145
     2016.98562         7.49684         9.91895
     2016.98836       -17.76691        10.60863
     2016.99218        -2.75077        19.79480
     2016.99384         1.10859         9.18138
     2016.99657         9.06884         9.02332
     2016.99931       -18.54191        10.10255
     2017.00205        33.39334         9.83593
     2017.00479        -1.89141         9.20053
     2017.00752         3.46784         9.36497
     2017.01300        20.53434        12.12689
     2017.01574        -2.92041        12.37594
     2017.01848       -19.50716         9.72099
     2017.02121       -14.12791        10.00995
     2017.02395        17.04234         9.63478
     2017.02669        17.62259        10.57830
     2017.02943        17.02784         9.63797
     2017.03216       -15.34191         9.48630
     2017.03490       -11.29166         9.61402
     2017.03764        -2.12841         9.62201
     2017.04038         9.39084        10.10893
     2017.04312        15.34109         9.98600
     2017.04585         5.46534         9.82157
     2017.04859         2.39559         9.62679
     2017.05133        13.52384         9.29792
     2017.05407         6.13210         9.53101
     2017.05681        19.49735         9.35699
     2017.05954        13.29360         9.44320
     2017.06228         2.58585         9.96685
     2017.06502       -20.48190        10.23346
     2017.06776       -14.10765         9.67309
     2017.07049         4.10360         9.47673
     2017.07323        13.45585        10.29093
     2017.07597         7.83510         9.66671
     2017.07871       -11.71965         9.88862
     2017.08145        -8.03040         9.56453
     2017.08418       -13.07415         9.63957
     2017.08692         2.72210        10.09456
     2017.08966         7.76735        10.10734
     2017.09240         2.80460        10.05306
     2017.09514       -25.16215        10.20472
     2017.09787        15.70210         9.38732
     2017.10061         8.38635         8.79662
     2017.10335        -6.96040         8.91157
     2017.10609         3.14485         8.72159
     2017.10882       -35.94590         9.84392
     2017.11156       -10.03665         8.73436
     2017.11430       -40.82940         9.58529
     2017.11704       -23.50815         9.37934
     2017.11978       -11.97790        10.02272
     2017.12251         5.40236        11.18656
     2017.12525         0.66061         9.63478
     2017.12799        -7.65314        10.02272
     2017.13073        -3.19489         9.62201
     2017.13347         3.72436         9.50067
     2017.13620         5.91161         9.61881
     2017.13894         2.03686         9.64436
     2017.14168        -4.20689        10.33883
     2017.14442       -41.88964        10.87046
     2017.14715       -39.12939        10.56712
     2017.14989        -1.30614         9.60764
     2017.15263        24.53311        10.42504
     2017.15537        14.22736        10.01793
     2017.15811       -17.70539        10.94868
     2017.16084       -10.31114        10.11692
     2017.16358        -6.73589         9.42404
     2017.16632         3.21036         9.68746
     2017.16906        -1.32139         9.48950
     2017.17180        -4.69914        10.00356
     2017.17453       -13.81389        11.12749
     2017.18001        -5.27139        10.94230
     2017.18275        -2.31314         9.63158
     2017.18548       -15.87389         9.97642
     2017.18822        -7.35064        10.41226
     2017.19096       -18.19839        11.00296
     2017.19370        -2.63713         9.97323
     2017.19644        11.44912         9.45757
     2017.19917         5.51537         9.94609
     2017.20191        -4.61338         9.72258
     2017.20465       -11.19813         9.76888
     2017.20739        -0.87688        11.88103
     2017.21013        10.06437        10.09456
     2017.21286         0.13262        11.54098
     2017.21560         9.82987        10.74274
     2017.21834       -16.69688        10.13288
     2017.22108        -7.82963        10.29093
     2017.22381       -17.06838         9.83114
     2017.22655        -9.99013        10.80181
     2017.22929        -2.13088        10.31169
     2017.23203        -2.65363        10.46814
     2017.23477        -4.11638        10.02432
     2017.23750        -6.60613        10.56712
     2017.24024        10.28812        10.53839
     2017.24298        -3.58363        10.71560
     2017.24572       -25.53238        13.57649
     2017.24846       -20.40113        11.28235
     2017.25119        13.33012        11.75012
     2017.25393       -13.40863        10.57032
     2017.25667       -20.07138        10.53200
     2017.25941       -22.18813         9.77846
     2017.26214       -22.16288        10.37235
     2017.26488         1.02938         9.89500
     2017.26762        -6.77637         9.34422
     2017.27036       -10.35912         9.42723
     2017.27310       -15.29287        10.09776
     2017.27583       -22.70962        10.55595
     2017.27857       -14.97437        10.08499
     2017.28131        -4.32812        10.65812
     2017.28405         8.34213        10.63577
     2017.28679       -14.34762        10.38672
     2017.28952       -30.97537        10.47133
     2017.29226       -25.20612        10.67728
     2017.29500         8.11113        10.86726
     2017.29774        -0.23362        10.78105
     2017.30047        -3.02937        10.19035
     2017.30321       -46.81312        10.97742
     2017.30595       -13.88787         9.85190
     2017.30869         1.52138        11.00775
     2017.31143         0.33963        10.80500
     2017.31416         7.60088         9.62360
     2017.31690        -4.93787        10.05944
     2017.31964       -20.76262        10.19355
     2017.32238       -16.81737         9.86786
     2017.32512       -13.87712         9.14785
     2017.32785        -3.83587         9.47353
     2017.33059        -8.37662         9.20213
     2017.33333       -40.48037        10.32286
     2017.33607       -39.40311         9.38253
     2017.33880        -6.83186         9.32985
     2017.34154        12.45639        10.08658
     2017.34428        -1.31036        11.03170
     2017.34702       -24.92711         9.81678
     2017.34976       -34.92386        10.14246
     2017.35249       -20.75361         9.86786
     2017.35523         0.83264         9.66511
     2017.35797       -16.28011        10.58788
     2017.36071       -12.03786         9.79602
     2017.36344       -29.41061         9.75611
     2017.36618       -35.60336         9.79283
     2017.36892        -5.34411        10.52083
     2017.37166       -15.33186        12.50366
     2017.37440        -4.66361        12.86606
     2017.37713        -6.32536        11.01095
     2017.37987       -39.04911        10.27976
     2017.38261        -8.85386         9.59646
     2017.38535        -1.30061         9.53580
     2017.38809         4.26464         9.43681
     2017.39082        -7.28911         9.90299
     2017.39356       -25.38186        10.14725
     2017.39630        -7.61361         9.74653
     2017.39904        -3.24636         9.70183
     2017.40177         7.28589         9.98121
     2017.40451        -3.93585        10.77307
     2017.40725       -24.57860        10.01953
     2017.40999       -31.73835        10.36277
     2017.41273        -0.89410        10.11053
     2017.41546         6.13515         9.74972
     2017.41820         7.39240         9.99878
     2017.42094       -11.59235         9.57571
     2017.42368       -13.54010         9.24204
     2017.42642       -13.27485         9.34741
     2017.42915         2.86040         9.37934
     2017.43189         5.90965         9.40009
     2017.43463        -9.74910         9.46236
     2017.43737       -35.35385        10.75072
     2017.44010        -5.71860         9.91735
     2017.44284        -0.03435         9.72737
     2017.44558         9.32590         9.82636
     2017.44832        -1.75285         9.56294
     2017.45106        -5.81460         9.51025
     2017.45379       -20.92535        10.01953
     2017.45653        -8.15110         9.58688
     2017.45927         0.60115         9.91097
     2017.46201         7.07140         9.68746
     2017.46475         0.99165         9.45118
     2017.46748       -25.77210        10.68207
     2017.47022       -17.99885         9.44799
     2017.47296        -4.13960         9.34581
     2017.47570        -0.26834         9.61562
     2017.47843        -4.26609         9.56453
     2017.48117        -7.99084         9.90299
     2017.48391       -18.97859         9.72578
     2017.48665       -10.00934         9.60444
     2017.48939        -2.68709        10.12170
     2017.49212         0.44916         9.36018
     2017.49486        -0.97959        10.58309
     2017.49760       -13.89934        10.25741
     2017.50034       -12.78309         9.80560
     2017.50308         2.10016        10.09137
     2017.50581        -8.91459         9.99878
     2017.50855       -13.14534         9.99079
     2017.51129        -4.33109         9.99558
     2017.51403         0.54216        10.27497
     2017.51676         3.95841         9.85988
     2017.51950        -6.80634        10.12809
     2017.52224        -4.67309         9.97164
     2017.52498        -1.19884         9.40009
     2017.52772        -6.89259         9.48950
     2017.53045        -2.17234         9.26120
     2017.53319        -2.80909         9.26599
     2017.53593        -6.65284         9.78644
     2017.53867        -9.10359         9.53101
     2017.54141         8.19966         9.22448
     2017.54414         3.52391         9.31548
     2017.54688        -1.81583         9.49588
     2017.54962        -1.60358         9.78165
     2017.55236         0.34467         9.35060
     2017.55509        14.64992         9.70822
     2017.55783        13.53117         9.79123
     2017.56057        -1.74158         9.45916
     2017.56331       -13.05733        10.14565
     2017.56605        -5.39808        10.18556
     2017.56878         4.50717         9.73695
     2017.57152        18.21842         9.62201
     2017.57426         8.35967         9.51344
     2017.57700        -4.76108         9.67629
     2017.57974       -11.62383         9.93332
     2017.58247         7.34542         9.57730
     2017.58521        23.61267        10.35639
     2017.58795         3.10192         9.33623
     2017.59069         2.23617         9.81358
     2017.59342       -12.41758         9.47673
     2017.59616       -11.58133         9.34741
     2017.59890        -4.80108         9.20053
     2017.60164         6.98217         9.43681
     2017.60438         3.34342         9.52462
     2017.60711       -10.02433         9.80720
     2017.60985       -16.46508        10.05146
     2017.61259       -18.94383         9.86627
     2017.61533         3.11142         9.39690
     2017.61807        22.09568        10.10255
     2017.62080         1.64793         9.55655
     2017.62354        -2.00582         9.79762
     2017.62628       -13.19857         9.71939
     2017.62902       -11.24432         9.64595
     2017.63175         6.46993         9.47034
     2017.63449         9.21118         9.68746
     2017.63723        -5.87257         9.67629
     2017.63997        -4.11632        10.80181
     2017.64271        -4.74307         9.40488
     2017.64544         8.46918         9.36976
     2017.64818        -1.14357         9.29473
     2017.65092        -0.82832         9.32346
     2017.65366         6.81193         9.55655
     2017.65639        -5.98682         9.47194
     2017.65913        -2.18157         9.47513
     2017.66187        13.96368         9.79283
     2017.66461         5.66993         9.66990
     2017.66735        -0.85382         9.80081
     2017.67008        -0.91857         9.98281
     2017.67282         9.11868         9.84711
     2017.67556        -3.87607         9.81199
     2017.67830        10.27418         9.59167
     2017.68104        -9.00957         9.70662
     2017.68377         3.95068         9.86946
     2017.68651         4.72894         9.78006
     2017.68925         5.98519         9.34581
     2017.69199         5.02744         9.16222
     2017.69472         7.57469         9.23246
     2017.69746        11.36494         9.40648
     2017.70020         3.32519         9.70662
     2017.70294         7.95144        10.00516
     2017.70568         1.88869         9.78165
     2017.70841        10.41194         9.15424
     2017.71115         4.45919         9.67309
     2017.71389        -0.43756         9.77527
     2017.71663         1.05169         9.68746
     2017.71937        -5.48706         9.27717
     2017.72210        12.59819         9.89021
     2017.72484         8.35144         9.22448
     2017.72758        -0.91031         9.23725
     2017.73032        -2.21306         9.17659
     2017.73305         1.08319         9.35060
     2017.73579         9.02644         9.73057
     2017.73853        -0.70331         9.89500
     2017.74127        -8.26606         9.31388
     2017.74401         8.49819         9.12231
     2017.74674         8.09544         9.13029
     2017.74948         5.61969         9.13667
     2017.75222        -0.59206         9.20692
     2017.75496        -4.40081         9.28515
     2017.75770        -8.44655         9.39371
     2017.76043         1.12270         9.30750
     2017.76317        18.28095         9.33943
     2017.76591        16.44620         9.36338
     2017.76865         1.55145         9.31708
     2017.77138       -11.77630         9.18138
     2017.77412        -2.86705         9.31229
     2017.77686         9.99820         9.42085
     2017.77960         6.04545         9.95248
     2017.78234        -5.73230         9.37136
     2017.78507        -8.15005         9.24524
     2017.78781        -3.83280         9.34102
     2017.79055        -1.38455         9.15743
     2017.79329        13.33570         9.41446
     2017.79603       -10.82205         9.87425
     2017.79876        -3.84780         9.41287
     2017.80150        -7.71655         9.35060
     2017.80424        14.08670         9.50546
     2017.80698        21.28495         9.68906
     2017.80971        -7.17280         9.74334
     2017.81245        -1.90855         9.52622
     2017.81519       -18.80830         9.82316
     2017.81793        -5.17105         9.72418
     2017.82067       -11.21780         9.52781
     2017.82340         5.79445         9.51344
     2017.82614       -14.29530         9.23885
     2017.82888       -15.09904         9.38732
     2017.83162        -2.88979         9.80081
     2017.83436        -8.70154        17.82633
     2017.83709        -1.50229        17.79760
     2017.83983        -7.60504        18.33242
     2017.84257        13.53321        19.93688
     2017.84531        -6.56354        20.46372
     2017.84804       -26.04529        20.31206
     2017.85078         1.99096        21.53177
     2017.85352       -14.46479        18.93429
     2017.85626       -23.14854        20.62976
     2017.85900       -20.67829        19.81396
     2017.86173        -7.76604        18.50484
     2017.86447        -2.77379        17.69861
     2017.86721         1.55446        17.44797
     2017.86995        19.50971        17.20051
     2017.87269       -19.19604        17.47670
     2017.87542         5.84121        17.73374
     2017.87816        -3.80754        18.11849
     2017.88090        -0.63629        17.39049
     2017.88364         0.79496        17.79760
     2017.88637         3.26421        17.27874
     2017.88911         7.55046        18.67407
     2017.89185       -22.39129        17.47990
     2017.89459       -11.66204        17.69542
     2017.89733        -1.01578        17.93809
     2017.90006       -15.01553        18.26217
     2017.90280        -2.87328        17.39528
     2017.90554        -6.92103        17.24681
     2017.90828        -1.90578        16.33362
     2017.91102       -12.56453        18.26696
     2017.91375         4.18272        18.08017
     2017.91649        14.64097        16.77425
     2017.91923         4.46822        17.05523
     2017.92197       -16.78753        17.02969
     2017.92470       -43.40628        17.46074
     2017.92744       -10.16003        18.39149
     2017.93018       -12.08978        17.92851
     2017.93292       -18.23553        17.97800
     2017.93566        -9.63028        17.54855
     2017.93839        -7.17103        17.07599
     2017.94113       -32.53978        17.04086
     2017.94387        -3.31753        18.00514
     2017.94661        -4.17528        17.84549
     2017.94935        -6.47703        17.45116
     2017.95208        -2.63678        19.77883
     2017.95482       -39.17353        17.65711
     2017.95756       -46.60028        18.71079
     2017.96030        -8.83403        17.68265
     2017.96303        -2.08278        18.96622
     2017.96577         5.93047        10.03230
     2017.97399       -13.19477        11.32066
     2017.97672        -0.30152         9.58050
     2017.97946        -9.73327         9.61881
     2017.98220       -17.54202         9.24683
     2017.98494        -8.14177         9.58848
     2017.98767        -0.57052         9.86307
     2017.99041        -0.25327         9.26439
     2017.99315        -6.64502         9.46076
     2017.99589       -11.80677         9.21171
     2017.99863        -5.53052         9.14146
     2018.00136         0.46573         9.38094
     2018.00410        -7.12802         9.50387
     2018.00684        -7.44477         9.59806
     2018.00958       -16.33552         9.37295
     2018.01232       -16.72027         9.79443
     2018.01505       -14.74502         9.76250
     2018.01779         2.23023         9.43841
     2018.02053        11.22348         9.35220
     2018.02327         8.12373         9.30431
     2018.02600        -0.76702         9.33783
     2018.02874         0.84723         9.34262
     2018.03148       -14.24052         9.49269
     2018.03422       -11.10027         9.22767
     2018.03696       -10.97402         9.37136
     2018.03969       -21.13876         9.52143
     2018.04243        -1.89451         9.47353
     2018.04517        -1.90326         9.20692
     2018.04791       -17.65201         9.48151
     2018.05065        -4.23076         9.06803
     2018.05338       -10.72851         9.17020
     2018.05612        -6.78926         8.98022
     2018.05886        -7.93601         9.11752
     2018.06160         1.45824         9.21171
     2018.06433        -7.80251         9.47673
     2018.06707        -2.30926         9.52302
     2018.06981         1.77799         9.35859
     2018.07255        -9.33876         9.56932
     2018.07529       -19.16451         9.57411
     2018.07802       -14.73526         9.20053
     2018.08076        -8.59501        10.09297
     2018.08350       -18.78876         9.50866
     2018.08624       -21.23951         9.45437
     2018.08898       -13.05126         9.40009
     2018.09171        -8.48601         9.40648
     2018.09445       -13.61576         9.47992
     2018.09719       -17.00951        10.11851
     2018.09993        -2.25426         9.55176
     2018.10266       -18.74001         9.40967
     2018.10540        -8.88476         9.93971
     2018.10814       -18.00451        10.11692
     2018.11088        -7.53025         9.82476
     2018.11362        -7.32000         9.54537
     2018.11635       -15.45275         9.69385
     2018.11909       -13.96450        10.03071
     2018.12183        34.78275        10.49369
     2018.12457        -5.57700        11.27277
     2018.12731       -11.53075         9.24204
     2018.13004       -17.38350         9.72578
     2018.13278       -40.90825         9.97004
     2018.13552        -8.13100         9.20852
     2018.13826       -12.63775         9.52941
     2018.14099        -3.18250         9.38892
     2018.14373        -8.32925         9.40329
     2018.14647       -16.88800        10.11372
     2018.14921       -15.77075         9.92853
     2018.15195        -0.13850         8.98182
     2018.15468       -12.85725         9.67948
     2018.15742        -3.80500         9.43522
     2018.16016        -2.50275         9.55176
     2018.16290        -8.09450         9.52781
     2018.16564       -13.70425         9.55495
     2018.16837       -16.29800         9.59965
     2018.17111       -20.65875         9.38413
     2018.17385        -5.69250         9.34741
     2018.17659        -7.17325         9.54378
     2018.17932       -10.32299         9.66511
     2018.18206       -17.17974         9.61562
     2018.18480        -8.76449         9.48950
     2018.18754         0.56376         9.34741
     2018.19028        -8.03199         9.30909
     2018.19301        -9.77274         9.37136
     2018.19575        -4.35249         9.65234
     2018.19849       -20.55724         9.50227
     2018.20123        -0.75999         9.66511
     2018.20397         0.80526         9.34102
     2018.20670         1.08951         9.32187
     2018.20944       -17.65624         9.64595
     2018.21218       -19.16799         9.45118
     2018.21489       -20.28676         9.45118
     2018.21765        -1.20349         9.40808
     2018.22039        -3.77324         9.28036
     2018.22313        -8.26899         9.41766
     2018.22587       -18.15574         9.19574
     2018.22861       -18.04049         9.54378
     2018.23134       -10.52824         9.34741
     2018.23408       -21.10999         9.38732
     2018.23682        -3.13174         9.36018
     2018.23956       -15.04949         9.16062
     2018.24230       -18.88024         9.26759
     2018.24503       -13.09899         9.45597
     2018.24777        -3.03074         9.42883
     2018.25051         8.18852         9.48151
     2018.25325       -15.40223         9.57251
     2018.25598       -12.13698         9.14146
     2018.25872       -12.83573         9.18776
     2018.26146        -4.47548         9.34581
     2018.26420        -6.27723         9.42564
     2018.26694       -18.41398         9.17499
     2018.26967       -16.23073         9.16222
     2018.27241       -17.13048        12.29133
     2018.27515        -4.05523         9.25801
     2018.27789         5.62302         9.59167
     2018.28062       -13.54273         9.54218
     2018.28336       -16.99748         9.33304
     2018.28974        -6.38024        15.01493
     2018.29158         2.01727         9.28994
     2018.29431        -4.44748         9.30111
     2018.29705        -7.95623         9.17818
     2018.29979       -14.55598         9.62839
     2018.30253       -16.04173         9.28994
     2018.30527       -14.91148         9.48311
     2018.30800        -5.97423         9.43202
     2018.31074        -2.65698         9.41606
     2018.31348       -10.69073         9.40329
     2018.31622       -16.65048         9.36497
     2018.31895        -8.00323         9.47034
     2018.32169       -17.46597         9.50706
     2018.32443       -10.26272         9.13189
     2018.32717       -10.87847         9.23566
     2018.32991        -1.15222         9.62520
     2018.33264        -5.02697         9.26759
     2018.33538        -8.00172         9.55815
     2018.33812        -8.81947         9.30750
     2018.34086        -1.51122         9.05525
     2018.34360        -4.32297         9.03610
     2018.34633        -4.89672         9.03290
     2018.34907        -7.94747         9.04567
     2018.35180       -12.56622         9.37136
     2018.35455       -10.06597         9.19574
     2018.35728         6.45328         9.07760
     2018.36002         0.40853         9.16860
     2018.36276        -5.23622         9.39211
     2018.36550        -4.77897         9.24045
     2018.36824        -8.61772         8.98501
     2018.37097         6.40753         9.42723
     2018.37371         4.14078         9.09836
     2018.37645        -7.13497         9.41446
     2018.37919        -6.76872         9.19574
     2018.38193        -9.25447         9.19255
     2018.38466        -2.90622         9.07282
     2018.38740         3.34503         9.06164
     2018.39014        17.67028         9.19255
     2018.39288       -15.98046        12.66011
     2018.39561       -10.80721         9.40009
     2018.39835        -4.18296         9.40329
     2018.40109         3.16529         9.26280
     2018.40383        14.54854         9.35699
     2018.40657         6.48479         9.11592
     2018.40930         4.50004         9.43043
     2018.41204        -6.58571         9.09676
     2018.41478        -5.23746         9.02013
     2018.42299         2.28629         9.13029
     2018.42573        -6.81146         9.16860
     2018.42847        -2.63521         9.16062
     2018.43121        -3.08896         9.11911
     2018.43394        -2.09971         8.81578
     2018.43668        -0.31446         8.98182
     2018.43942        -4.57521         9.34901
     2018.44216        -6.09096         8.93552
     2018.44490        -1.27271         8.86208
     2018.44763         3.11654         9.05046
     2018.45037         7.34379         9.45597
     2018.45311         5.78804         9.41287
     2018.45585         1.27329         9.07441
     2018.45859        -5.43146         9.18776
     2018.46132       -14.32520         9.21171
     2018.46406         1.04405         9.45597
     2018.46680         7.95830         9.34422
     2018.46954         5.96455         9.47194
     2018.47227         6.54680         9.58848
     2018.47501         2.21705         9.30590
     2018.47775        -3.75770         9.53260
     2018.48049        -2.77545         9.41925
     2018.48323        12.24680         9.10634
     2018.48596         6.03105         9.00097
     2018.48870        10.74830         8.98980
     2018.49144        -4.44245         9.05206
     2018.49418       -10.14120         9.24364
     2018.49692         6.80905         9.45916
     2018.49965        14.43030         9.21810
     2018.50239         3.40755         9.37934
     2018.50513        -4.10220        10.76509
     2018.50787        -8.02895         9.32666
     2018.51060         1.02830         9.31229
     2018.51334         9.76655         9.51344
     2018.51608        18.08680         9.36657
     2018.51882        15.19705         9.45597
     2018.52156        -1.38270         9.23246
     2018.52429        -8.54845         9.37136
     2018.52703        -8.25620         9.70023
     2018.52977        -5.03895         9.30271
     2018.53251         9.11531         9.41127
     2018.53525         6.95556         9.04887
     2018.53798        -8.23419         9.36657
     2018.54072        -2.58994         9.30111
     2018.54346         1.99631         9.27557
     2018.54620         4.68056         9.29632
     2018.54893         3.99081         9.11911
     2018.55167        10.46006         9.11113
     2018.55441         3.33831         9.05206
     2018.55715        -4.46544         9.37455
     2018.55989         0.75181         9.50227
     2018.56262         3.52806         9.24683
     2018.56536         8.01231         9.01215
     2018.56810        11.25356         9.15903
     2018.57084         9.66381         9.10634
     2018.57357         3.17606         9.49748
     2018.57631        -3.20169         9.74813
     2018.57905        -8.04544         9.79283
     2018.58179        11.34181         9.28994
     2018.58453        12.87506         9.56613
     2018.58726        10.46731         9.13189
     2018.59000         7.33256         8.89082
     2018.59274         0.01781         9.01853
     2018.59548        -0.87794         9.03610
     2018.59822        15.05131         9.21331
     2018.60095        16.42456         9.31708
     2018.60369         3.63282         9.09836
     2018.60643         1.95207         9.00896
     2018.60917        -2.04168         8.84931
     2018.61547         0.40950        15.41085
     2018.61738        10.45307         9.04727
     2018.62012        11.71832         9.07441
     2018.62286         0.01357         9.33623
     2018.62559        -4.37218         9.63318
     2018.62833        -8.44093         9.62360
     2018.63107        19.42932         9.59008
     2018.63381        21.33757         9.56932
     2018.63655        10.05582         8.99618
     2018.63928         6.44407         9.52622
     2018.64202         3.34332         9.78964
     2018.64476         9.06457         9.18457
     2018.64750         6.37382         9.40169
     2018.65023        13.35007         9.66990
     2018.65297         1.50732         9.39052
     2018.65571         6.20957         9.19734
     2018.65845         3.67182         9.52302
     2018.66119        24.45907         9.35699
     2018.66392        18.36332         9.33623
     2018.66666         8.23457         9.10794
     2018.66940         2.85182         9.31069
     2018.67214         6.04907         9.37295
     2018.67488        -0.18967         8.99618
     2018.67761         9.51658         8.98980
     2018.68035        -4.87217         9.41766
     2018.68309        -8.81492         9.64276
     2018.68583         5.40133         9.11592
     2018.68856         3.38958         9.27238
     2018.69130         0.87783         9.31548
     2018.69404         1.50308         9.56294
     2018.69678        -2.95067         9.28674
     2018.69952         8.51658         9.27876
     2018.70225         9.27583         9.83753
     2018.70499        -7.38592         9.50067
     2018.70773        -4.38667         9.65872
     2018.71047        -8.39942         9.37136
     2018.71321        -1.49017         9.65074
     2018.71594         4.50408         9.83274
     2018.71868        -9.09967         9.51823
     2018.72142       -10.70642         9.21650
     2018.72416        -6.10917         9.27238
     2018.72689         1.81208         9.40329
     2018.72963        -2.54267         9.57411
     2018.73237        -5.67042         9.55974
     2018.73511       -19.98817         9.47513
     2018.73785        -7.51292         9.49109
     2018.74058        -8.63167         9.56613
     2018.74332        23.12359         9.87744
     2018.74606        -3.06816         9.31867
     2018.74880        -5.00591         9.44959
     2018.75154        -1.69666         9.50706
     2018.75427        -3.75441         9.70023
     2018.75701         8.84884         9.59487
     2018.75975         2.99309         9.05845
     2018.76249        -6.23766         8.94190
     2018.76522        -2.93841         9.39211
     2018.76796        -3.36016         9.14945
     2018.77070         4.90209         9.07920
     2018.77344         6.71734         9.05845
     2018.77618         4.39059         9.08559
     2018.77891         3.05084         9.11113
     2018.78165        -8.20591         9.56772
     2018.78439        -6.83166         9.11432
     2018.78713        -9.71141         9.26280
     2018.78987        -0.75916         9.33464
     2018.79260        -5.52691         8.86368
     2018.79534         6.86134         9.17180
     2018.79808        -7.00041         9.10953
     2018.80082        -6.09616         9.10474
     2018.80355         0.49209         9.26759
     2018.80629         4.20434         9.41446
     2018.80903         3.39259         9.22448
     2018.81177        -4.77816        10.06742
     2018.81451        -1.56890         9.54218
     2018.81724        -7.02365         9.25960
     2018.81998         6.38360         9.91576
     2018.82272        -1.32415         9.48950
     2018.82546       -10.67990         9.51823
     2018.82820        -7.17265         9.15903
     2018.83093       -13.38640         9.28036
     2018.83367        -0.71715         9.26120
     2018.83641         6.98910         9.34262
     2018.83915        -0.93165         9.07601
     2018.84188        -5.96940         9.09676
     2018.84462         3.25785         9.04408
     2018.84736         2.73410         9.35060
     2018.85010        17.22735         9.79443
     2018.85284        -1.61040         9.50866
     2018.85557        -6.11715         9.45757
     2018.85831        -1.22690         9.21171
     2018.86105        -9.24665         9.39530
     2018.86379        -8.97540         9.60604
     2018.86653         3.95885         9.73216
     2018.86926        -6.83490         9.12071
     2018.87200        -3.71365         9.21490
     2018.87474         6.46360         9.22129
     2018.87748         1.70385         9.12869
     2018.88021        -3.95090         9.55655
     2018.88295         0.64435         9.14466
     2018.88569        -0.36439         9.15424
     2018.88843         7.89586         9.08718
     2018.89117        -1.73589         9.25002
     2018.89390        -0.89164         9.31229
     2018.89664         3.76461         9.62520
     2018.89938        -1.65314         9.46715
     2018.90212        -2.29689         9.25162
     2018.90485         5.78936         9.57730
     2018.90759        -1.92839         9.23087
     2018.91033         5.46686         9.35220
     2018.91307         6.14011         9.68108
     2018.91581         2.17236         9.30750
     2018.91854         7.29461         9.57411
     2018.92128         7.01886         9.33943
     2018.92402         9.46711        10.05146
     2018.92676         1.62436        10.78744
     2018.92950         5.25861        10.99658
     2018.93223        -0.01114        10.58788
     2018.93497         0.79511         9.71620
     2018.93771        -3.13764         9.23566
     2018.94045        -2.32439         9.30909
     2018.94318        -6.67314         9.16541
     2018.94592         6.89411         9.21490
     2018.94866         0.17436         9.18776
     2018.95140         5.09261        10.44100
     2018.95414        21.31786         9.77048
     2018.95687         5.59112         9.64755
     2018.95961         7.63237         9.74653
     2018.96235         7.32462         9.19415
     2018.96509         1.25387        10.68367
     2018.96783        -1.16688         9.50387
     2018.97056       -10.66763        12.58987
     2018.97330       -10.21538        10.72677
     2018.97604        -6.91613         9.25002
     2018.97878         1.66912         9.49429
     2018.98151       -11.68563         9.27397
     2018.98425        -9.36638        10.04507
     2018.98699        -7.90713        10.06742
     2018.98973        -4.68888         9.22288
     2018.99247        -5.06963         9.34422
     2018.99520         1.91262         9.52781
     2018.99794       -24.06213        11.34940
     2019.00068       -15.14088         9.66511
     2019.00342         4.58937        10.76668
     2019.00616       -14.90338         9.30590
     2019.00889       -10.41813         9.30750
     2019.01163        -7.75388         9.40329
     2019.01437         0.71237         9.17978
     2019.01711         6.43762         9.34102
     2019.01984        -2.09213        10.05465
     2019.02258        -6.79888         9.12710
     2019.02532       -18.46362         9.18457
     2019.02806       -12.54737        11.16740
     2019.03080       -12.22312         9.44001
     2019.03353        -9.54187         9.22129
     2019.03627        -7.34162         9.79602
     2019.03901       -17.83137        14.19114
     2019.04175       -38.54112        11.12909
     2019.04449        -3.18287        11.34301
     2019.04722        -4.85762         9.43522
     2019.04996       -12.48037         9.32506
     2019.05270       -14.41012         9.63637
     2019.05544       -13.64487        11.04288
     2019.05817        -9.73562         9.78964
     2019.06091       -18.00437         9.64276
     2019.06365        11.34888        10.33723
     2019.06639        17.32513        10.59905
     2019.06913        -1.40562        10.13288
     2019.07186       -17.66337        10.13288
     2019.07460       -12.20312        10.30211
     2019.07734         4.70113         9.22288
     2019.08008        22.77738        10.35479
     2019.08282         8.03663        10.41865
     2019.08555       -17.59512        10.01474
     2019.08829        -4.68387         8.91796
     2019.09103         2.88038        10.83533
     2019.09377         5.61663         9.44799
     2019.09650         9.96389         9.68586
     2019.09924       -30.96986        15.60084
     2019.10198       -12.94661         9.60444
     2019.10472        -6.99436         9.84072
     2019.10746        -0.59411         9.30271
     2019.11019        -1.45386         9.50387
     2019.11293         7.59339         9.24683
     2019.11567        -1.79936         9.18297
     2019.11841        18.42689         9.20532
     2019.12115       -25.49186        10.20951
     2019.12388        23.06139         9.83593
     2019.12662        -2.07836         9.26759
     2019.12936         2.55689         9.22129
     2019.13210         8.41014         9.47513
     2019.13483       -12.58361         9.61083
     2019.13757        -2.86036         9.33943
     2019.14031        -1.40911         9.49269
     2019.14304        -7.21486        10.30370
     2019.14579       -37.64660        10.30690
     2019.14852         8.67864         9.22448
     2019.15126         5.38589         9.21490
     2019.15400         1.34814         9.70183
     2019.15674        -5.10461         9.66671
     2019.15948         2.14264         9.00576
     2019.16221        -5.58311         9.22608
     2019.16495        -8.14286         8.94829
     2019.16769       -14.76560         9.13189
     2019.17043         1.20465         9.08399
     2019.17316        -3.43610         9.25960
     2019.17590        -3.99485         8.98022
     2019.17864       -20.21260         9.22288
     2019.18412        -3.51010         8.94829
     2019.18685       -11.20385         9.14625
     2019.18959       -10.89760         9.09517
     2019.19233         1.56065         8.99299
     2019.19507         8.75090         8.99459
     2019.19780        -3.25385         9.08878
     2019.20054        -9.65160         9.20053
     2019.20328       -12.35335         8.96585
     2019.20602       -11.46310         9.31548
     2019.20876        -9.15985         8.90039
     2019.21149         0.02040         8.98501
     2019.21423        -4.81635         8.88283
     2019.21697        -7.70410         8.83015
     2019.21971         3.78115         9.17659
     2019.22245        -4.41660         8.96904
     2019.22518        -0.70635         9.05685
     2019.22792        -1.07610         9.03450
     2019.23066        -9.36885         9.09517
     2019.23340        -9.71860         9.02173
     2019.23613        -8.21935         8.93552
     2019.23887       -16.42609         9.31708
     2019.24161       -12.96184         9.49748
     2019.24435       -15.96559         9.49748
     2019.24709        -8.19334         9.37136
     2019.24982         9.91891        10.77307
     2019.25256       -10.24184         9.29473
     2019.25530        -6.35059         9.22927
     2019.25804        -9.11134         9.22608
     2019.26078         2.00291         9.23406
     2019.26351         4.54516         9.29153
     2019.26625        -0.35959         9.27397
     2019.26899        -5.32634         9.45916
     2019.27173        -9.21709         9.90299
     2019.27446        -5.24084         9.14945
     2019.27720        -0.99959         9.36338
     2019.27994        -3.48334         9.03131
     2019.28268        -3.34909         9.23885
     2019.28542         0.61016         9.18776
     2019.28815        -1.66959         9.08080
     2019.29089        -1.45134         9.19095
     2019.29363        -4.60909         9.14306
     2019.29637         5.88316         9.31867
     2019.29911        -1.56059         9.22288
     2019.30184       -21.52834         9.43681
     2019.30458       -11.10709         9.40009
     2019.30732        -1.12283         9.33145
     2019.31006         3.23742         9.48630
     2019.31279        10.31967         9.91895
     2019.31553         6.27192         9.37136
     2019.31827       -14.09983         9.55815
     2019.32101        -0.38058         9.50866
     2019.32375        -1.66933         9.57411
     2019.32648        11.94492         9.35539
     2019.32922         9.51317         9.76888
     2019.33196        -7.04058        10.01793
     2019.33470        -9.43633        10.11213
     2019.33744        -0.21208         9.40648
     2019.34017         2.80217         9.19574
     2019.34291         8.33442         9.18936
     2019.34565         5.20967         9.41925
     2019.34839        -0.08808         9.60604
     2019.35112        -0.82483        14.12569
     2019.35386        -0.12658         9.63478
     2019.35660         7.20567         9.33304
     2019.35934         8.95692         9.20213
     2019.36208        -0.92683         9.27078
     2019.36481         7.41342         9.59806
     2019.36755        -2.07833         8.90838
     2019.37029         3.00492         9.05046
     2019.37303         5.89417         8.92115
     2019.37577         7.80842         9.32985
     2019.37850         5.42968         8.93232
     2019.38124        -4.80007         9.02332
     2019.38398         4.76718         9.00417
     2019.38672        -0.37257         9.02971
     2019.38945         3.53568         9.13348
     2019.39219        11.75593         9.29952
     2019.39493        -5.74182         9.21810
     2019.39767         6.95443         9.02811
     2019.40041        -1.77632         9.24204
     2019.40314        10.15893         9.46874
     2019.40588        14.55218         9.13189
     2019.40862         9.70643         9.23566
     2019.41136        11.20268         9.11911
     2019.41410         8.79793         9.21331
     2019.41683         5.65818         9.54537
     2019.41957         9.26743         9.28674
     2019.42231         3.48468         9.34102
     2019.42505        10.88793         9.33783
     2019.42778        12.77218         9.33464
     2019.43052         4.72943         9.61881
     2019.43326         3.12768         8.92913
     2019.43600         0.79793         9.08239
     2019.43874        -1.71782         9.21810
     2019.44147        -1.55257         9.30590
     2019.44421        15.21468         9.19574
     2019.44695         9.31993         9.27397
     2019.44969         5.10919         9.31388
     2019.45243         3.20444         9.35699
     2019.45516         7.91769         9.43202
     2019.45790        10.49394         9.27078
     2019.46064         9.59819         9.11432
     2019.46338         1.64044         9.90778
     2019.46611         7.81469         9.65234
     2019.46885        12.68194         9.71460
     2019.47159        12.43319         9.44639
     2019.47433        10.46844         9.41446
     2019.47707         7.74769         9.59167
     2019.47980         7.13194         9.51344
     2019.48254         2.57219         9.39211
     2019.48528         3.90544         9.35220
     2019.48802         4.15569         9.52143
     2019.49076        -0.03706         9.26759
     2019.49349        10.64019         9.24843
     2019.49623         5.25644         9.13029
     2019.49897        16.19869         9.32187
     2019.50171        11.83394         9.14466
     2019.50444        -1.08181         9.42564
     2019.50718         3.42344         9.08239
     2019.50992         6.39969         8.90199
     2019.51266         5.92894         9.04567
     2019.51540        14.93919         8.97383
     2019.51813        -2.24556         9.28674
     2019.52087        -7.66830         9.47832
     2019.52361         3.87295         9.21810
     2019.52635         9.87120         9.18617
     2019.52908        19.73245         9.54537
     2019.53182        12.10270         9.49748
     2019.53456        -3.77705         9.61562
     2019.53730         4.46120         9.51664
     2019.54004        11.27945         9.35699
     2019.54277        25.50370         9.31229
     2019.54551        16.97295         9.59327
     2019.54825         2.00420         9.24204
     2019.55088         1.71136        10.23825
     2019.55373        15.03270         9.48311
     2019.55646        19.59395         9.39211
     2019.55920         6.03420         9.44799
     2019.56194         7.03445         9.01694
     2019.56468        -5.80130         9.43043
     2019.56741         3.78495         9.44799
     2019.57015        14.93120         9.17978
     2019.57289         9.57145         9.20692
     2019.57563         2.09270         9.14625
     2019.57837        -3.70405         9.39371
     2019.58110         6.04420         9.19894
     2019.58384        12.66145         9.73376
     2019.58658        18.36970         9.32825
     2019.58932        20.21396         9.26918
     2019.59206        -0.44579         9.89979
     2019.59479         0.27646         9.50387
     2019.59753        25.25171        10.00835
     2019.60027        28.87696         9.69544
     2019.60301        15.73721         9.17339
     2019.60574         3.02046         9.83274
     2019.60848        -0.88729         9.70502
     2019.61122         0.13496         9.15743
     2019.61396        11.03621         9.47353
     2019.61670        14.08246         9.10155
     2019.61943         9.07471         9.04408
     2019.62217         5.67596         9.47034
     2019.62491        14.14721         9.13348
     2019.62765        18.35046         9.22288
     2019.63039        21.62471         9.24204
     2019.63312         7.23896         9.36657
     2019.63586        -0.79879         9.83913
     2019.63860         3.26946         9.49748
     2019.64134        12.54571        10.12490
     2019.64407        15.59596         9.55815
     2019.64681         4.96621         9.33943
     2019.64955       -11.83754         9.34422
     2019.65229         0.61071         9.14146
     2019.65503         6.16196         9.55655
     2019.65776         2.41821         9.42883
     2019.66050        11.24747         9.74972
     2019.66324         2.75572         9.84711
     2019.66598       -10.84703         9.39690
     2019.66872        16.47022         9.44480
     2019.67145        13.63147         9.63158
     2019.67695        -3.01702         9.71620
     2019.67967         4.59422         9.60764
     2019.68240        19.01747         9.59646
     2019.68514        10.53272         9.67629
     2019.68788        17.28097         9.42564
     2019.69062        13.16722         9.48790
     2019.69336         2.37547         9.41287
     2019.69609        14.83872         9.62679
     2019.69883         0.36297         9.58848
     2019.70157         2.39322         9.64116
     2019.70431        -9.39853         9.57890
     2019.70705        -0.27528         9.69225
     2019.70978        11.84497         9.49109
     2019.71252         5.20222         9.12071
     2019.71526         2.20347         9.22288
     2019.71800        -4.81328         9.59487
     2019.72073        -1.63203        10.11692
     2019.72347        -4.43878         9.33464
     2019.72621         5.53447         9.59487
     2019.72895        -3.01728         9.27717
     2019.73169         3.05798         9.28994
     2019.73442       -12.53177         9.50866
     2019.73716         8.89448         9.42244
     2019.73990        27.77573         9.62999
     2019.74264        22.34798         9.44639
     2019.74538        15.52623         9.18776
     2019.74811        -8.19652         9.77367
     2019.75085       -18.73927        10.23186
     2019.75359        13.30598         9.85030
     2019.75633        15.48923         9.90299
     2019.75906        17.99548         9.09676
     2019.76180         6.97773         9.48151
     2019.76454       -17.35602         9.64915
     2019.76713        -2.63989        10.20153
     2019.77386        13.32364        22.00114
     2019.77549         5.34398         9.36018
     2019.77823         8.48123        10.03709
     2019.78097         0.61948         9.81997
     2019.78371        -3.24027         9.87265
     2019.78644         1.66298        10.06423
     2019.78918         4.55823         9.54058
     2019.79192        -0.50752         9.55176
     2019.79466        10.26573         9.93172
     2019.79739         1.18998         9.30271
     2019.80013         7.79223         9.44480
     2019.80287         2.88549         9.60764
     2019.80561         1.31874         9.84711
     2019.80835        -4.00601         9.68267
     2019.81108         4.93924         9.67469
     2019.81382         1.02649         9.94928
     2019.81656        -2.10026         9.60444
     2019.81930         0.66399         9.42244
     2019.82203        -4.08376         9.58848
     2019.82477        -6.39851         9.41287
     2019.82751       -12.34426         9.63637
     2019.83025         7.14599        10.04188
     2019.83299        12.85924        10.04348
     2019.83572        -2.84051         9.76569
     2019.83846        -9.68726         9.64276
     2019.84120        -3.44601         9.76729
     2019.84394         0.70324         9.93811
     2019.84668        -0.27451        22.76585
     2019.84941        21.34874        10.92953
     2019.85215         6.00499        11.36537
     2019.85489        -2.16576        10.00676
     2019.85763        -3.79051         9.67309
     2019.86036        -0.80226        10.14246
     2019.86310         9.91799         9.85828
     2019.86584        17.10124        10.04827
     2019.86858       -14.94951        10.15523
     2019.87132        -4.87125         9.87425
     2019.87405       -10.42400         9.45757
     2019.87679         3.41625         9.79762
     2019.87953        20.73650        10.01314
     2019.88227        22.78275         9.43202
     2019.88501        -3.41100         9.99239
     2019.88774         4.06425        10.82096
     2019.89048        22.56450        10.56712
     2019.89322        23.83975        10.02592
     2019.89596         8.79800         9.55176
     2019.89869        15.66725         9.68427
     2019.90143         0.27650         9.86786
     2019.90417       -18.40625        11.14186
     2019.90691        17.19800        11.64794
     2019.90965        33.31025        10.30849
     2019.91238        13.84750        10.38034
     2019.91512         9.46475        10.27976
     2019.91786         4.61700         9.52622
     2019.92060        -1.66375         9.81199
     2019.92607        25.50575         9.81678
     2019.92881        11.91500         9.51823
     2019.93155         2.26925         9.56134
     2019.93429        -3.64950         9.61722
     2019.93702        -4.14225         9.68906
     2019.93976        17.04800         9.75451
     2019.94250         9.19226         9.32187
     2019.94524        -2.77449         9.23725
     2019.94798        -7.81724         9.56294
     2019.95071       -11.20499        10.37395
     2019.95345         0.68826         9.89660
     2019.95619        26.33451         9.89021
     2019.95893        14.36876         9.33623
     2019.96167        13.59801         9.63797
     2019.96440        -5.12574         9.69225
     2019.96714        -3.35549         9.49748
     2019.96988        -3.89224         9.28355
     2019.97262        12.68401         9.50387
     2019.97535         8.22326         9.41127
     2019.97809         1.33651         9.44001
     2019.98083         1.69076         9.33464
     2019.98357        -5.43599         9.50387
     2019.98631        -3.65574         9.28994
     2019.98904         7.23551         9.25481
     2019.99178         9.84776         9.37136
     2019.99452         0.91401         9.33943
     2019.99726        -3.44774         9.11432
     2020.00000         8.11551         9.34262
     2020.00273         3.58276         9.15264
     2020.00547         2.95301         9.75451
     2020.00821        11.47126         9.79443
     2020.01095         4.99351         9.48471
     2020.01368        -7.12923         9.44639
     2020.01642        -5.59898         9.58209
     2020.01916         5.35127         9.48790
     2020.02190        16.95852         9.93971
     2020.02464       -19.77123         9.95088
     2020.02737        -0.19198         9.69065
     2020.03011        14.72427        11.74214
     2020.03285       -16.74948         9.27397
     2020.03559         4.71777         8.91317
     2020.03833        -8.62498         8.91636
     2020.04106       -36.96173         9.35859
     2020.04380       -35.86048        10.12490
     2020.04654       -15.14423         9.00417
     2020.04928       -15.29798         9.29792
     2020.05201        -4.71673         9.27717
     2020.05475         3.13052         9.21490
     2020.05749         5.39577         9.21969
     2020.06023       -15.64798         9.24683
     2020.06297        -7.53473         9.32027
     2020.06570         4.93052         9.35060
     2020.06844        -0.30923         9.51185
     2020.07118         9.74702         9.18138
     2020.07392         2.18627         9.67309
     2020.07666        -4.03348         9.74015
     2020.07939        -4.70323         9.14785
     2020.08213       -15.28997         9.05366
     2020.08487        -0.83372         9.10315
     2020.08761         7.44253         9.57411
     2020.09034        -1.27822         9.67469
     2020.09308        20.22503        10.26220
     2020.09856        -0.35247         9.64436
     2020.10130        -9.59122         9.79922
     2020.10403         2.68603         9.42085
     2020.10677        11.34528         9.86307
     2020.10951         4.23553         9.86307
     2020.11225         4.11478         9.76090
     2020.11498       -13.07197         9.50706
     2020.11772         1.03828         9.60125
     2020.12046         6.10153         9.46395
     2020.12320        -2.61322         9.22288
     2020.12594        -4.71597         9.17978
     2020.12867        -6.59272         9.15104
     2020.13141       -10.31947         9.46236
     2020.13415        -4.88522         9.14146
     2020.13689        12.33303         9.21650
     2020.13963         9.42428         9.23725
     2020.14236        -1.78247         9.02173
     2020.14510        -4.24822         9.03929
     2020.14784        -9.59497         9.07760
     2020.15058        -2.01672         9.36497
     2020.15331         1.50354         9.13827
     2020.15605        -4.76021         9.12869
     2020.15879         2.07704         8.97224
     2020.16153        -9.51771         9.05845
     2020.16427        -1.36446         9.36178
     2020.16700         2.36579         9.11273
     2020.16974        -1.83496         9.30590
     2020.17248        -5.97971         9.87265
     2020.17522        26.17954         9.31548
     2020.17796        -1.59121         9.78165
     2020.18065        -4.41600        10.08179
     2020.18346         7.56831         9.73855
     2020.18617        10.16554        10.36277
     2020.18891        15.76679        10.37076
     2020.19164        14.45904         9.93651
     2020.19438         0.86429         9.55815
     2020.19712       -12.72746        10.06902
     2020.19986        27.08179        11.86187
     2020.20260        14.40804        12.58508
     2020.20807        18.17554         9.73216
     2020.21081        -5.71321         9.47992
     2020.21355        -1.42996        10.46974
     2020.21629        13.09729        10.63098
     2020.21902        11.06954         9.89021
     2020.22179         1.55482        10.11213
     2020.22450         1.77905         9.57411
     2020.22724        -9.66770         9.52781
     2020.22997         9.11555         9.92374
     2020.23271        12.58480        10.66611
     2020.23545         1.29605         9.61881
     2020.23819         5.02030         9.69544
     2020.24093        -8.42845         9.46076
     2020.24366        -6.34220         9.76250
     2020.24640         3.19805         9.53899
     2020.24914         5.42130         9.26439
     2020.25188         5.54855        10.08020
     2020.25462        13.95780        10.58628
     2020.25735         5.62705         9.56772
     2020.26009        14.88630         9.84392
     2020.26283        23.04555         9.57092
     2020.26557         8.57480         9.71460
     2020.26830        -2.14895        10.19993
     2020.27104        -5.70170        10.14725
     2020.27378         0.91355        10.05306
     2020.27652         5.18280         9.96844
     2020.27929        12.67508        10.35160
     2020.28199         4.31730        10.50007
     2020.28473        -3.44945        10.73156
     2020.28747        -6.91420        11.59047
     2020.29021        -6.59995        11.04607
     2020.29295         4.87930        12.13168
     2020.29568        15.40956        10.25102
     2020.29842        31.50981        10.31648
     2020.30116        18.18706        10.45218
     2020.30390         1.07531        10.35958
     2020.30663        -5.40644         9.27238
     2020.30937        -3.62619         9.77367
     2020.31211        -1.89794         9.23566
     2020.31485        -2.55469         9.09197
     2020.31759        -0.42644         8.90039
     2020.32032         3.72481         9.03929
     2020.32306         3.47606         8.87485
     2020.32580        -5.60169         9.08718
     2020.32854       -13.05144         9.08718
     2020.33128        -2.72819         8.98182
     2020.33401         0.11906         9.02492
     2020.33675         8.66331         9.00736
     2020.33949        -4.47644         8.94190
     2020.34223        -4.84819         9.12710
     2020.34496        -0.01094         9.05685
     2020.34770         2.12131         8.87645
     2020.35044         5.10256         9.14466
     2020.35318        -0.95419         9.08878
     2020.35592        -4.81894         9.20852
     2020.35827        -2.70400        10.32925
     2020.36798        -3.14002        25.21805
     2020.36961        -4.41468         9.17818
     2020.37234         3.47257         9.13189
     2020.37508        -5.09818         9.03131
     2020.37782         1.63407         8.87964
     2020.38056        -0.09868         9.01055
     2020.38329         7.09257         9.03610
     2020.38603         2.91182         8.98980
     2020.38877         5.44307         9.13667
     2020.39151        -0.59568         8.92754
     2020.39425         2.58957         9.00736
     2020.39698        -6.96018         9.09676
     2020.39972        -2.35493         8.91476
     2020.40246         2.50632         9.01375
     2020.40520        -3.05843         8.97224
     2020.40794         0.57882         9.07601
     2020.41067         6.89107         8.99139
     2020.41341        -3.67168         9.05845
     2020.41615         6.19057         8.85729
     2020.41889        -2.22818         8.96425
     2020.42162         0.03407         9.12550
     2020.42436         0.90632         9.52622
     2020.42710         4.39257         9.26120
     2020.42984        -5.37718         9.25481
     2020.43258        -0.09293         9.03131
     2020.43531        -2.96567         9.32187
     2020.43805        -7.74942         9.38573
     2020.44079        -0.01717         9.21011
     2020.44353         4.01408         9.23406
     2020.44626        -3.14867         9.02811
     2020.44900         6.17258         9.01055
     2020.45174        10.89883         8.93871
     2020.45448         2.19108         9.08239
     2020.45722         0.04133         8.98661
     2020.45995         4.14658         8.87166
     2020.46269        -1.74217         8.97224
     2020.46543        -2.68092         9.04887
     2020.46817         3.07633         9.16381
     2020.47091         0.97358         9.14625
     2020.47364        -0.31617         8.92434
     2020.47638         2.26408         8.92913
     2020.47912        -7.29967         9.28834
     2020.48186         1.22958         9.18297
     2020.48459         0.00183         9.37774
     2020.48733         0.41808         9.29313
     2020.49007         4.16133         9.34422
     2020.49281         4.60758         9.23406
     2020.49555         0.78383         9.15743
     2020.49828        -1.31192         9.23725
     2020.50102        -1.51067         8.87166
     2020.50376        -6.19742         8.99618
     2020.50650        -8.98416         9.02652
     2020.50924        -5.09191         8.96266
     2020.51197         1.06734         9.02332
     2020.51471         5.22759         8.90039
     2020.51745         0.06184         8.85729
     2020.52019         4.55009         9.33623
     2020.52292         5.10034         9.13508
     2020.52566         5.17959         9.25002
     2020.52840        -4.74916         9.16062
     2020.53114        -0.02191         9.12071
     2020.53372        -0.58779         9.87425
