# ================= DQRFIT RESULTS ================
# INPUT FILE: series/BSUM.rad
# OUTPUT: LDETRENDED
# FILTER FUNCTION: f(t)
# f(t)=+line(t)+annual(t)+jumps(t)
# line(t)=+P 1+P 2*t
# annual(t)=+P 3*sin(2*pi*t+P 4)
# jumps(t)=+P 5*heav(t-2011.2964  )
# heav(t)=(t<0?0:1)
# TOTAL OBSERVATIONS MTOT= 3165
# INITIAL TIME INTERVAL= 2020.9500 - 2008.4408 = 12.5092
# TOTAL OBSERVATIONS AFTER PREFILTER M= 3145
# TIME-SPAN= 2020.9500 - 2008.4408 = 12.5092
# OBSERVATIONS: USED M=  3145 REJECTED MTOT-M=    20 %USED=   99.3681
# N=  5 PARAMETERS
# MAXSIG= 175.00000
# MAXRES= 155.70661
# SCALE FACTOR FOR LENGTHS: SCL=  10.00000
# SCALE FACTOR FOR SIGMAS: SCLSIG=   1.00000
# CHI^2=   2269.187 DOF=  3140 CHI^2/DOF=   0.72267
# RMS=     16.796 SDEV=     16.798 MEAN=    0.03115
#  P #       PARAMETER +-    SIGMA %error PARAMETER NAME
# P 1 =      4196.45961 +-   64.060   1.53 YZERO                              
# P 2 =        -2.08226 +-    0.032   1.53 SLOPE                              
# P 3 =         5.78898 +-    0.130   2.25 ANNUAL AMPLITUDE                   
# P 4 =        -3.02188 +-    0.032   1.05 ANNUAL PHASE                       
# P 5 =        -0.14600 +-    0.293 200.93 OFFSET 2011.2964                   
#       T            LDETRENDED       SIG_OBS
     2008.44079        -5.07860         4.71211
     2008.44353        -6.48990         4.70956
     2008.44626        -4.18220         4.72656
     2008.44900        -5.47949         4.58714
     2008.45174        -7.34779         4.70616
     2008.45448        -3.21309         4.73251
     2008.45722        -4.63139         4.60415
     2008.45995        -2.65769         4.61605
     2008.48676        -4.61187         6.03061
     2008.49007        -4.10198         4.62625
     2008.49281        -4.10928         4.60330
     2008.49555        -8.46358         4.73676
     2008.49828        -3.63688         4.73421
     2008.50102        -5.12018         4.80392
     2008.50376        -1.17148         4.83707
     2008.50650        -1.77778         4.66705
     2008.50924         1.13893         4.65770
     2008.51197        -2.71637         4.63730
     2008.51460        -0.59791         4.86768
     2008.52019         4.32073         4.66110
     2008.52292        -2.08157         4.80987
     2008.52566        -2.33987         4.77672
     2008.52840         3.81983         4.62540
     2008.53114         5.27053         4.67725
     2008.53388         4.48323         4.68320
     2008.53661        -0.51607         4.65855
     2008.53935        -0.34736         4.61180
     2008.54209        -0.67666         4.59989
     2008.54483         9.44004         4.71721
     2008.54757         5.82374         4.70701
     2008.55030         6.43844         4.66025
     2008.55304         6.95814         4.62795
     2008.55852         4.08054         4.66365
     2008.56125         1.98624         4.64155
     2008.56399         5.50694         4.67045
     2008.56673         3.23264         4.70021
     2008.56947         4.20535         4.62030
     2008.57221         8.93605         4.76651
     2008.57494         8.73375         4.77076
     2008.57768         6.37445         4.82347
     2008.58042         6.16015         4.66280
     2008.58316         3.56685         4.67215
     2008.58572         6.60119         4.98414
     2008.58863         5.13025         4.78947
     2008.59137         3.83895         4.58629
     2008.59411         6.07265         4.60500
     2008.59685         0.84435         4.75801
     2008.59958         6.35006         4.85748
     2008.60232         8.43876         4.86938
     2008.60506         9.41746         4.74186
     2008.60780         4.92616         4.75886
     2008.61054         4.73886         4.68065
     2008.61327         7.14856         4.69256
     2008.61601         7.73926         4.68916
     2008.61875         5.42296         4.67640
     2008.62149         7.32966         4.70106
     2008.62423         8.42136         4.69086
     2008.62696         2.24606         4.75121
     2008.62970         3.36777         4.84047
     2008.63244         7.87447         4.71466
     2008.63495         9.41269         5.34118
     2008.63752         8.26304         5.89630
     2008.64065         6.08357         4.74696
     2008.64339         8.37527         4.67470
     2008.64613         6.83597         4.83282
     2008.64887         2.26867         4.85237
     2008.65160         8.24537         4.67980
     2008.65434         3.94507         4.83452
     2008.65679         8.73318         5.73308
     2008.65982         3.39048         4.87448
     2008.66256         9.59518         4.73761
     2008.66529        12.15688         4.72401
     2008.66780         1.02910         5.18051
     2008.67077         5.46328         4.75716
     2008.67351         8.23598         4.74441
     2008.67602         3.52921         5.62342
     2008.67898         9.83938         4.72911
     2008.68172         6.15808         4.71466
     2008.68446         3.69578         4.74186
     2008.68720         4.25049         4.73846
     2008.68993         3.99819         4.81837
     2008.69267         6.53589         4.70531
     2008.69541         8.08059         4.73931
     2008.69815         9.79129         4.81497
     2008.70089         8.27599         4.71891
     2008.70362         8.23469         4.69256
     2008.70636        11.74739         4.70446
     2008.70910         9.61609         4.85918
     2008.71184         6.34379         4.86938
     2008.71457         2.14449         4.68065
     2008.71731         5.43920         4.74866
     2008.72005         6.47190         4.67470
     2008.72279         6.51660         4.73506
     2008.72553         2.67430         4.73591
     2008.72826         6.49800         4.66535
     2008.73100         7.10770         4.79712
     2008.73340         1.04469         5.47125
     2008.73648         8.24910         4.68150
     2008.73921         9.26980         4.76311
     2008.74469         5.88020         4.68490
     2008.74743         8.01891         4.67640
     2008.75017         9.10761         4.71806
     2008.75290        10.87931         4.69936
     2008.75564        10.24701         4.73251
     2008.75838         9.01871         4.70956
     2008.76112         9.65941         4.67810
     2008.76386         6.96811         4.66280
     2008.76659         1.60881         4.91018
     2008.76933         3.68051         4.87533
     2008.77207         2.16121         4.63135
     2008.77481         0.78391         4.66110
     2008.77754         3.79462         4.60415
     2008.78028         3.75032         4.64155
     2008.78302         2.94902         4.65175
     2008.78576         2.19172         4.63135
     2008.78850         3.74942         4.71041
     2008.79123         2.19512         4.74101
     2008.79397        -0.91918         4.75716
     2008.79671         7.28652         4.70956
     2008.79945         2.35622         4.66110
     2008.80219         9.85392         4.70871
     2008.80504         7.94786         4.86768
     2008.80766         5.09933         4.66875
     2008.81040         7.84803         4.76396
     2008.81314         6.79173         4.66790
     2008.81587         6.04643         4.68320
     2008.81861        -0.90187         4.66960
     2008.82135         2.02883         4.63645
     2008.82409         3.30953         4.76311
     2008.82683         2.46323         4.72656
     2008.82956         2.73593         4.65515
     2008.83230         1.33763         4.67980
     2008.83504         9.62833         4.67300
     2008.83778         9.72704         4.77417
     2008.84052         5.95074         4.71296
     2008.84325        11.56044         4.64495
     2008.84599         8.83114         4.66790
     2008.84873         4.66184         4.67980
     2008.85147        -0.11946         4.72656
     2008.85420         0.64624         4.82687
     2008.85694         9.53594         4.67470
     2008.85968         2.32864         4.69936
     2008.86242         6.78234         4.74696
     2008.86516        11.69604         4.72061
     2008.86789         0.64075         4.78692
     2008.87063         2.27445         4.84642
     2008.87337        -1.12485         4.74951
     2008.87616        -0.77503         4.82262
     2008.87902         1.42291         5.12611
     2008.88158        -0.32975         4.67385
     2008.88432        -0.39005         4.69766
     2008.88706        -3.44235         4.80307
     2008.88980        -2.35565         4.79967
     2008.89156        10.94003         8.68548
     2008.89801         6.66946         4.75971
     2008.90075         2.32316         4.72486
     2008.90349        -2.03514         4.66280
     2008.90622        -3.22144         4.75121
     2008.90896         4.72126         4.71126
     2008.91170        -2.71804         4.74016
     2008.91444         4.16866         4.74781
     2008.91678        -1.54647         5.47465
     2008.91991         1.33706         4.74441
     2008.92265         0.85976         4.68660
     2008.92539        -0.29854         4.74356
     2008.92813         3.54217         4.76481
     2008.93086        -5.01813         4.78692
     2008.93360        -4.32643         4.74016
     2008.93634        -1.61773         4.71381
     2008.93908        -8.90803         4.76991
     2008.94182        -4.74533         4.72826
     2008.94370        -3.27441         7.81923
     2008.94826        -9.37991        10.08899
     2008.95003       -15.77423         4.71296
     2008.95277        -6.53953         4.62625
     2008.95836        -4.21189         4.91698
     2008.96098        -2.42642         4.66705
     2008.96372        -1.12272         4.65090
     2008.96646       -12.63102         4.72401
     2008.96919       -12.26232         4.63135
     2009.00479        -5.57221         4.69596
     2009.00650        12.34835        10.24796
     2009.01574         0.96860         4.71891
     2009.01848         4.28630         4.72146
     2009.02121         1.22800         4.84217
     2009.02395        -7.23430         4.77587
     2009.02669       -13.88860         4.63305
     2009.02943       -15.40890         4.66960
     2009.03216       -10.89520         4.69681
     2009.03490       -14.36650         4.70701
     2009.03764       -11.26080         4.63985
     2009.04038       -10.91310         4.61095
     2009.04312       -15.55140         4.64410
     2009.04585       -14.14469         4.65345
     2009.04859       -11.91599         4.68320
     2009.05133        -7.17229         4.64920
     2009.05407        -9.82759         4.63390
     2009.05681        -6.92189         4.60925
     2009.05943        -6.42643         4.92973
     2009.06234       -11.63537         4.74441
     2009.06502        -7.74879         4.69936
     2009.06776       -11.89409         4.66960
     2009.07049       -15.49539         4.63050
     2009.07308       -12.07501         5.09805
     2009.07597        -5.01798         4.63475
     2009.07859       -10.13652         4.86853
     2009.08145        -6.04958         4.65005
     2009.08418        -3.35488         4.67810
     2009.08692        -6.82118         4.61860
     2009.08964        -6.37952         4.81667
     2009.09240        -7.54278         4.63220
     2009.09514        -5.60808         4.66280
     2009.09787        -0.45538         4.66620
     2009.10061        -0.50768         4.65940
     2009.10335        -8.89598         4.63900
     2009.10609        -2.83527         4.63135
     2009.10882        -9.35357         4.63220
     2009.11156        -6.83787         4.64750
     2009.11430       -13.48917         4.78352
     2009.11704        -2.43547         4.72061
     2009.11943        -6.07748         5.54606
     2009.12251        -0.54107         4.59479
     2009.12525        -4.04537         4.61775
     2009.12799         0.73833         4.65685
     2009.13073         3.25003         4.66365
     2009.13347        -4.84727         4.66960
     2009.13620        -7.58756         4.65175
     2009.13894        -7.62886         4.67300
     2009.14168        -6.51916         4.67300
     2009.14442        -4.25646         4.70021
     2009.14715        -5.01776         4.74186
     2009.14989        -6.79606         4.75971
     2009.15263        -5.39136         4.70701
     2009.15537        -8.00866         4.79202
     2009.15811        -9.29696         4.74866
     2009.16084        -6.47826         4.69766
     2009.16358         1.29344         4.70106
     2009.16632        -7.88185         4.70276
     2009.16906        -5.21815         4.79457
     2009.17180        -4.42245         4.69511
     2009.17453        -7.97275         4.69766
     2009.17727         0.18095         4.77502
     2009.18001        -8.61835         4.63220
     2009.18275        -4.99365         4.64580
     2009.18548        -6.81195         4.65090
     2009.18822        -9.11325         4.70106
     2009.19096        -9.30055         4.61350
     2009.19370        -6.62085         4.62795
     2009.19644        -4.31914         4.60840
     2009.19917         0.77256         4.67895
     2009.20191        -6.16374         4.69256
     2009.20465       -16.90704         4.72656
     2009.20739        -8.52934         4.66535
     2009.21013        -9.54764         4.62200
     2009.21195        -1.67584         7.71126
     2009.21469         0.04186         7.76567
     2009.21743        -6.10044         7.71806
     2009.22016         5.94326         7.69171
     2009.22290        -7.64704         7.72316
     2009.22564        -3.00033         7.77587
     2009.22838        -7.50963         7.80137
     2009.23112        -6.79693         7.79032
     2009.23385       -11.51523         7.82093
     2009.23659        -7.71153         7.85663
     2009.23933        -4.65583         7.93909
     2009.24207        -1.08013         7.94929
     2009.24480        -3.91343         7.94589
     2009.24754        -4.67673         7.93229
     2009.25028        -8.29603         7.94164
     2009.25302         0.05567         8.07766
     2009.25576         1.31538         8.09466
     2009.25849        -8.80692         8.14481
     2009.26123        -6.37022         8.17627
     2009.26397        -4.79552         8.09891
     2009.26671        -5.49682         8.04450
     2009.26945        -3.31712         8.05385
     2009.27310        -2.90852         4.68405
     2009.27583        -5.45382         4.70701
     2009.27857        -8.64112         4.72656
     2009.28131        -7.31842         4.67810
     2009.28405        -4.46972         4.69596
     2009.28679        -5.75601         4.82687
     2009.28952        -7.94431         4.69256
     2009.29226       -11.00461         4.76396
     2009.29500       -11.37191         4.73676
     2009.29774        -6.45021         4.76651
     2009.30047        -9.41051         4.78862
     2009.30321        -4.49481         4.78437
     2009.30595        -1.81711         4.86513
     2009.30869        -0.37941         4.77417
     2009.31143        -7.40371         4.76311
     2009.31416        -4.50001         4.81582
     2009.31690        -5.29330         4.74951
     2009.31964        -5.28460         4.79032
     2009.32238        -2.19690         4.67470
     2009.32397         1.61142        13.65857
     2009.32785        -8.88250         4.78692
     2009.33059        -7.29980         4.68490
     2009.33333        -5.90710         4.66025
     2009.33607        -4.21240         4.66280
     2009.33880        -3.01270         4.64240
     2009.34154        -8.98500         4.73931
     2009.34428        -5.05330         4.71721
     2009.34702        -5.94359         4.67300
     2009.34976        -5.21489         4.61265
     2009.35249        -8.85419         4.63390
     2009.35523       -10.78949         4.68150
     2009.35797        -7.48079         4.77417
     2009.36071        -8.84709         4.78437
     2009.36344        -3.13839         4.63730
     2009.36618        -4.28069         4.63900
     2009.36892        -5.22399         4.65855
     2009.37166        -5.54529         4.69341
     2009.37440       -10.08558         4.63645
     2009.37713        -9.96788         4.67810
     2009.37987        -2.24418         4.81327
     2009.38261        -6.83148         4.64665
     2009.38535        -5.26678         4.63985
     2009.38809        -9.28708         4.66025
     2009.39082        -9.39238         4.66450
     2009.39356        -6.73368         4.65600
     2009.39630        -5.11698         4.62540
     2009.39904        -5.77028         4.68320
     2009.40177        -3.54458         4.64920
     2009.40451        -1.05487         4.68660
     2009.40725        -5.45017         4.65005
     2009.40999        -1.64147         4.62795
     2009.41273        -5.31577         4.69426
     2009.41546         1.35093         4.68746
     2009.41820        -3.40437         4.70786
     2009.42094        -4.63967         4.66280
     2009.42368        -5.10497         4.74186
     2009.42642        -4.18727         4.66535
     2009.42915        -1.38057         4.76736
     2009.43189        -2.64287         4.72146
     2009.43463         0.37084         4.68575
     2009.43737        -0.56546         4.71126
     2009.44010        -5.38276         4.64750
     2009.44284        -6.67406         4.66365
     2009.44558        -1.97736         4.65175
     2009.44832        -2.07866         4.72741
     2009.45106        -2.04196         4.71721
     2009.45379        -1.15426         4.66790
     2009.45653        -1.57856         4.66535
     2009.45927        -2.26486         4.68831
     2009.46201         2.49784         4.72911
     2009.46475         6.16155         4.84727
     2009.46748        -0.99275         4.87873
     2009.47022         1.08195         4.66535
     2009.47570        -4.07665         4.68660
     2009.47843        -1.02295         4.77502
     2009.48117        -2.46925         4.76396
     2009.48391        -1.76555         4.68320
     2009.48665        -5.35785         4.71296
     2009.48939        -1.57115         4.74356
     2009.49212        -1.28945         4.75801
     2009.49486        -9.31174         4.88553
     2009.49760        -1.95604         4.77672
     2009.50034        -2.64334         4.66705
     2009.50308         0.20136         4.69936
     2009.50581         0.62006         4.69086
     2009.50855        -1.46724         4.70531
     2009.51129        -2.39754         4.75376
     2009.51403        -0.07884         4.69596
     2009.51676         2.84186         4.64495
     2009.51950         3.33456         4.66960
     2009.52224        -6.51974         4.66875
     2009.52498         1.72397         4.69511
     2009.52772        -3.10333         4.75036
     2009.53045         3.71137         4.71636
     2009.53319        -0.54993         4.67215
     2009.53593         2.22677         4.66280
     2009.53867        -0.12053         4.67130
     2009.54141         2.88117         4.65770
     2009.54414         5.64687         4.78097
     2009.54688        -0.53043         4.69171
     2009.54962         0.59227         4.65090
     2009.55236        -0.08203         4.65005
     2009.55509         7.64568         4.80052
     2009.55783         9.75038         4.68490
     2009.56057         2.07308         4.93993
     2009.56331         6.84278         4.92208
     2009.56605         1.86248         5.12951
     2009.56878        -2.03882         5.03770
     2009.57152         5.99388         4.74186
     2009.57426         6.07458         4.72996
     2009.57700         5.72428         4.95099
     2009.57974         4.44398         4.85748
     2009.58247         3.11368         4.70956
     2009.58521         0.95939         4.78182
     2009.58795         3.47309         4.71891
     2009.59069         3.80879         4.74441
     2009.59342        -2.56351         4.82347
     2009.59616         3.99219         4.70956
     2009.59890         7.70189         4.70701
     2009.60164         4.46659         4.72486
     2009.60438         1.20729         4.67725
     2009.60711        -0.64101         4.75971
     2009.60985         5.91169         4.70446
     2009.61259         3.33639         4.78607
     2009.61533         0.18210         4.67895
     2009.62902         6.55260         4.82517
     2009.63175         4.64130         4.73761
     2009.63449         2.28300         4.76141
     2009.63723        -5.50130         4.82517
     2009.63997         1.57240         4.80817
     2009.64271         2.36410         4.79627
     2009.64544         5.53481         4.74696
     2009.64818         4.95551         4.89743
     2009.65092         5.75621         4.78182
     2009.65366         0.28391         4.81072
     2009.65639        -3.69039         4.70021
     2009.65913         0.87031         4.68575
     2009.66187         3.49501         4.65430
     2009.66461         4.93471         4.66365
     2009.66735        10.81841         4.77332
     2009.67008         6.40611         4.73166
     2009.67282        -6.65719         4.99774
     2009.67556         3.96552         4.73081
     2009.67830         2.06422         4.96544
     2009.68104        -0.22908         4.93483
     2009.68377        -0.28238         4.82602
     2009.68651         9.02332         4.71381
     2009.68925         1.18002         4.81242
     2009.69199         3.83172         4.69256
     2009.69461         2.38718         4.73931
     2009.70294        10.32352         4.63220
     2009.70568         5.69523         4.63900
     2009.70841         2.39093         4.64240
     2009.71115         0.58963         4.79797
     2009.71389         5.32033         4.92973
     2009.71663         2.81803         5.01049
     2009.71937         9.57673         4.77842
     2009.72210        -2.84257         4.68490
     2009.72484         2.74513         4.76141
     2009.72758         3.17983         4.75886
     2009.73032         3.72853         4.86598
     2009.73305         1.48624         4.77927
     2009.73465         0.38656        12.42677
     2009.73853         8.01064         4.70276
     2009.74127         6.73434         4.79627
     2009.74401         6.09004         4.85918
     2009.74674         6.17974         4.80647
     2009.74948         4.36644         4.61435
     2009.75222         3.72914         4.68916
     2009.75496         5.07284         4.66790
     2009.75770         8.76454         4.60585
     2009.76043         6.56024         4.63645
     2009.76317         5.63695         4.65430
     2009.76591         5.79765         4.61860
     2009.76865         7.42435         4.74271
     2009.77138         6.24105         4.72996
     2009.77412         2.65575         4.67300
     2009.77686         9.20045         4.74951
     2009.77960        10.73715         4.75886
     2009.78234        16.18285         4.77332
     2009.78507         9.83955         4.93483
     2009.78781         7.71525         4.87533
     2009.79055         3.33995         4.91698
     2009.79329       -10.16834         5.13716
     2009.79603         0.87636         4.82602
     2009.79876         8.14006         4.72146
     2009.80150         5.26476         4.75121
     2009.80424         8.69646         4.90763
     2009.80698         7.43216         4.84047
     2009.80971        11.55086         4.93823
     2009.81793        10.97296         4.83452
     2009.82067        11.81166         4.80222
     2009.82340         4.78337         4.68235
     2009.82614         2.20407         4.86343
     2009.82888        -1.15723         4.88468
     2009.83162       -16.13453         5.19752
     2009.83436        -0.57983         4.66365
     2009.83709         4.87987         4.74016
     2009.83983         1.36057         4.78097
     2009.84257         4.94727         4.79457
     2009.84531         5.95797         4.95184
     2009.84804        10.92667         4.95949
     2009.85078         5.98437         4.85833
     2009.85346         6.97296         5.01134
     2009.85626         6.20478         4.82007
     2009.85900         1.40448         4.92038
     2009.86173         1.69518         4.79712
     2009.86447         8.97188         5.05130
     2009.86721         5.32358         4.97054
     2009.86995         5.75128         4.83452
     2009.87269         6.74498         4.87193
     2009.87542         6.71268         4.79457
     2009.87816         8.68738         4.92208
     2009.88090         9.17608         4.90593
     2009.88364        10.01879         4.81412
     2009.88637         4.64249         4.87108
     2009.88911        10.41919         4.79542
     2009.89185         0.83489         4.91273
     2009.89459        -0.80441         4.81582
     2009.89733        -4.44271         4.83537
     2009.90006        -1.98701         4.83707
     2009.90280         6.73069         4.79372
     2009.90554         1.81339         4.92378
     2009.90828        -5.10191         4.82772
     2009.91102        -3.72021         4.79032
     2009.91375        -0.70550         4.78947
     2009.91649         1.49220         4.80052
     2009.91923        -2.24410         4.71466
     2009.92197        -5.19240         4.78947
     2009.92385        -8.73848         7.56165
     2009.93292        -1.63760         4.74271
     2009.93566        -0.45190         4.78947
     2009.93839         0.71280         4.89913
     2009.94113         5.10050         4.66280
     2009.94387         2.95621         4.73591
     2009.94661         3.09991         4.73591
     2009.94935         2.26061         4.76226
     2009.95208        -1.41869         4.71721
     2009.95482        -5.27799         4.81752
     2009.95756        -3.20529         4.76821
     2009.96030        -5.18759         4.76311
     2009.96303        -6.32789         4.67555
     2009.96577        -2.28119         4.79372
     2009.96851        -3.27949         4.87278
     2009.97125         1.85821         4.78777
     2009.97399        -1.72708         4.79797
     2009.97672        -7.51238         4.65005
     2009.97946       -10.43468         4.61690
     2009.98220        -4.98298         4.68490
     2009.98494        -0.08528         4.63985
     2009.98767        -0.09658         4.62200
     2009.99041        -3.13388         4.62880
     2009.99315        -1.61918         4.62710
     2009.99589         0.11952         4.63645
     2009.99863        -8.44878         4.72061
     2010.00410        -7.67737         4.69256
     2010.00684        -6.13967         4.65855
     2010.00958        -8.55297         4.74526
     2010.01232       -13.74427         4.75886
     2010.01505        -8.23257         4.70106
     2010.01779        -8.66887         4.65685
     2010.02053        -5.91517         4.75631
     2010.02327        -5.51647         4.70191
     2010.02600        -4.22377         4.63815
     2010.02874        -4.16807         4.68490
     2010.03148         1.55663         4.69171
     2010.03422        -5.14766         4.74526
     2010.03696        -8.91196         4.97224
     2010.03969        -6.67426         4.85067
     2010.04243         0.10144         4.69426
     2010.04517         3.09114         4.74271
     2010.04791         6.27084         4.67215
     2010.05065        -3.74946         4.78607
     2010.05338         3.18924         4.82772
     2010.05886         4.37364         4.64835
     2010.06160        -3.11966         4.64580
     2010.06433        -5.22495         4.64920
     2010.06707       -10.09525         4.69766
     2010.06981        -5.11455         4.72401
     2010.07255        -4.96785         4.76906
     2010.07529        -4.04515         4.68405
     2010.07802        -7.44445         4.69256
     2010.08076        -3.07075         4.66450
     2010.08350         0.74795         4.62030
     2010.08624         6.27465         4.62965
     2010.08898         9.12335         4.79967
     2010.09171         4.75806         4.63135
     2010.09445         1.81376         4.81242
     2010.09719         6.87846         4.79797
     2010.09993         0.32516         4.63730
     2010.10266         1.60186         4.66025
     2010.10540        -3.24144         4.73251
     2010.10814        -0.81474         4.74781
     2010.11088        -0.63904         4.78607
     2010.11362        -1.63834         4.70701
     2010.11635         0.19536         4.77502
     2010.11909        -4.46594         4.70701
     2010.12183        -7.29923         4.78692
     2010.12457        -0.73153         4.68746
     2010.12731        -2.32383         4.88383
     2010.13004        -4.31013         4.74611
     2010.13278        -1.05043         4.70446
     2010.13552        -3.70473         4.73591
     2010.13826        -2.47903         4.68746
     2010.14099         0.16567         4.65515
     2010.14373        -1.26963         4.81582
     2010.14623         2.16957         5.48060
     2010.14921        -0.82323         4.71381
     2010.15195        -4.97652         4.70361
     2010.15468         1.06218         4.70276
     2010.15742         1.00888         4.71466
     2010.16016         0.24658         4.67130
     2010.16290        -3.03772         4.68660
     2010.16564        -2.17602         4.67470
     2010.16837         0.13068         4.67725
     2010.17111        -2.14962         4.68916
     2010.17385        -3.68792         4.62030
     2010.17659         0.55678         4.63220
     2010.17932         3.29348         4.63220
     2010.18206         0.77019         4.67470
     2010.18480         0.72789         4.63985
     2010.18754         1.96759         4.64410
     2010.19028         3.39229         4.65260
     2010.19301         3.27699         4.69341
     2010.19575        -2.97331         4.67470
     2010.19849        -1.34261         4.69001
     2010.20123        -6.71091         4.70276
     2010.20397        -2.20421         4.76481
     2010.20670       -10.61751         4.80817
     2010.20944        -5.39281         4.62625
     2010.21218        -4.84210         4.66450
     2010.21492        -6.60740         4.70021
     2010.21765         0.33430         4.75461
     2010.22039        -5.05300         4.70616
     2010.22313        -7.40730         4.67300
     2010.22587        -4.52760         4.73591
     2010.22861        -1.83890         4.84387
     2010.23134        -3.66220         4.72826
     2010.23408        -5.55650         4.74271
     2010.23956         2.47190         4.80902
     2010.24230         4.68361         4.96884
     2010.24503        -2.68869         4.84982
     2010.24777        -2.92799         4.76481
     2010.25051        -2.84229         4.99774
     2010.25325        -0.44859         4.80817
     2010.25598         2.45211         4.71551
     2010.25872         8.34981         4.76566
     2010.26146         2.36851         4.96799
     2010.26420         0.45221         5.07935
     2010.26694        -2.59909         5.01049
     2010.26967         5.26761         4.96799
     2010.27241         3.56532         4.96884
     2010.27509         3.15390         5.08785
     2010.27789         2.22772         4.83622
     2010.28062         1.59942         4.76821
     2010.28336        -1.98388         4.78522
     2010.28610        -4.41318         4.94674
     2010.28884         3.31552         4.87788
     2010.29158         1.18522         5.00964
     2010.29431         6.07792         4.98244
     2010.29705         4.77662         4.88723
     2010.29979         3.12032         4.96629
     2010.30253        10.92203         4.92803
     2010.30527         5.79673         5.03770
     2010.30800         5.51743         4.91018
     2010.31074         3.78313         4.95184
     2010.31348         5.02983         4.86173
     2010.31622         9.91853         4.88128
     2010.31895         7.75023         4.97564
     2010.32169         5.72593         4.95099
     2010.32443         7.45963         4.95609
     2010.32717         5.68933         4.83707
     2010.32991         7.75203         4.83707
     2010.33264         4.41774         4.83622
     2010.33538        -3.57156         5.06745
     2010.33812        -0.48486         4.94844
     2010.34086        -5.46516         4.86088
     2010.34360         0.34354         4.81497
     2010.34633         1.15324         4.91273
     2010.34907         2.74094         4.81242
     2010.35181         3.99264         4.86343
     2010.35455         2.41034         4.84217
     2010.35728         1.88404         4.82092
     2010.36002         4.33374         4.86598
     2010.36276         2.41745         4.80562
     2010.36550         5.26515         5.09125
     2010.36824        -0.82115         5.06235
     2010.37097         4.14555         4.92803
     2010.37371         4.89225         4.83622
     2010.37645         1.38095         4.85492
     2010.37919         1.87865         5.07510
     2010.38193        -6.76165         5.16776
     2010.38466         4.10105         4.76821
     2010.38740         4.03575         4.70531
     2010.39014         1.18645         4.70616
     2010.39288        -3.23784         4.81412
     2010.39561        -2.68814         4.91528
     2010.39835         1.15256         4.82517
     2010.40109         0.59726         4.68575
     2010.40383        -0.81104         4.69171
     2010.40657         0.29766         4.79627
     2010.40930         1.78736         4.87958
     2010.41204        -5.90194         4.74356
     2010.41478         4.18676         4.64325
     2010.41752         1.34246         4.66875
     2010.42026         2.90016         4.65855
     2010.42299         5.07587         4.62455
     2010.42573        -3.56143         4.65515
     2010.42847        -2.19773         4.66535
     2010.43121         0.49497         4.63390
     2010.43394        -0.58933         4.65005
     2010.43668        -0.68463         4.67895
     2010.43942         0.96507         4.63815
     2010.44216        -2.95523         4.62030
     2010.44490        -4.46053         4.60330
     2010.44763        -4.30083         4.64155
     2010.45037        -3.82413         4.61520
     2010.45311        -5.40642         4.62540
     2010.45585        -2.92972         4.68746
     2010.45859        -0.17802         4.73846
     2010.46132         1.12568         4.72146
     2010.46406         0.90038         4.63560
     2010.46680        -7.77292         4.63645
     2010.46954        -6.80722         4.66025
     2010.47227        -1.13252         4.59479
     2010.47501        -2.64182         4.72231
     2010.47775        -1.63912         4.75801
     2010.48049        -0.08541         4.77502
     2010.48323        -2.17871         4.65600
     2010.48596         7.60099         4.63305
     2010.48870         2.40969         4.61265
     2010.49144         5.17939         4.61945
     2010.49418         2.82909         4.58969
     2010.49692         2.02479         4.63050
     2010.49965         3.05249         4.62115
     2010.50239         5.09219         4.57184
     2010.50513         2.47889         4.58969
     2010.50787         4.34559         4.65685
     2010.51060        -4.31270         4.63560
     2010.51334         3.98900         4.58884
     2010.51608         3.68970         4.64920
     2010.51882         3.86240         4.60330
     2010.52156         3.90810         4.71041
     2010.52429         1.21380         4.62965
     2010.52703         6.09050         4.65090
     2010.52977         5.92120         4.59904
     2010.53211         3.15607         5.58856
     2011.29637        -5.47054         4.54124
     2011.30184        -4.86514         4.79627
     2011.30458        -2.28944         4.58459
     2011.30732        -2.00474         4.55314
     2011.31006        -2.73804         4.55229
     2011.31279        -4.08634         4.52424
     2011.31553        -3.31764         4.62880
     2011.31827        -3.78393         4.55909
     2011.32101        -8.30123         4.57184
     2011.32375       -13.25653         4.52169
     2011.32648       -11.89083         4.50978
     2011.32922       -13.60213         4.56674
     2011.33196       -10.19043         4.56504
     2011.33470       -13.56873         4.65685
     2011.33744        -7.83903         4.63220
     2011.34017        -8.97333         4.79372
     2011.34291        -6.78063         4.74356
     2011.34565        -1.18193         4.61860
     2011.34839        -2.98122         4.75801
     2011.35112        -6.03952         4.62200
     2011.35386       -14.41582         4.65515
     2011.35660       -10.38212         4.60585
     2011.35934       -16.52442         4.97564
     2011.36208       -14.82472         4.56334
     2011.36481        -8.51302         4.59564
     2011.36755        -4.69332         4.66280
     2011.37029        -5.56662         4.62285
     2011.37303        -4.17292         4.67895
     2011.37577        -4.76022         4.56929
     2011.37850        -7.52051         4.61775
     2011.38124       -10.38281         4.53954
     2011.38398       -12.60311         4.72826
     2011.38672        -4.94841         4.62540
     2011.38945        -8.88371         4.51573
     2011.39219        -4.90901         4.61860
     2011.39493       -10.43431         4.58289
     2011.39767        -4.92961         4.75971
     2011.40041        -7.70691         4.62115
     2011.40314        -6.81421         4.62710
     2011.40588        -3.25451         4.58034
     2011.40862        -3.75980         4.69511
     2011.41136        -8.10010         4.66875
     2011.41410        -7.21240         4.60244
     2011.41683        -7.36370         4.71041
     2011.41957       -10.11700         4.63645
     2011.42231       -14.07530         4.60244
     2011.42505        -2.06460         4.62710
     2011.42778        -4.96790         4.69511
     2011.43052        -8.51320         4.81242
     2011.43326       -10.72650         4.58714
     2011.43600        -9.86180         4.58119
     2011.43874       -12.23909         4.70701
     2011.44147       -10.79539         4.68831
     2011.44421        -6.54569         4.57524
     2011.44695        -6.84699         4.66365
     2011.44969        -9.08329         4.62115
     2011.45243        -9.38859         4.53444
     2011.45488       -12.28048         5.19156
     2011.45790       -10.07619         4.57779
     2011.46064        -6.21749         4.60500
     2011.46338        -6.45179         4.57099
     2011.46611        -8.32909         4.51914
     2011.46885        -2.42538         4.56164
     2011.47159        -6.54268         4.58459
     2011.47433        -4.40998         4.62795
     2011.47707         0.72972         4.58119
     2011.47980         0.83642         4.54124
     2011.48254        -3.75588         4.55739
     2011.48528        -3.76318         4.55484
     2011.48802        -1.33848         4.58119
     2011.49076        -0.83578         4.64240
     2011.49349        -8.90208         4.63645
     2011.49623        -4.43738         4.58544
     2011.49897        -1.72967         4.70361
     2011.50171        -3.34097         4.75716
     2011.50444        -3.53627         4.58799
     2011.50718        -3.04557         4.70531
     2011.50992         0.93113         4.77247
     2011.51266        -1.68117         4.66875
     2011.51540         2.15553         4.73081
     2011.51813         7.59323         4.93993
     2011.52087         4.59693         4.76226
     2011.52361         0.04463         4.59224
     2011.52635        -2.96967         4.77076
     2011.52908         6.49604         4.84812
     2011.53182        -3.41526         5.09380
     2011.53456        -0.53256         4.61605
     2011.53730        -0.52186         4.61265
     2011.54004        -0.37016         4.68320
     2011.54277        -4.27146         4.56929
     2011.54551         0.50424         4.58289
     2011.54825         0.36194         4.71551
     2011.55099        -1.83836         4.61180
     2011.55373         3.16134         4.68831
     2011.55646        -1.87095         4.65090
     2011.55920         0.44375         4.62200
     2011.56194        -1.16755         4.68150
     2011.56468         3.00315         4.54039
     2011.56741         4.81885         4.60500
     2011.57015         0.05755         4.66110
     2011.57289         1.79425         4.61010
     2011.57563         2.87995         4.77502
     2011.57837        -0.06535         4.71976
     2011.58110        -2.90965         4.57014
     2011.58384        -7.69195         4.74951
     2011.58658         6.90576         4.81157
     2011.58932        -0.03454         4.98754
     2011.59206        -2.13284         4.68575
     2011.59365         1.19048        12.83907
     2011.59753         2.57856         4.61095
     2011.60027         2.46426         4.57779
     2011.60301        -2.26904         4.85407
     2011.60574        -0.16134         4.80052
     2011.60848         2.71036         4.72316
     2011.61122         3.30306         4.70276
     2011.61396         3.88776         4.66110
     2011.61670         4.71347         4.67895
     2011.61943         2.47917         4.62795
     2011.62217         3.64187         4.66790
     2011.62491         5.21657         4.67045
     2011.62765         2.94427         4.65600
     2011.63039         6.04697         4.62710
     2011.63312         7.02467         4.66450
     2011.63586         8.72937         4.55994
     2011.63860         2.37507         4.89318
     2011.64134         2.83377         5.05300
     2011.64407         9.37147         4.70616
     2011.64613        14.71275         6.41656
     2011.64955         7.67088         4.75971
     2011.65229         5.42158         4.63900
     2011.65503         3.13828         4.61945
     2011.65776        -0.29302         4.79117
     2011.66050         6.55368         4.70191
     2011.66324         9.25538         4.64580
     2011.66598         3.16308         4.72741
     2011.66872         3.68678         4.77332
     2011.67145         6.53748         4.58289
     2011.67419        10.02118         4.60670
     2011.67667        15.30635         5.07510
     2011.67860        10.38637         9.76511
     2011.68240         6.21829         4.63560
     2011.68514         8.45699         4.62795
     2011.68788         5.97969         4.76056
     2011.69062        10.93339         4.67470
     2011.69336         8.28109         4.85833
     2011.69609         2.75379         4.71381
     2011.69883         7.30949         4.62455
     2011.70157         8.03419         4.60500
     2011.70330        15.03380         8.76964
     2011.70705         6.40860         4.78437
     2011.70978        -0.39070         4.72401
     2011.71252         6.72600         4.68831
     2011.71526         8.80970         4.71976
     2011.71800         9.59540         4.66280
     2011.72073         9.05710         4.61775
     2011.72347         4.01980         4.82687
     2011.72621         6.39250         4.62965
     2011.72895        12.09320         4.58714
     2011.73169         3.73990         4.98669
     2011.73442         9.11460         4.82347
     2011.73716         8.87831         4.80647
     2011.73990         5.85201         4.57184
     2011.74264         6.25671         4.54549
     2011.74538         8.58241         4.73846
     2011.74811        14.27911         4.67385
     2011.75085        10.74081         4.65515
     2011.75359         9.97051         4.67300
     2011.75633        17.74321         4.62965
     2011.75906        15.00191         4.67640
     2011.76180        15.19761         4.62200
     2011.76454        11.10531         4.69426
     2011.76728         5.71102         4.69851
     2011.77002         6.46672         4.86683
     2011.77275        16.70742         4.70276
     2011.77549        16.42712         4.78097
     2011.77823         7.64182         4.72316
     2011.78097         6.86752         4.65600
     2011.78371         7.20122         4.74101
     2011.78644        10.94992         4.65685
     2011.78918         6.32762         4.78437
     2011.79192         3.59532         4.70021
     2011.79466         2.00302         4.67470
     2011.79739        12.00373         4.69681
     2011.80013         8.52643         4.66705
     2011.80287         4.95613         4.82007
     2011.80561         0.69483         4.67215
     2011.80835         7.14053         4.77247
     2011.81108         6.07523         4.71806
     2011.81382         0.87893         4.91698
     2011.81656         2.64463         4.66790
     2011.81930         3.34033         4.62625
     2011.82203         5.22803         4.72996
     2011.82477        11.46273         4.66280
     2011.82751        -8.06256         4.88383
     2011.83025         1.36714         4.69851
     2011.83299        -2.63816         4.64325
     2011.83535         1.46676         5.40664
     2011.83846        -3.17776         4.65005
     2011.84120         7.94794         4.65940
     2011.84394         8.77964         4.54634
     2011.84668         8.86334         4.63390
     2011.84941        -0.28896         4.65855
     2011.85215        -3.87126         4.57099
     2011.85489        -2.07556         4.68831
     2011.85763         3.37115         4.72911
     2011.86036        13.25385         4.69001
     2011.86310         9.50955         4.65430
     2011.86584        13.16425         4.63985
     2011.86858        10.94895         4.65600
     2011.87132         4.17065         4.57014
     2011.87405         1.77235         4.58969
     2011.87679         9.95705         4.73251
     2011.87953         4.45975         4.71721
     2011.88227         5.19245         4.57779
     2011.88501         5.34215         4.65940
     2011.88774         2.86986         4.67300
     2011.89048         6.93056         4.64410
     2011.89322         9.00426         4.69596
     2011.89596         2.19696         4.64240
     2011.89869         5.74066         4.63475
     2011.90143        -3.84864         4.65855
     2011.90417        -9.59794         4.80477
     2011.90691         1.06376         4.72146
     2011.90965        -0.63954         4.58714
     2011.91238         1.46016         4.69851
     2011.91512        -4.07913         4.65430
     2011.91786        -0.70843         4.81072
     2011.92060        -6.54973         4.65260
     2011.92334        -5.25903         4.73506
     2011.92607        -5.97133         4.76481
     2011.92881        -3.88563         4.84642
     2011.93155         3.28007         4.73166
     2011.93429         0.91777         4.74441
     2011.93702         1.35647         4.63305
     2011.93976         0.92717         4.65345
     2011.94250         5.13887         4.69256
     2011.94524         1.51958         4.67810
     2011.94798         4.25728         4.66450
     2011.95071         2.32598         4.66195
     2011.95345         4.42268         4.76396
     2011.95619         2.00838         4.73761
     2011.95893        -2.45192         4.63560
     2011.96167        -0.52222         4.89998
     2011.96440         7.40748         4.63900
     2011.96714         3.86018         4.65260
     2011.96988         3.29688         4.59904
     2011.97262        -2.74642         4.58119
     2011.97535        -4.44371         4.67810
     2011.97809        -4.25101         4.59564
     2011.98083         2.08269         4.61095
     2011.98357         4.21039         4.67300
     2011.98631         4.79209         4.57779
     2011.98904         4.81079         4.74611
     2011.99178         1.81449         4.68150
     2011.99452        12.84819         4.62540
     2011.99726         3.12689         4.55909
     2012.00273         3.37029         4.66790
     2012.00547         0.68900         4.60415
     2012.00821         4.59270         4.66365
     2012.01095         2.74840         4.64240
     2012.01368         1.35910         4.61265
     2012.01642         3.76080         4.55569
     2012.01916         2.73450         4.65430
     2012.02190        -0.92780         4.63900
     2012.02464         0.71490         4.53784
     2012.02737        -1.71640         4.53104
     2012.03011        -0.21570         4.57439
     2012.03285        -0.54600         4.62880
     2012.03559        -0.99329         4.58544
     2012.03833        -2.45959         4.60755
     2012.04106        -9.50289         4.63050
     2012.04380        -1.49019         4.55314
     2012.04654        -2.85849         4.58204
     2012.05475        12.40461         4.58544
     2012.05629         1.83082        14.68634
     2012.06023         5.91701         4.79712
     2012.06297         1.74471         4.78777
     2012.06570         0.40742         4.82092
     2012.06844        -5.30488         4.65600
     2012.07118        -5.41218         4.57014
     2012.07392        -3.76648         4.53189
     2012.07666        -0.19478         4.55994
     2012.07939         3.80992         4.64495
     2012.08213         0.13462         4.57269
     2012.08487        -0.68568         4.54464
     2012.08761        -5.42298         4.63305
     2012.09034        -1.56028         4.53869
     2012.09308        -2.70358         4.68405
     2012.09582        -0.82287         4.57949
     2012.09856        -2.69417         4.54464
     2012.10130         1.15653         4.78097
     2012.10403         2.65423         4.57949
     2012.10677        -3.38107         4.71296
     2012.10951        -1.31837         4.76141
     2012.11225        -0.13567         4.62200
     2012.11498         0.72203         4.67725
     2012.11731         0.74588         5.71353
     2012.12046         6.15743         4.61945
     2012.12320        -0.12287         4.61265
     2012.12594        -6.81316         4.56674
     2012.12867        -3.99146         4.60500
     2012.13141        -0.22376         4.52254
     2012.13415        -1.24706         4.58714
     2012.13689        -0.03836         4.63900
     2012.13963         6.19434         4.65345
     2012.14236         0.71404         4.77587
     2012.14510        -3.66226         4.62625
     2012.14784        -8.43456         4.76651
     2012.15058        -0.26386         4.59819
     2012.15331        -5.29516         4.53954
     2012.15605        -3.24445         4.61180
     2012.15879         0.15925         4.64495
     2012.16153        -4.75305         4.55059
     2012.16427        -0.35635         4.65175
     2012.16700        -4.16665         4.63475
     2012.16974        -2.83895         4.62030
     2012.17248        -3.42725         4.60244
     2012.17522        -1.90955         4.65515
     2012.17796        -4.54385         4.60415
     2012.18069        -3.45715         4.61605
     2012.18343        -7.18745         4.59309
     2012.18617        -8.07874         4.66025
     2012.18891         0.62696         4.63730
     2012.19164         4.55666         4.61775
     2012.19438         2.49936         4.59904
     2012.19712        -4.50794         4.58799
     2012.19986        -3.75524         4.60415
     2012.20260         5.05546         4.63050
     2012.20533         7.06316         4.61350
     2012.20807         2.49086         4.57694
     2012.21081        -1.00744         4.53784
     2012.21355         0.70726         4.54889
     2012.21629         2.84297         4.58459
     2012.21902        -1.50333         4.53529
     2012.22176        -8.75163         4.53784
     2012.22450        -5.19793         4.54549
     2012.22724        -2.28223         4.53529
     2012.22997         2.28847         4.51829
     2012.23271         3.96217         4.56759
     2012.23545         2.51987         4.58204
     2012.23819         2.29757         4.58799
     2012.24093         2.27427         4.60500
     2012.24366         5.60597         4.58714
     2012.24640        -0.03632         4.55144
     2012.24914        -1.84062         4.58289
     2012.25188        -4.92892         4.57609
     2012.25462        -4.98522         4.58034
     2012.25735        -0.53352         4.50723
     2012.26009        -2.86482         4.52764
     2012.26283        -4.59512         4.58799
     2012.26557        -7.80242         4.54634
     2012.26830        -5.77072         4.56419
     2012.27104         0.32898         4.62795
     2012.27378         1.67569         4.52084
     2012.27652         1.97639         4.53189
     2012.27926         6.36709         4.70871
     2012.28199        -2.27521         4.58204
     2012.28473        -2.38451         4.54039
     2012.28747        -2.21981         4.55994
     2012.29021        -3.92011         4.58204
     2012.29295        -6.95141         4.55144
     2012.29568        -7.34271         4.57014
     2012.29842        -4.84001         4.55484
     2012.30116        -5.87831         4.59054
     2012.30390        -8.78460         4.61265
     2012.30663        -7.88890         4.53529
     2012.30937        -1.41420         4.53104
     2012.31211         0.59350         4.66790
     2012.31485        -4.09980         4.69936
     2012.31759         0.68390         4.55569
     2012.32032        -3.10840         4.64240
     2012.32306        -5.42370         4.53019
     2012.32580        -7.86900         4.55059
     2012.32854         0.58870         4.61520
     2012.33128        -2.75460         4.69681
     2012.33401         2.37611         4.64155
     2012.33675         0.38981         4.54124
     2012.33949        -5.10749         4.57099
     2012.34223        -7.31079         4.52849
     2012.34496       -14.05809         4.53274
     2012.34770       -10.22839         4.62540
     2012.35044        -4.87069         4.58714
     2012.35318        -3.90099         4.52254
     2012.35592        -6.37029         4.54634
     2012.35865        -8.89659         4.53189
     2012.36139        -7.55089         4.55229
     2012.36413        -5.27518         4.52339
     2012.36687        -4.49048         4.55229
     2012.36961        -5.01778         4.57099
     2012.37234        -2.60708         4.58459
     2012.37508        -4.42638         4.61775
     2012.37782        -1.72568         4.64750
     2012.38056        -8.57198         4.55739
     2012.38329        -3.26028         4.63220
     2012.38603        -0.89558         4.69681
     2012.38877        -8.08788         4.86768
     2012.39151         0.84082         4.63730
     2012.39425        -2.04747         4.57184
     2012.39698        -6.70977         4.71466
     2012.39972        -6.36407         4.59479
     2012.40246        -8.00237         4.63220
     2012.40520        -1.12967         4.61945
     2012.40794        -6.49397         4.58459
     2012.41067        -3.98227         4.57014
     2012.41284        -8.98076         6.13433
     2012.41615        -4.38987         4.69511
     2012.41889        -1.30817         4.69256
     2012.42162        -3.80547         4.64835
     2012.42436        -1.78876         4.61860
     2012.42710        -2.11006         4.57779
     2012.42984        -2.11036         4.57864
     2012.43258        -7.09166         4.64665
     2012.43531        -4.58796         4.60925
     2012.43805        -5.39626         4.55654
     2012.44079       -10.93156         4.66620
     2012.44353        -7.57486         4.61265
     2012.44626        -3.29516         4.58544
     2012.44900        -6.14746         4.57269
     2012.45174        -4.86576         4.62200
     2012.45448        -3.69305         4.67725
     2012.45722         1.36565         4.62880
     2012.45995        -5.70065         4.69426
     2012.46269         2.95905         4.62795
     2012.46543        -5.33425         4.56674
     2012.46817        -0.78655         4.55484
     2012.47091         2.31415         4.63730
     2012.47364         0.52385         4.62965
     2012.47638        -0.37045         4.65175
     2012.47912         1.20225         4.64240
     2012.48186        -2.05105         4.60670
     2012.48459         1.33466         4.60755
     2012.48733        -3.23764         4.60159
     2012.49007        -0.39794         4.61265
     2012.49281        -4.36624         4.58544
     2012.49555        -3.14654         4.58714
     2012.49828         0.90616         4.59989
     2012.50102         2.69086         4.67130
     2012.50376        -1.57644         4.63475
     2012.50650        -2.30374         4.56419
     2012.50924        -4.05404         4.75376
     2012.51197         4.39166         4.72401
     2012.51471        -3.43963         4.57354
     2012.51745         1.89007         4.79457
     2012.52019         0.21077         4.78692
     2012.52292        -4.44453         4.59394
     2012.52566        -3.01683         4.63730
     2012.52840         1.10287         4.59394
     2012.53114        -7.95443         4.83792
     2012.53388        -0.17073         4.60500
     2012.53661        -5.61203         4.74441
     2012.53935         6.42967         4.68575
     2012.54209         9.78837         4.59564
     2012.54483         8.20408         4.57269
     2012.54757         5.23978         4.64835
     2012.55030        -3.11652         4.83367
     2012.55304        -0.13582         4.59734
     2012.55578         4.04288         4.61690
     2012.55852         2.69558         4.69086
     2012.56125        -1.73272         4.63135
     2012.56399         0.71698         4.55909
     2012.56673         0.75868         4.63135
     2012.56947         1.47438         4.70616
     2012.57221         4.77308         4.57779
     2012.57494         2.24979         4.55399
     2012.57768        -1.50551         4.73251
     2012.58042         4.78419         4.56674
     2012.58316        -6.15511         4.58629
     2012.58590        -2.51041         4.59564
     2012.58863         5.66029         4.67640
     2012.59137         7.26499         4.56929
     2012.59377         6.69598         5.32673
     2012.59685         6.29439         4.73251
     2012.59958         2.55809         4.57949
     2012.60232        -0.81321         4.75291
     2012.60506         5.45750         4.54124
     2012.60780         5.41920         4.55994
     2012.61054         9.31490         4.72401
     2012.61327         7.43860         4.58969
     2012.61601         9.56930         4.62710
     2012.61875        10.96800         4.66705
     2012.62149         7.51970         4.61265
     2012.62423        10.73740         4.72571
     2012.62696         2.68010         4.99179
     2012.62970         3.82880         4.59309
     2012.63244         9.65251         4.67810
     2012.63518        10.86121         4.62285
     2012.63791         6.26391         4.71636
     2012.64065        10.93961         4.62455
     2012.64339        13.82931         4.60840
     2012.64613         8.18101         4.68490
     2012.64887         8.32571         4.61265
     2012.65160        16.17641         4.78522
     2012.65371         4.02781         6.54407
     2012.65708         9.45381         4.92123
     2012.65982         6.53151         4.75036
     2012.66256         7.27822         4.67045
     2012.66529         9.85992         4.69681
     2012.66803         8.98262         4.58884
     2012.67077         8.78932         4.67470
     2012.67351         9.54002         4.74696
     2012.67624        11.20872         4.63815
     2012.67898        15.76342         4.57609
     2012.68172         7.46412         4.70786
     2012.68446        11.19082         4.76736
     2012.68668        13.79945         5.56306
     2012.68993        13.92522         4.73506
     2012.69167         7.81784         9.56533
     2012.69541        11.80963         4.74356
     2012.69815         1.05933         5.03260
     2012.70089         8.49603         4.74016
     2012.70362         8.54073         4.71551
     2012.70636         4.55743         4.64835
     2012.70910         9.15113         4.65855
     2012.71184         8.54683         4.79882
     2012.71457        15.15753         4.64155
     2012.71731        14.50923         4.64410
     2012.72011        10.13805         4.63220
     2012.72279        13.83564         4.68065
     2012.72553        14.60634         4.67215
     2012.72826         5.93804         4.65005
     2012.73100         8.25474         4.88298
     2012.73374        16.96344         4.83027
     2012.73648         6.61114         4.62455
     2012.73921        11.18484         4.85577
     2012.74195         4.37954         4.97819
     2012.74469        11.95624         4.71891
     2012.74743        11.98594         4.69851
     2012.75017         9.78364         4.82857
     2012.75290        12.48635         4.88383
     2012.75564         6.36705         4.64070
     2012.75838        10.01375         4.66195
     2012.76112         9.02445         4.70191
     2012.76386        11.59315         4.57354
     2012.76659        13.09885         4.68746
     2012.76933        12.22155         4.81922
     2012.77207        11.65025         4.69341
     2012.77481         9.10295         4.59734
     2012.77754        13.01765         4.56929
     2012.78028         5.63435         4.75291
     2012.78302         6.16606         4.73761
     2012.78576         7.67976         4.74016
     2012.78850        14.61646         4.83707
     2012.79123        20.86816         4.81497
     2012.79397         8.36586         4.63475
     2012.79671         7.32056         4.62795
     2012.79945        10.32326         5.04535
     2012.80219         8.77896         4.66620
     2012.80492         6.54566         4.80137
     2012.80766         3.79236         4.69681
     2012.81040         8.30006         4.65770
     2012.81314        10.31577         4.67130
     2012.81587         4.42547         4.78777
     2012.81861         0.30517         4.86343
     2012.82135         5.33087         4.73846
     2012.82409        13.09857         4.82347
     2012.82683         7.10727         4.85237
     2012.82956         3.73097         4.73251
     2012.83230        11.85967         4.62965
     2012.83504         1.83537         4.72316
     2012.83778         6.11607         4.70871
     2012.84052         9.64277         4.70021
     2012.84325         1.77148         4.88723
     2012.84599         5.77518         4.92718
     2012.84873        -0.31612         4.77842
     2012.85147         4.78558         4.90678
     2012.85420        -1.88672         4.67725
     2012.85694         0.15798         4.78777
     2012.85968         5.19368         4.68235
     2012.86242         2.46338         4.67725
     2012.86516        12.72408         4.69766
     2012.86789         2.64478         4.83792
     2012.87063         4.59748         4.66450
     2012.87337         3.50619         4.72486
     2012.87611         1.97089         4.72826
     2012.87885         3.61759         4.62455
     2012.88158         9.30129         4.70786
     2012.88432        10.36899         4.72911
     2012.88706         8.09369         4.87363
     2012.88980        10.55639         4.79882
     2012.89253         0.24709         4.66365
     2012.89527         3.44979         4.72401
     2012.89801         1.81449         4.74526
     2012.90075         3.91419         4.63390
     2012.90349        -2.17610         4.70871
     2012.90622         5.14560         4.73761
     2012.90896         4.37030         4.69256
     2012.91170         5.56200         4.76226
     2012.91426         6.99732         5.18731
     2012.91640        16.99779         6.99973
     2012.91991         6.16510         4.70191
     2012.92265         8.28280         4.75121
     2012.92539         7.17050         4.64495
     2012.92813         0.67120         4.68320
     2012.93086         4.18290         4.69766
     2012.93360         9.81061         4.79542
     2012.93634         0.61231         4.58884
     2012.93908        -3.04399         4.72571
     2012.94182         6.79571         4.75801
     2012.94455        11.12041         4.64835
     2012.94729         6.42111         4.69766
     2012.95003         6.08281         4.69681
     2012.95277         9.02951         4.75971
     2012.95551         8.92621         4.61180
     2012.95824        11.75591         4.70021
     2012.96098        16.46261         4.77162
     2012.96372         0.97832         4.82602
     2012.96646         4.59002         4.55994
     2012.96919         4.40472         4.72316
     2012.97193         2.30242         4.81157
     2012.97467         3.85012         4.57354
     2012.97621       -26.94667        18.69966
     2012.98015        -1.61148         4.64410
     2012.98288         3.63122         4.55569
     2012.98562         7.21992         4.54634
     2012.98836         4.64362         4.59734
     2012.99110         5.31132         4.71806
     2012.99384         1.80203         4.60840
     2012.99657         6.62673         4.54634
     2012.99931         5.00043         4.68235
     2013.00205         3.05113         4.59054
     2013.00479         1.00783         4.60074
     2013.00752        -1.19147         4.59819
     2013.01026        -0.19077         4.64325
     2013.01300         3.56393         4.61095
     2013.01574         4.07163         4.62200
     2013.01848         3.67733         4.80562
     2013.02121         0.08904         4.68660
     2013.02395        -5.71626         4.66365
     2013.02669         3.81044         4.90933
     2013.02943        -1.98086         4.73931
     2013.03216        -5.20316         4.58544
     2013.03490        -5.19746         4.65345
     2013.03764        -6.11576         4.74526
     2013.04038        -8.99406         4.61010
     2013.04312       -10.86236         4.66195
     2013.04585        -7.69666         4.88128
     2013.04859        -8.43196         4.84047
     2013.05133        -6.07725         4.62795
     2013.05407        -4.21755         4.63645
     2013.05681        -3.59085         4.68150
     2013.05954        -2.94615         4.60670
     2013.06228        -1.74445         4.76906
     2013.06502         1.28225         4.83537
     2013.06776         0.80395         4.75291
     2013.07049         0.95465         4.68575
     2013.07323         1.39935         4.67640
     2013.07597         1.35405         4.86003
     2013.07871         3.24975         4.65515
     2013.08145         4.42646         4.67810
     2013.08418        -3.69584         4.70871
     2013.08692        -6.36814         4.76736
     2013.08966        -7.15844         4.58969
     2013.09240        -2.60174         4.59904
     2013.09514         4.11896         4.78522
     2013.09787         0.03966         4.86768
     2013.10061         1.77036         4.94249
     2013.10335        -3.43694         4.97224
     2013.10609        -2.23324         4.72231
     2013.10882        -2.50754         4.60415
     2013.11156        -5.05883         4.91953
     2013.11430        -1.94413         4.70531
     2013.11704        -6.61943         4.64070
     2013.11978        -2.97273         4.86853
     2013.12251        -4.91003         4.74186
     2013.12525        -9.65433         4.80732
     2013.12799        -8.07163         4.68065
     2013.13073        -3.53193         4.67640
     2013.13347        -1.08323         4.87023
     2013.13620         2.20747         4.61265
     2013.13894        -0.72383         4.62285
     2013.14168         2.30488         4.77587
     2013.14442         2.34958         5.00879
     2013.14715         3.38028         4.78862
     2013.14989        -5.51802         4.65260
     2013.15263         1.03668         4.68746
     2013.15537       -14.94062         4.63135
     2013.15811       -10.90192         4.60755
     2013.16084        -5.81522         4.80647
     2013.16358       -14.57252         4.89148
     2013.16632        -8.63282         4.87703
     2013.16906        -7.53712         4.99859
     2013.17180        -4.12141         4.76056
     2013.17453        -2.35571         4.65515
     2013.17727        -1.77201         4.73506
     2013.18001        -2.44431         4.78437
     2013.18275        -4.50561         4.65600
     2013.18548        -5.24091         4.67130
     2013.18822        -5.52321         4.72146
     2013.19096        -6.52951         4.62965
     2013.19370        -4.68781         4.71891
     2013.19644        -5.82511         4.80392
     2013.19917        -2.19841         4.71551
     2013.20191        -7.35570         4.75801
     2013.20465         0.26400         4.76311
     2013.20739        -0.87630         4.63560
     2013.21013        -4.40560         4.67130
     2013.21286        -3.68890         4.56079
     2013.21560         5.29280         4.58034
     2013.21834        -3.05550         4.68150
     2013.22108        -7.76680         4.61010
     2013.22381        -4.72010         4.55909
     2013.22655        -4.73240         4.58034
     2013.22929        -5.68770         4.67640
     2013.23203        -3.55899         4.53614
     2013.23477        -1.82329         4.57694
     2013.23750        -8.20559         4.85663
     2013.24024        -9.13689         4.79457
     2013.24298        -5.36919         4.69851
     2013.24572         0.49751         4.67045
     2013.24846        -0.16679         4.69596
     2013.25119        -0.53209         4.58969
     2013.25393        -4.17339         4.68831
     2013.25667         2.17731         4.70786
     2013.25941         2.94701         4.69171
     2013.26214         1.26072         4.72571
     2013.26488         3.75042         4.63730
     2013.26762         1.74912         4.62795
     2013.27036        -3.83218         4.55484
     2013.27310        -2.05748         4.79967
     2013.27583        -5.71078         4.81327
     2013.27857        -3.23208         4.75801
     2013.28131         0.43162         4.58119
     2013.28405         1.38032         4.54294
     2013.28679         3.45402         4.77417
     2013.28952        -2.61228         4.59054
     2013.29226        -8.15757         4.60840
     2013.29500        -8.26187         4.57694
     2013.29774        -5.93717         4.81242
     2013.30047        -6.04747         4.57524
     2013.30321        -8.73277         4.69511
     2013.30595       -12.70307         4.60415
     2013.30869       -12.00737         4.59819
     2013.31143        -8.94267         4.53529
     2013.31416        -2.26897         4.69086
     2013.31690        -4.19527         4.64155
     2013.31964       -11.82457         4.63305
     2013.32238        -3.73886         4.64070
     2013.32389        -2.89572        17.92692
     2013.32785        -3.09646         4.55569
     2013.33059        -8.14276         4.55824
     2013.33333        -8.82606         4.59139
     2013.33607       -11.13536         4.61095
     2013.33880        -3.96566         4.59309
     2013.34154         0.89404         4.59394
     2013.34428        -2.93726         4.80732
     2013.34702        -2.94456         4.79372
     2013.34976        -4.48186         4.64155
     2013.35249        -7.64615         4.72316
     2013.35523        -2.26145         4.77672
     2013.35797        -6.59675         4.74186
     2013.36071        -4.49905         4.90933
     2013.36339        -7.25847         4.96374
     2013.36618        -3.69465         4.68660
     2013.36892         2.26705         4.80222
     2013.37166        -2.24925         4.67300
     2013.37440         0.86745         4.65175
     2013.37713        -4.72585         4.71296
     2013.37987        -6.02314         4.64580
     2013.38261        -7.09044         4.63730
     2013.38535        -4.54974         4.69086
     2013.38809         0.58496         4.94419
     2013.39082        -0.27634         4.75376
     2013.39356        -0.67864         4.74271
     2013.39630         0.27606         4.84727
     2013.39904        -0.81324         4.73251
     2013.40177        -1.88454         4.77587
     2013.40451         0.03516         4.74866
     2013.40725         6.31586         4.73931
     2013.40999         0.37957         4.73336
     2013.41273        -3.36873         4.75461
     2013.41546        -4.23603         4.85918
     2013.41820        -2.72733         4.72911
     2013.42094         4.50137         4.66790
     2013.42368        -1.89893         4.71891
     2013.42642        -2.59423         4.74611
     2013.42915         1.52547         4.71976
     2013.43189        -3.87083         4.78947
     2013.43463         1.09287         4.78012
     2013.43737         1.77757         4.69086
     2013.44010         2.61828         4.71976
     2013.44284         1.76898         4.64070
     2013.44558         0.45768         4.80392
     2013.44832        -5.39862         4.69341
     2013.45106        -1.74992         4.69256
     2013.45379        -2.11122         4.63730
     2013.45653        -1.37052         4.67045
     2013.45927        -2.03582         4.72656
     2013.46201         3.03788         4.62540
     2013.46475         2.23258         4.58884
     2013.46748         6.44528         4.66365
     2013.47022        -1.04801         4.60670
     2013.47296        -2.19731         4.70106
     2013.47570         2.14739         4.68575
     2013.47843         2.47009         4.75376
     2013.48117        -0.10421         4.69426
     2013.48391         4.57349         4.82347
     2013.48665         0.48419         4.84217
     2013.48939        -3.55711         4.82262
     2013.49212        -1.49541         4.97224
     2013.49486        -3.43171         5.26127
     2013.49646       -11.60538        16.72233
     2013.50034        -3.15830         5.25022
     2013.50308         0.68840         4.88298
     2013.50581         3.79310         4.70616
     2013.50855        -0.57720         4.65940
     2013.51129         7.22550         4.68660
     2013.51403         4.06420         4.78097
     2013.51676         1.04490         4.70616
     2013.51876         0.36006         6.95467
     2013.52224         5.40730         4.78012
     2013.52498         2.48000         4.93483
     2013.52772         5.85570         4.67725
     2013.53045         1.66241         4.78097
     2013.53319         0.71611         4.97309
     2013.53593         1.96381         5.07680
     2013.53867        -0.38049         5.35648
     2013.54141        -1.02879         5.04450
     2013.54414        -2.48209         4.98074
     2013.54688        -5.93239         5.23407
     2013.54962         1.42231         5.31398
     2013.55236         7.40701         5.10910
     2013.55509        -4.11329         5.05980
     2013.55783         4.31841         5.40239
     2013.56057        -1.17988         5.63872
     2013.56331         3.27282         5.58516
     2013.56605        -1.60848         5.26042
     2013.56878         8.07422         5.04790
     2013.57152         9.58892         4.87788
     2013.57426         4.10162         4.82602
     2013.57700        -1.56768         5.05300
     2013.57974        -3.78898         5.11421
     2013.58247         4.15372         4.82517
     2013.58521         4.45742         4.72486
     2013.58795         4.60312         4.81837
     2013.59069        -2.66717         5.29443
     2013.59342        -5.66247         6.00341
     2013.59616         0.73123         5.95581
     2013.59890        -9.15607         6.12242
     2013.60164        -5.15937         6.00256
     2013.60438        -0.97467         5.97536
     2013.60620        -5.82487         9.73875
     2013.60985        -1.39427         5.67187
     2013.61259        -4.20857         5.43129
     2013.61533         6.95213         5.73988
     2013.61807        -1.35317         5.99321
     2013.62080         1.26454         5.61747
     2013.62354         6.71824         6.22274
     2013.62628        -1.63806         6.44291
     2013.62902        -2.90836         6.42166
     2013.63175         0.54234         5.74073
     2013.63449         4.08404         5.87420
     2013.63723         7.38174         5.82829
     2013.63997         6.37044         6.96147
     2013.64271        -6.90086         6.57723
     2013.64544        -1.04916         6.55343
     2013.64818         1.18354         6.13178
     2013.65092         8.32825         5.69482
     2013.65366         7.02795         7.16380
     2013.65639         5.33665         7.49789
     2013.65913         2.97535         8.27658
     2013.66187         9.53405         8.07851
     2013.66461        -0.46525         8.87165
     2013.66735        13.51045         9.31710
     2013.67008         3.89315        10.44604
     2013.67282         1.08785         8.56561
     2013.67556        -1.93745         7.77247
     2013.67830         5.63125         7.59055
     2013.68001        29.53682        16.67387
     2013.68377        15.06566         9.88327
     2013.68651         0.10636        11.29699
     2013.68925        18.75206        12.79912
     2013.69199        25.32376        13.68237
     2013.69472        29.47846        17.12443
     2013.69746         1.38416        10.88639
     2013.70020        16.50286        10.70532
     2013.70294         6.67656        10.88214
     2013.70568        14.86126        12.30606
     2013.70841        18.87196        13.57186
     2013.71115        10.26867        13.04649
     2013.71389         2.70237        10.20376
     2013.71663        39.14607        13.85239
     2013.71937         3.03677        10.50129
     2013.72210         3.90647         8.71438
     2013.72484        -0.96283         8.51886
     2013.72758         2.24187         7.11449
     2013.73032         2.02557         9.47947
     2013.73305        10.78727         9.51008
     2013.73579        11.07797        11.65063
     2013.73853        -6.20732         7.51234
     2013.74081        11.48943        11.09976
     2013.74401        14.75308         9.63589
     2013.74674        15.12378        11.50611
     2013.74948        19.11348         9.91047
     2013.75222       -11.65482         6.44376
     2013.75496        -7.08712         6.07142
     2013.75770        -7.04342         7.25986
     2013.76043       -21.49872         7.28026
     2013.76317         1.31198         8.45850
     2013.76591        11.27568         7.65941
     2013.76865        -2.05261         7.30151
     2013.77138        -6.52391         6.79911
     2013.77412        -0.90221         7.11874
     2013.77686        -0.80851         7.53614
     2013.77960        -8.68381         9.64524
     2013.78234       -15.63111         9.25335
     2013.78505        -8.41447        11.51886
     2013.78781        -8.47371        10.46644
     2013.79055       -10.79801         8.28168
     2013.79329        -6.17231         8.41430
     2013.79603        -4.58961         8.26553
     2013.79876        -9.95790         7.78947
     2013.80150        -1.12520         7.08134
     2013.80424        -2.07250         6.95637
     2013.80698         0.89420         6.43696
     2013.80971        -1.97910         8.57752
     2013.81245        -7.03140         8.31313
     2013.81519        -4.01370         7.18420
     2013.81793        -6.13200         8.63872
     2013.82067         8.04370         8.92011
     2013.82340        -1.59660         8.08786
     2013.82614        -4.07390         8.02410
     2013.82888        -2.31719         6.58913
     2013.83162        -4.52749         6.24739
     2013.83436        -9.10879         7.73762
     2013.83675        27.00120        11.61152
     2016.80137         4.43431         7.76822
     2016.80578       -16.70251        52.73174
     2016.80766         8.28740         4.49278
     2016.81040        -3.42790         4.91443
     2016.81314        -0.96820         4.66705
     2016.81587         0.77350         4.67640
     2016.81850        -1.26202         5.26382
     2016.82135        -1.79109         6.19383
     2016.82409        -1.88439         4.65260
     2016.82683         2.83031         4.53104
     2016.82956         4.05001         4.71636
     2016.83230         1.70771         4.57439
     2016.83504        -5.86759         4.50978
     2016.83778        -1.06289         4.69511
     2016.84052       -13.68319         4.79797
     2016.84301         1.22900         5.11166
     2016.84599        -5.62679         4.67555
     2016.84873         0.62992         4.71041
     2016.85147        -0.72538         4.58204
     2016.85420         2.21432         4.60074
     2016.85694         2.75502         4.71126
     2016.85968        -2.09128         5.20092
     2016.86242         0.60742         4.63390
     2016.86516         0.79312         4.73251
     2016.86789        -1.69918         4.83537
     2016.87063        -8.39648         4.79117
     2016.87337        -0.51978         4.68746
     2016.87611        -2.57208         4.69596
     2016.87885        -1.78837         4.72486
     2016.88158        -5.48767         4.61605
     2016.88432         1.81203         4.69426
     2016.88706         0.72473         4.89488
     2016.88980        -3.37757         4.61775
     2016.89253         0.93113         4.61010
     2016.89527        -6.27217         4.59224
     2016.89801        -2.30247         4.74526
     2016.90075        -9.65177         4.62625
     2016.90349         0.03193         4.67980
     2016.90622         1.11963         5.18051
     2016.90896        -4.79566         4.57439
     2016.91170        -2.64496         4.49108
     2016.91444        -2.52926         4.62115
     2016.91718       -10.04356         4.82517
     2016.91991       -15.13586         4.65770
     2016.92265        -5.49616         4.55824
     2016.92539        -7.34046         4.73931
     2016.92813       -13.95476         4.52764
     2016.93086       -11.71506         4.80052
     2016.93360        -2.67136         4.55314
     2016.93634        -5.65966         4.66875
     2016.93908       -16.24695         4.67130
     2016.94182        -4.41125         4.73591
     2016.94455        -5.90855         5.32333
     2016.94729        -9.47385         4.79627
     2016.95003        -9.18215         4.74016
     2016.95277        -4.06345         4.60585
     2016.95551        -3.36975         4.79457
     2016.95824         0.38995         4.62370
     2016.96098         1.62865         4.50808
     2016.96372        -6.58765         4.84047
     2016.96646        -8.37995         4.67470
     2016.96919        -1.36924         4.70106
     2016.97193        -5.48554         4.57779
     2016.97467         3.93316         4.85322
     2016.97741       -10.71014         4.63390
     2016.98015         1.00756         8.12186
     2016.98288        -5.72574         4.68150
     2016.98562        -0.07304         4.52424
     2016.98836        -5.12934         4.65005
     2016.99110        -0.51364         4.59224
     2016.99384        -2.84894         4.82177
     2016.99657        -7.32823         4.63220
     2016.99931        -1.95853         4.64920
     2017.00205        -4.33183         4.54974
     2017.00479         1.62187         4.55569
     2017.00752        -4.63643         4.67810
     2017.01026        -5.70173         4.60159
     2017.01300         2.28597         4.71806
     2017.01574        -0.52733         4.66535
     2017.01848         3.14037         4.62285
     2017.02121        -1.72793         4.69936
     2017.02395        -1.39523         4.58204
     2017.02669        -4.05952         4.64240
     2017.02943         2.33518         4.51999
     2017.03216        -2.36212         4.75886
     2017.03490        -3.06442         4.59989
     2017.03764        -6.35472         4.54209
     2017.04038        -4.89802         4.78947
     2017.04312        -1.20932         4.56929
     2017.04585         2.23038         4.84387
     2017.04859         0.55708         4.84132
     2017.05133         2.96078         4.72826
     2017.05407         6.87548         4.56249
     2017.05681         8.97919         4.58034
     2017.05954        -7.57711         4.81752
     2017.06228         0.56459         4.61265
     2017.06502        -5.84971         4.53869
     2017.06776        -7.31901         4.56844
     2017.07049        -9.07131         4.82942
     2017.07323        -7.91161         4.80137
     2017.07597       -11.74391         4.60755
     2017.07871        -3.01921         4.84727
     2017.08145       -15.28951         4.67810
     2017.08418       -10.86881         4.55399
     2017.08692        -7.43910         4.50553
     2017.08966        -7.53440         4.68320
     2017.09240        -9.67470         4.64920
     2017.09514        -2.67500         4.63730
     2017.09787        -3.78830         4.70106
     2017.10609       -20.02920         4.54464
     2017.10882        -1.81350         4.84812
     2017.11156        -4.39980         4.62965
     2017.11430       -10.19010         4.65430
     2017.11704        -9.60639         4.68405
     2017.11978       -16.95169         4.58374
     2017.12251        -7.67299         4.58969
     2017.12525        -5.66029         4.79882
     2017.12799        -3.26659         4.82007
     2017.13073        -5.09489         4.55314
     2017.13347        -4.03119         4.59224
     2017.13620        -8.09649         4.74781
     2017.13894        -7.17179         4.59904
     2017.14168        -9.67609         4.56929
     2017.14442       -16.02039         4.61605
     2017.14715       -10.38768         4.78862
     2017.14989        -8.63098         4.55654
     2017.15263        -2.92628         4.54209
     2017.15537        -4.09058         5.01219
     2017.15811        -3.24188         4.71976
     2017.16084       -14.14518         4.57184
     2017.16358       -13.93548         8.11846
     2017.16632        -9.24178         4.60500
     2017.16906       -11.88608         4.61350
     2017.17180        -2.76838         4.61520
     2017.17453        -2.53868         4.63220
     2017.17727        -4.27197         4.70021
     2017.18001       -10.11927         4.57779
     2017.18275        -6.89657         4.58204
     2017.18548       -16.81987         4.73506
     2017.18822       -16.21017         4.69766
     2017.19096       -16.22247         4.75121
     2017.19370       -14.86577         4.67385
     2017.19644       -10.77407         4.57524
     2017.19917        -8.22937         4.59989
     2017.20191        -8.78367         4.57354
     2017.20465       -17.60897         4.77247
     2017.20739        -8.59726         4.58289
     2017.21013        -8.04356         4.63220
     2017.21286        -8.96586         4.64495
     2017.21560       -11.33216         4.57524
     2017.21834        -6.23646         4.53359
     2017.22108        -5.25176         4.59819
     2017.22381       -10.01206         4.90423
     2017.22655       -10.08336         4.68660
     2017.22929       -10.63166         4.76226
     2017.23203        -5.68796         4.60500
     2017.23477       -12.37126         4.62370
     2017.23750       -14.99055         4.54804
     2017.24024       -13.55885         4.60840
     2017.24298       -16.03415         4.65090
     2017.24572       -17.83245         4.53444
     2017.24846       -12.68475         4.56164
     2017.25119       -11.09405         4.64495
     2017.25393       -14.10935         4.53869
     2017.25667        -7.69665         4.60330
     2017.25941       -16.68595         4.57949
     2017.26214        -9.89625         4.66875
     2017.26488        -6.17755         4.58374
     2017.26762        -8.04284         4.54634
     2017.27036       -14.24814         4.67555
     2017.27310       -15.26744         4.58629
     2017.27583       -19.45074         4.57184
     2017.27857       -11.79904         4.55229
     2017.28131       -17.82434         4.70531
     2017.28405       -18.05764         4.55059
     2017.28952       -10.96124         4.76141
     2017.29226        -6.60754         4.55484
     2017.29500       -15.12584         4.60670
     2017.29774       -16.50413         4.55654
     2017.30047       -17.74243         4.62370
     2017.30321       -16.85273         4.60670
     2017.30595        -9.51403         4.62455
     2017.30869       -18.41733         4.64920
     2017.31143       -10.52763         4.55569
     2017.31416       -12.95893         4.51148
     2017.31690       -12.53323         4.67045
     2017.31964       -12.98753         4.77502
     2017.32238       -17.44983         4.64665
     2017.32512       -16.04913         4.60244
     2017.32785       -13.67542         4.60330
     2017.33059       -21.30572         4.58034
     2017.33333       -15.90502         4.62030
     2017.33607       -17.39232         4.56929
     2017.33880       -20.22362         4.66875
     2017.34154         2.25608         4.99179
     2017.34428       -11.15422         4.54804
     2017.34702       -15.70452         4.61435
     2017.34976        -3.80982         4.53614
     2017.35249       -11.47512         4.54634
     2017.35523       -15.06841         4.53784
     2017.35797       -12.51171         4.59139
     2017.36071       -16.83601         4.55994
     2017.36344        -9.05131         4.52934
     2017.36618       -15.79461         4.68065
     2017.36892       -11.67691         4.55739
     2017.37166        -8.57721         4.55569
     2017.37440       -10.83651         4.51063
     2017.37713        -6.12081         4.64155
     2017.37987       -12.37311         4.79542
     2017.38261        -9.01741         4.52679
     2017.38535        -5.22370         4.90338
     2017.38809        -5.83100         4.53104
     2017.39082        -8.62830         4.62200
     2017.39356        -3.72060         4.61945
     2017.39630        -5.09290         4.63475
     2017.39904        -4.20120         4.56674
     2017.40177        -1.27150         4.53189
     2017.40451        -4.50580         4.74866
     2017.40725        -4.11710         4.59054
     2017.40999        -4.57640         4.60159
     2017.41273        -3.80270         4.59904
     2017.41546       -10.92599         4.93993
     2017.41820        -6.92829         4.65175
     2017.42094        -8.19059         4.55569
     2017.42368        -8.89289         4.65515
     2017.42642        -3.57119         4.53614
     2017.42915        -2.99849         4.60244
     2017.43189         0.95421         4.61180
     2017.43463        -0.70109         4.70276
     2017.43737        -2.65839         4.55059
     2017.44010        -2.71169         4.54719
     2017.44284        -0.11299         4.67725
     2017.44558        -0.84428         4.58204
     2017.44832        -2.39658         4.55569
     2017.45106         2.46212         4.58204
     2017.45379        -0.27518         4.86513
     2017.45653        -3.00348         4.83537
     2017.45927        -8.55378         4.61095
     2017.46201         0.74292         4.71041
     2017.46475        -7.29638         4.60670
     2017.46748        -4.72368         4.60585
     2017.47022        -3.31898         4.65600
     2017.47296        -4.60828         4.62965
     2017.47570        -3.05557         4.61945
     2017.47843        -4.35287         4.54974
     2017.48117        -4.02017         4.54719
     2017.48391        -3.80047         4.60244
     2017.48665         4.21923         4.53189
     2017.48939        -0.41907         4.55059
     2017.49212        -1.06937         5.57071
     2017.49486        -3.34167         4.63475
     2017.49760        -2.63297         4.63645
     2017.50034        -2.03827         4.61010
     2017.50308         1.82443         4.58459
     2017.50581        -2.02786         4.62030
     2017.50855        -1.49016         4.57524
     2017.51129        -8.27146         4.71551
     2017.51403        -0.59076         4.63985
     2017.51676        -3.70906         4.54719
     2017.51950         0.08964         4.66790
     2017.52224         5.31934         4.59139
     2017.52498         0.96404         4.55059
     2017.52772         0.36474         4.73166
     2017.53045        -3.63856         4.63220
     2017.53319        -0.43486         4.55229
     2017.53593         5.41385         4.62965
     2017.53867         3.83555         4.62285
     2017.54141        10.17725         4.55824
     2017.54414        -0.85205         4.59139
     2017.54688         2.52665         4.56589
     2017.54962         1.89135         4.57354
     2017.55236        -0.12795         4.65770
     2017.55509         6.81875         4.61520
     2017.55783        -0.28955         4.63985
     2017.56057        -0.54185         4.56079
     2017.56331         3.27585         4.53529
     2017.56605         4.71656         4.57864
     2017.56878         1.97926         4.89998
     2017.57152         5.71796         4.55059
     2017.57426         1.76666         4.50128
     2017.57700        -1.30064         4.55569
     2017.57974        -0.08694         4.60244
     2017.58247         3.41076         4.54039
     2017.58521        -0.10454         4.56589
     2017.58761         2.21346         5.36669
     2017.59069         2.80086         4.60585
     2017.59342         6.33456         4.53614
     2017.59616         3.85027         4.63985
     2017.59890         5.32197         4.58034
     2017.60164         3.03467         4.56419
     2017.60438         0.98237         4.58289
     2017.60711         3.97207         4.70446
     2017.60985        -0.24123         4.67980
     2017.61259         1.02247         4.63220
     2017.61533        -0.79083         4.71636
     2017.61807         7.75987         4.60330
     2017.62080         0.43557         4.57354
     2017.62354         6.09727         4.62370
     2017.62628         7.27398         4.82942
     2017.62902         8.63068         4.83792
     2017.63175         3.13738         4.64240
     2017.63449         2.45908         4.65260
     2017.63723        -1.43822         4.58544
     2017.63997         4.59148         4.69766
     2017.64271         5.46618         4.65005
     2017.64544         8.02388         4.81157
     2017.64818         2.17158         4.65175
     2017.65092         2.87428         4.59394
     2017.65366         4.68398         4.72486
     2017.65639         5.81069         4.60244
     2017.65913        10.22239         4.59649
     2017.66187         4.74909         4.60330
     2017.66461         7.12679         4.84557
     2017.66735         5.95349         4.68746
     2017.67008        11.70319         4.55314
     2017.67282         9.42789         4.82432
     2017.67556         8.34459         4.88383
     2017.67830         6.90529         4.61265
     2017.68104         7.63499         4.70361
     2017.68377         7.13069         4.80902
     2017.68651        13.44140         4.84642
     2017.68925         8.07610         4.62795
     2017.69199         5.58280         4.66365
     2017.69472        10.51350         4.54634
     2017.69746        11.80320         4.74866
     2017.70020        14.81690         4.77842
     2017.70294        12.76060         5.02495
     2017.70568         8.82630         4.70786
     2017.70841        12.84500         4.56334
     2017.71115        11.59170        11.48146
     2017.71389        11.69741         5.05555
     2017.71663        15.28711         4.61095
     2017.71937        13.87681         4.60159
     2017.72210         6.22651         4.66790
     2017.72484         3.11421         4.61605
     2017.72758         8.40591         4.55909
     2017.73032         9.01961         4.82942
     2017.73305         8.83831         4.58714
     2017.73579         2.16301         4.57779
     2017.73853         2.96771         4.59819
     2017.74127         8.61441         4.87618
     2017.74401         8.40112         4.64580
     2017.74674         8.26382         4.59139
     2017.74948        11.59452        12.87052
     2017.75222        26.57622        13.09325
     2017.75496         5.39492         4.58204
     2017.75770         6.92362         4.66535
     2017.76043         6.19732         4.72826
     2017.76317         9.97802         4.64495
     2017.76591         5.85272         4.66705
     2017.76865         7.77942         4.60244
     2017.77138         3.80412         4.54379
     2017.77412         7.36283         4.61945
     2017.77686         8.90953         4.61605
     2017.77960         2.70123         4.81412
     2017.78234         2.93193         4.65855
     2017.78507         0.19363         4.48938
     2017.78781         5.72833         4.62030
     2017.79055         2.43503         4.57694
     2017.79329         3.27073         4.63985
     2017.79603         6.68743         4.56589
     2017.79876        16.24813         4.80817
     2017.80150         8.12283         4.68490
     2017.80424         7.88154         4.55059
     2017.80698         2.29424         4.89913
     2017.80971        -7.03106         4.58204
     2017.81245        -0.89536         4.53189
     2017.81519        -1.86966         4.72146
     2017.81793        -1.25696         4.77247
     2017.82067        -1.70026         4.74611
     2017.82340         3.72244         4.58714
     2017.82614         1.82514         4.63305
     2017.82888        -0.54316         4.58119
     2017.83162        10.79454         4.84132
     2017.83436         4.16925         4.56079
     2017.83709         0.88995         4.80222
     2017.83983        -8.63435         4.51573
     2017.84257         0.27435         4.56334
     2017.84531        -9.39495         4.73166
     2017.85029         0.69642         5.84359
     2017.85352         5.15915         4.62625
     2017.85626         6.40185         4.82772
     2017.85900         6.73855         4.66110
     2017.86173         7.27525         4.67300
     2017.86447         2.19996         4.68235
     2017.86721         8.57866         4.69256
     2017.86995         2.13036         4.54549
     2017.87269         3.30106         4.54464
     2017.87542        12.79176         4.64240
     2017.87816         8.96246         4.48853
     2017.88090         5.72916         4.53784
     2017.88364         6.10986         4.71976
     2017.88637        10.58356         4.63390
     2017.88911         2.85226         4.60585
     2017.89185        -2.11004         4.77587
     2017.89459         3.75267         4.76651
     2017.89733         5.87037         4.57864
     2017.90006         4.89307         4.54804
     2017.90280         0.36577         4.83367
     2017.90554         7.40147         4.62710
     2017.90828         6.10717         4.58204
     2017.91102         7.88887         4.64665
     2017.91375         0.80457         4.82517
     2017.91649        -0.55773         4.52849
     2017.91923         4.53997         4.60330
     2017.92197         3.64367         4.64240
     2017.92470         0.66238         4.53699
     2017.92744        -5.21692         4.55229
     2017.93018        -9.45422         4.53359
     2017.93292        -1.83252         4.73336
     2017.93566        -0.26082         4.55229
     2017.93839         2.02588         4.55994
     2017.94113        -1.54142         4.69426
     2017.94387         5.31128         4.59819
     2017.94661         1.14198         4.66280
     2017.94935         1.88068         4.56674
     2017.95208         4.55138         4.73506
     2017.95482         1.77109         4.55824
     2017.95756        -1.69121         4.59224
     2017.96030         5.08449         4.66960
     2017.96303         1.43219         4.50553
     2017.96577         9.65989         4.68150
     2017.96851         6.49159         4.50298
     2017.97125         0.38829         4.66195
     2017.97399         3.33499         4.55484
     2017.97672        -1.76731         4.52594
     2017.97946        -0.62761         4.51233
     2017.98220       -11.53291         4.48513
     2017.98494        -0.96920         4.48768
     2017.98767        -3.31050         4.49958
     2017.99041        -6.26080         4.76736
     2017.99315        -4.29110         4.53104
     2017.99589        -7.09340         4.59139
     2017.99863        -1.46670         4.52084
     2018.00136        -7.46600         4.57014
     2018.00410       -10.33530         4.55739
     2018.00684        -2.15860         4.56249
     2018.00958        -1.64590         4.65515
     2018.01232        -2.74620         4.56589
     2018.01505        -1.24349         4.54294
     2018.01779        -3.00379         4.63900
     2018.02053        -0.55209         4.61605
     2018.02327         3.92361         4.51318
     2018.02600         2.06631         4.58459
     2018.02874         1.22701         4.72656
     2018.03148        -6.01329         4.52339
     2018.03422        -8.63459         4.55059
     2018.03696        -7.87989         4.67300
     2018.03969        -6.66119         4.64410
     2018.04243        -7.55249         4.59734
     2018.04517        -9.23278         4.62965
     2018.04791        -4.49308         4.86598
     2018.05065        -2.66538         4.54464
     2018.05338        -4.16468         4.60755
     2018.05612        -6.18998         4.73336
     2018.05886        -6.41428         4.58374
     2018.06160        -7.68858         4.53699
     2018.06433        -2.47188         4.75971
     2018.06707         2.62082         4.86343
     2018.06981        -7.41648         4.63815
     2018.07255        -7.86578         4.66110
     2018.07529       -13.25707         4.82007
     2018.07802       -15.32337         4.72911
     2018.08076        -8.94167         4.70871
     2018.08350        -6.56097         4.59649
     2018.08624       -11.08827         4.75546
     2018.08898       -12.04457         4.88043
     2018.09171        -7.15087         4.64835
     2018.09445        -3.24017         4.82177
     2018.09719        -2.14247         4.96289
     2018.09993        -6.87977         4.63135
     2018.10266       -10.49406         4.62540
     2018.10540        -9.40636         4.87023
     2018.10814        -4.33566         4.92293
     2018.11088        -5.49596         4.59479
     2018.11362        -2.69426         4.68746
     2018.11635        -5.60656         4.59479
     2018.11909        -9.77286         4.78097
     2018.12183        -9.19716         4.77757
     2018.12457        -3.98046         4.72061
     2018.12731        -8.54376         4.63985
     2018.13004         1.85394         4.66705
     2018.13278        -0.34635         4.75206
     2018.13552        -1.69565         4.62200
     2018.13826        -1.90895         4.61520
     2018.14099        -6.80425         4.58714
     2018.14373        -8.45855         4.62795
     2018.14647        -2.05085         4.81242
     2018.14921        -6.07715         4.77587
     2018.15195        -3.29245         4.74356
     2018.15468        -7.04075         4.66025
     2018.15742        -6.30405         4.61945
     2018.16016       -13.28935         4.60755
     2018.16290       -11.75864         4.82347
     2018.16564        -8.55394         4.71636
     2018.16837        -8.57724         4.64410
     2018.17111        -5.22854         4.73761
     2018.17385       -12.32984         4.58799
     2018.17659       -10.93214         4.61605
     2018.17932        -6.33944         4.64070
     2018.18206        -4.25374         4.89488
     2018.18480        -3.84304         4.75631
     2018.18754        -7.98434         4.63645
     2018.19028        -8.72864         4.71296
     2018.19301        -5.54693         4.62625
     2018.19575         2.57677         4.66535
     2018.19849        -4.13953         4.64495
     2018.20123         4.60917         4.84727
     2018.20397        -3.33513         4.59989
     2018.20670        -4.09343         4.57269
     2018.20944        -6.30273         4.67130
     2018.21218        -7.32903         4.61775
     2018.21492       -20.67533         4.58799
     2018.21765        -5.26163         4.54209
     2018.22039        -1.71493         4.75121
     2018.22313       -10.53322         4.60585
     2018.22587       -12.78152         4.55229
     2018.22861       -10.57082         4.69681
     2018.23134        -7.71612         4.55399
     2018.23408       -10.79942         4.58969
     2018.23682        -6.62872         4.56334
     2018.23956        -9.44502         4.62965
     2018.24230       -13.10732         4.54634
     2018.24503        -5.57662         4.54294
     2018.24777        -8.02192         4.65175
     2018.25051        -5.90722         4.58714
     2018.25325        -5.26451         4.53529
     2018.25598        -4.99481         4.55484
     2018.25872       -10.36411         4.76481
     2018.26146        -5.90541         4.66195
     2018.26420        -2.39271         4.54974
     2018.26694        -5.36001         4.76226
     2018.26967       -11.01331         4.51914
     2018.27241        -8.24661         4.55824
     2018.27515         1.43809         4.54974
     2018.27789        -0.33021         4.80477
     2018.28062       -11.21451         4.70276
     2018.28336       -12.18080         4.56929
     2018.28610        -8.43810         4.60074
     2018.28884        -0.62040         4.59054
     2018.29158        -6.40270         4.71041
     2018.29431        -8.66700         4.53954
     2018.29705       -10.30730         4.58119
     2018.29979        -7.79360         4.51488
     2018.30253       -13.53190         4.57099
     2018.30527        -6.13020         4.62540
     2018.30800        -8.80550         4.47748
     2018.31074        -7.69380         4.47918
     2018.31348        -6.54009         4.50638
     2018.31622        -6.53939         4.56589
     2018.31895        -3.03569         4.60415
     2018.32169        -4.96799         4.47663
     2018.32443        -3.22329         4.57184
     2018.32717        -7.88559         4.55909
     2018.32991        -6.40589         4.70276
     2018.33264        -6.46119         4.51914
     2018.33538        -7.20349         4.79117
     2018.33812       -10.47679         4.68660
     2018.34086        -4.01509         4.55824
     2018.34360        -5.10238         4.60840
     2018.34633       -10.76768         4.53019
     2018.34907        -6.73098         4.57949
     2018.35181        -3.62828         4.63730
     2018.35455        -3.10958         4.72656
     2018.35728         0.15012         4.52084
     2018.36002        -4.06018         4.50553
     2018.36276         0.71052         4.62370
     2018.36550        -0.18178         4.52254
     2018.36824        -3.79808         4.51488
     2018.37097        -6.15438         4.60330
     2018.37371        -2.12967         4.68490
     2018.37645        -8.02597         4.64835
     2018.37919        -6.64027         4.53699
     2018.38193        -7.42357         4.71126
     2018.38466        -0.42687         4.57269
     2018.38740        -2.61917         4.61350
     2018.39014         6.75753         4.53359
     2018.39288        -5.53677         4.62795
     2018.39561        -4.01307         4.50553
     2018.39835        -0.38537         4.52169
     2018.40109        -2.45067         4.62625
     2018.40383        -1.66396         4.55739
     2018.40657         0.20574         4.56589
     2018.40930         7.12544         4.63645
     2018.41204         8.26514         4.69086
     2018.41478        -3.01316         4.51318
     2018.42299         0.74394         4.56759
     2018.42573         8.45064         4.50893
     2018.42847         0.69134         4.53954
     2018.43121         2.73305         4.64410
     2018.43394        -4.31025         4.57014
     2018.43668         0.30645         4.56674
     2018.43942        -1.64585         4.74866
     2018.44216         1.13185         4.49363
     2018.44490         0.54555         4.50128
     2018.44763        -2.69875         4.59734
     2018.45037        -1.25505         4.69936
     2018.45311         2.27365         4.50383
     2018.45585         5.43835         4.52424
     2018.45859         1.51205         4.65515
     2018.46132        -1.57824         4.55314
     2018.46406         1.97946         4.54124
     2018.46680         3.72616         4.55909
     2018.46954        -0.12114         4.63305
     2018.47227         1.24456         4.59139
     2018.47501         2.27626         4.52509
     2018.47775         2.07396         4.62115
     2018.48049        -4.30834         4.62625
     2018.48323         4.57336         4.51403
     2018.48596        -0.54394         4.49958
     2018.48870         5.85376         4.60244
     2018.49144         1.18647         4.49108
     2018.49418         4.94417         4.62285
     2018.49692         0.16687         4.69596
     2018.49965         3.39357         4.51403
     2018.50239         0.54527         4.55824
     2018.50513        -0.53903         4.55229
     2018.50787         4.71967         4.56164
     2018.51060         4.71937         4.70106
     2018.51334        -0.42293         4.54889
     2018.51608         5.43577         4.62710
     2018.51882         2.78347         4.55399
     2018.52156         5.92518         4.54889
     2018.52429         1.06788         4.55399
     2018.52703         3.59258         4.57184
     2018.52977         5.84528         4.56929
     2018.53251         7.21398         4.52509
     2018.53525         9.50068         4.63305
     2018.53798         2.24738         4.57099
     2018.54072         5.72308         4.56079
     2018.54346         7.67478         4.53869
     2018.54620         8.07048         4.73081
     2018.54893         1.64318         4.55739
     2018.55167         4.49389         4.61095
     2018.55441         6.25659         4.69426
     2018.55715         5.44829         4.57694
     2018.55989         4.07599         4.60585
     2018.56239         7.54519         4.86428
     2018.56405       -22.53033        73.56856
     2018.56679        15.60437        66.02732
     2018.56953        24.28407        63.63429
     2018.57227        47.72577        61.94514
     2018.57501        31.43447        56.94399
     2018.57774       -73.18783       118.24985
     2018.58048        55.72287        64.55494
     2018.58322        46.51857        65.43310
     2018.58596        26.34628        58.96213
     2018.58869        37.26698        57.76349
     2018.59143       -20.07532        59.05054
     2018.59417         2.89838        63.68529
     2018.59691       -50.51292        65.79779
     2018.59965       -60.84622        67.01089
     2018.60238       -57.82352        68.53937
     2018.60512        23.29918        60.73034
     2018.60786         3.01788        65.21547
     2018.61060       -12.47142        62.24607
     2018.61334        -4.32272        62.04885
     2018.61607         9.18199        63.17608
     2018.61881       -11.54531        65.11346
     2018.62155        37.95039        69.29851
     2018.62429        71.59909        71.47306
     2018.62702        55.54379        67.71817
     2018.62976        55.47949        63.42941
     2018.63250        16.08019        81.23137
     2018.63524        36.24289        58.76576
     2018.63798        25.08059        62.31663
     2018.64071        13.88029        59.76038
     2018.64345        28.32499        55.62464
     2018.64619         2.27070        58.35516
     2018.64893       -40.37760        62.37869
     2018.65167       -49.43590        65.73148
     2018.65440       -40.87720        68.43650
     2018.65714       -61.47250        77.56914
     2018.65988       -63.85080        76.49376
     2018.66262       -37.37210        81.28067
     2018.66535       -54.96640        83.24101
     2018.66809       -12.17270        85.55328
     2018.67083         1.41800        77.44502
     2018.67357       -28.32230        86.54365
     2018.67631       -27.24059        64.27781
     2018.67904       -12.38489        59.91084
     2018.68178       -59.02519        56.94569
     2018.68452       -40.80949        56.76802
     2018.68726       -31.52379        54.75753
     2018.69000       -55.75909        52.51242
     2018.69273       -54.08839        53.06753
     2018.69547       -44.09569        52.26249
     2018.69821        -3.37899        54.67167
     2018.70095       -16.48529        52.94937
     2018.70368         3.29941        54.71673
     2018.70642         2.22912        57.73799
     2018.70916       -42.36418        70.00919
     2018.71190        29.26852        60.36480
     2018.71464        -5.28678        62.63202
     2018.71737        32.62592        66.92162
     2018.72011        67.62862        72.43878
     2018.72285        -5.61368        78.29427
     2018.72559        42.06002        79.81170
     2018.72833        18.17772        75.28917
     2018.73106        -4.09958        68.78675
     2018.73380        47.06012        60.72439
     2018.73654         4.22683        68.98312
     2018.73928         2.33753        52.75895
     2018.74201        11.21323        46.86775
     2018.74475         1.96193        43.38829
     2018.74749       -37.74237        44.41861
     2018.75023        -0.14067        40.97315
     2018.75297       -19.96197        40.97315
     2018.75570       -18.47427        38.42370
     2018.75844         1.86843        40.35598
     2018.76118        -4.55987        42.97684
     2018.76392       -14.30617        46.04485
     2018.76666         7.94754        49.24038
     2018.76939        -6.33176        48.34097
     2018.77213       -13.14606        50.48663
     2018.77487       -20.04336        48.65381
     2018.77761        22.54834        47.03607
     2018.78034        -0.74296        45.13524
     2018.78308       -24.91726        43.56851
     2018.78582         3.53844        46.46990
     2018.78856        -3.65286        45.17435
     2018.79130        -1.53416        44.46962
     2018.79403        19.52955        44.05477
     2018.79677       -23.00375        47.72805
     2018.79951        -9.10805        49.53197
     2018.80225         8.73065        52.94937
     2018.80499        34.53235        57.33249
     2018.80772        37.28005        64.56004
     2018.81046        50.04375        73.40279
     2018.81320        29.03845        82.73520
     2018.81594         4.95915        81.14211
     2018.81867       -60.21815        82.94262
     2018.82141       -15.00445        78.58416
     2018.82415        14.88726        70.03384
     2018.82689        26.51896        61.89498
     2018.82963        42.09566        56.65581
     2018.83236        38.08436        55.39596
     2018.83510        10.29706        50.45262
     2018.83784        -0.21724        50.50108
     2018.84332        -7.27884        54.36394
     2018.84605        26.19486        58.72240
     2018.84879       -80.44344        58.33221
     2018.85153       -54.14974        63.53567
     2018.85427       -58.49903        70.12140
     2018.85700       -67.59333        77.41612
     2018.85974       -89.65963        89.78338
     2018.86248       -92.22793        98.13137
     2018.86522       -58.46123        88.02792
     2018.86796      -122.10053        88.73521
     2018.87069       -15.42483        90.74995
     2018.87343       -21.25113        89.57341
     2018.87617        23.64757        76.97236
     2018.87891        23.65027        74.68984
     2018.88164        -6.53103        66.55608
     2018.88438       -28.96132        64.28376
     2018.88712        44.93038        63.21519
     2018.88986       -16.99492        64.14010
     2018.89260        -8.74022        61.40107
     2018.89533       -56.74852        66.23814
     2018.89807       -38.50082        75.16930
     2018.90081        -5.41012        92.89730
     2018.90355        -7.74642        96.55018
     2018.90629       -65.59872        94.48359
     2018.90902       -21.69002        89.98231
     2018.91176       -32.45332        92.43145
     2018.91450         0.98739        81.80944
     2018.91724        30.07509        81.20332
     2018.91997        23.40179        83.62610
     2018.92271        19.78949        89.97465
     2018.92545       -22.30081       102.22886
     2018.92819        -0.70011        99.46008
     2018.93093         9.20559       104.76726
     2018.93366        29.15029        87.53912
     2018.93640        25.04699        89.72387
     2018.93914        31.61469        89.30818
     2018.94188        -5.60361        88.37391
     2018.94462        49.58510        97.96645
     2018.94735        21.76380       113.11354
     2018.95009        14.35850       108.54000
     2018.95283        52.70120       133.43605
     2018.95557        58.93890       109.13677
     2018.95830       -48.44340       114.13281
     2018.96104       -14.30070       111.69643
     2018.96652       -73.20230       126.97614
     2018.96926        30.88340       142.71320
     2018.97199        22.72010       129.11244
     2018.97747        29.50051       148.27116
     2018.98021        86.68121       139.71574
     2018.98295       155.48591       130.93080
     2018.98568        82.08061       122.78769
     2018.98842        77.97631       122.26233
     2018.99116        70.93801       115.93248
     2018.99390        76.41771       110.02258
     2018.99663        60.85341       106.20138
     2018.99937        -1.88789       105.10135
     2019.00211        32.31281        97.10700
     2019.00485       -52.91848        98.08206
     2019.00759        21.82122       102.18890
     2019.01032        -9.18108       107.14414
     2019.01306        -8.04238       100.27617
     2019.01580       -39.74668        79.69949
     2019.01854        32.22002        67.36028
     2019.02128        22.51072        60.17863
     2019.02401        -6.81358        66.57733
     2019.02675        27.70712        59.70172
     2019.02949        72.84482        59.31577
     2019.03223         0.55752        57.27128
     2019.03496         6.65923        53.78162
     2019.03770        18.04493        52.58893
     2019.04044        11.09263        52.24974
     2019.04318        50.74833        51.24322
     2019.04592        32.91003        52.92047
     2019.04865        13.36373        50.72721
     2019.05139        -2.20457        53.25116
     2019.05413       -17.92987        55.55153
     2019.05687        -3.92417        73.60172
     2019.05961        48.30553        67.70457
     2019.06234        30.30323        74.83096
     2019.06508        45.30694        75.15485
     2019.06782        -3.12636        85.17499
     2019.07056        22.07434        71.22823
     2019.07329        15.97404        63.41581
     2019.07603        -7.72526        58.69520
     2019.07877        12.71644        60.06811
     2019.08151        12.08114        56.35147
     2019.08425       -19.13716        56.16530
     2019.08698        20.20954        56.79438
     2019.08972        28.56624        58.03042
     2019.09246         6.13794        60.06216
     2019.09520        47.31665        63.58498
     2019.09794        16.82435        94.82703
     2019.10067         4.46205        61.14264
     2019.10341        16.04675        58.80826
     2019.10615       -60.30955        60.51187
     2019.10889       -40.13085        59.30897
     2019.11162       -22.32615        58.58894
     2019.11436       -80.35445        60.03836
     2019.11710         9.11025        91.75902
     2019.11984       -26.41405        64.64676
     2019.12258       -71.94435        67.70967
     2019.12531       -10.26964        68.39060
     2019.12805        13.10506        69.15824
     2019.13079        61.74076        67.37473
     2019.13353        12.69946        66.21774
     2019.13627        22.65116        68.23163
     2019.13900        35.11586        73.66802
     2019.14174        34.82256        74.58018
     2019.14448        71.57926        75.56205
     2019.14722         4.27496        71.56487
     2019.14995       -58.85234        68.77314
     2019.15269       -58.98663        68.61588
     2019.15543       -26.03593        70.43594
     2019.15817       -74.77023        68.20358
     2019.16091       -63.71653        65.44925
     2019.16364       -73.08983        65.64392
     2019.16638       -42.69113        66.99558
     2019.16912      -100.60243        70.09845
     2019.17186       -60.82073        77.48243
     2019.17460       -70.21203        71.92107
     2019.17733       -85.39733        75.48299
     2019.18007        -9.99263        78.77798
     2019.18281        -5.40292        79.86016
     2019.18555       -19.72122        78.33508
     2019.18828         4.39348        81.99391
     2019.19102        18.68118        79.06616
     2019.19376        54.02188        76.05766
     2019.19650        16.78158        74.02507
     2019.19924       -18.18572        74.96273
     2019.20197        10.97398        77.43397
     2019.20471       -32.57632        82.28974
     2019.20745        -8.28562        86.81483
     2019.21019       -47.90792        87.79755
     2019.21292       -18.67321        86.94830
     2019.21566        24.77549        87.54592
     2019.21840       -75.48081        89.99336
     2019.22114       -73.82111        96.37506
     2019.22388       -84.34341       103.65957
     2019.22661       -88.05571       112.28045
     2019.22935       -91.57401       121.41478
     2019.23209      -138.78131       127.78713
     2019.23483      -151.77261       132.81633
     2019.23757      -177.07291       133.43010
     2019.24030       -84.45321       131.65254
     2019.24304      -164.69450       108.95655
     2019.24578       -61.61980        71.40931
     2019.24852       -32.99110        73.31013
     2019.25125       -16.39540        62.26902
     2019.25399       -46.68370        55.63994
     2019.25673       -39.36600        55.49967
     2019.25947       -10.74830        55.77340
     2019.26221       -24.20260        59.52915
     2019.26494       -24.21590        63.01796
     2019.26768       -48.29620        68.60057
     2019.27042        -5.73350        73.82189
     2019.27316       -29.68879        79.78450
     2019.27590         1.50191        72.98369
     2019.27863        -1.62239        68.75274
     2019.28137         8.49631        64.04318
     2019.28411       -16.81599        60.97857
     2019.28685        10.54171        52.84056
     2019.28958       -38.95559        56.36592
     2019.29232         6.90011        59.56230
     2019.29506        18.84481        62.27837
     2019.29780        52.33651        63.21774
     2019.30054        44.68221        62.33958
     2019.30327        12.98792        63.99218
     2019.30601        46.60562        62.79949
     2019.30875        11.96532        61.40872
     2019.31149         5.37302        58.97998
     2019.31423        -5.02128        59.86154
     2019.31696       -63.86658        61.49883
     2019.31970        15.64212        61.10184
     2019.32244       -34.70518        64.93919
     2019.32518        52.39952        62.08880
     2019.32791        12.83222        60.30529
     2019.33065        46.00792        59.27752
     2019.33339        55.78563        59.23926
     2019.33613        48.29633        62.02930
     2019.33887        34.47603        67.30757
     2019.34160        66.23573        73.32373
     2019.34434        22.32043        81.58246
     2019.34708       -16.75287        91.89673
     2019.34982        -0.55817       106.60602
     2019.35256        -2.46247       114.36744
     2019.35529        64.19023       119.08720
     2019.35803       -52.75907       113.84463
     2019.36077       -28.31037       102.34362
     2019.36351       -48.19966        88.76751
     2019.36624       -50.75696        79.15882
     2019.36898        39.70274        83.24781
     2019.37446        18.18914       103.62387
     2019.38541        94.32894       134.91523
     2019.38815       135.87164       123.45587
     2019.39089        87.64534       115.38331
     2019.39362        77.96405       110.78342
     2019.39636        20.14875       110.54794
     2019.39910       102.33245       109.86786
     2019.40184        59.71715       113.99085
     2019.40457        51.78685       119.68142
     2019.40731        -5.28745       124.00078
     2019.41005        19.56725       122.87355
     2019.41279         9.46195       120.33770
     2019.41826         0.33935       109.46236
     2019.42100        19.26705       112.48192
     2019.42374       -61.01424       114.69983
     2019.42648        72.73946       122.36434
     2019.42922        37.54716        95.08206
     2019.43195        25.18386       138.69732
     2019.43469        10.22356        69.64960
     2019.43743       -13.13774        74.05227
     2019.44017        21.91496        69.12509
     2019.44290        15.99866        65.46795
     2019.44564        20.59236        62.15681
     2019.44838        -3.44994        59.44499
     2019.45112        -4.50524        58.43847
     2019.45386       -34.32053        63.76265
     2019.45659       -42.06583        63.75415
     2019.45933        20.85087        63.35290
     2019.46207        34.16857        67.27017
     2019.46481        64.43027        69.88338
     2019.46755        14.36997        71.59973
     2019.47028        47.46967        71.49687
     2019.47302        26.28437        69.78051
     2019.47576        34.17407        69.27300
     2019.47850        36.36277        65.12706
     2019.48123        69.56647        62.91765
     2019.48397         9.72618        62.83604
     2019.48671      -118.08112        65.94571
     2019.48945       -48.50242        74.12113
     2019.49219        26.42128        82.62978
     2019.49492       -65.84102        82.72500
     2019.49766        66.19668        87.08856
     2019.50314        11.09208        89.97720
     2019.50587        25.49878        97.61196
     2019.50861        75.07548        90.61818
     2019.51135       -24.06582        88.38412
     2019.51409        -0.42311        84.20247
     2019.51683        30.62059        82.22769
     2019.51956        40.42229        76.64593
     2019.52230        74.09499        72.29086
     2019.52504        13.48469        68.26988
     2019.52778        32.35139        63.99643
     2019.53052        33.15409        61.15709
     2019.53325        46.04179        69.65725
     2019.53599        33.32949        71.92022
     2019.53873        63.80719        73.67992
     2019.54147        65.47790        74.85391
     2019.54420       -10.64240        81.26112
     2019.54694        40.41030        79.89161
     2019.54968        46.73800        77.92873
     2019.55242       -77.28530        91.65615
     2019.55516       -17.45460        71.03356
     2019.55789       -13.44790       114.04355
     2019.56063       -46.54620        74.28520
     2019.56337        21.17350        74.27074
     2019.56611       -51.32680        64.44698
     2019.56885       -54.53610        66.53568
     2019.57158         2.76661        78.11575
     2019.57432       -12.29869        63.61133
     2019.57706        -4.41799        81.45835
     2019.57980        74.14471        66.23304
     2019.58253        -0.62859        90.25434
     2019.58527        96.42111        71.85901
     2019.58801        77.28681        72.94204
     2019.59075        63.60151        66.74225
     2019.59349        35.41621        60.63088
     2019.59622        62.14091        58.45802
     2019.59896        59.09361        67.59745
     2019.60170        35.33032        59.41439
     2019.60444       -14.24798        62.42204
     2019.60718        -8.50628        61.73261
     2019.60991        36.23142        63.05962
     2019.61265        29.67812        92.84884
     2019.61539        25.37882        75.09449
     2019.61813        22.35152        73.98936
     2019.62086       -88.91078        86.47649
     2019.62360       -66.84508        79.30589
     2019.62634       -58.78638        80.67710
     2019.62908       -62.41968        80.67030
     2019.63182        31.56803        75.32487
     2019.63455       -36.96527        70.75983
     2019.63729       -29.42357        65.75274
     2019.64134         3.54685         4.66790
     2019.64407         5.09455         4.72741
     2019.64681         4.98825         4.76821
     2019.64955         0.92695         4.57354
     2019.65229         3.69465         4.60159
     2019.65503         6.03235         4.68405
     2019.65776         3.69806         4.98584
     2019.66050         7.15376         4.67470
     2019.66324         3.90846         4.77332
     2019.66598         4.64216         4.83537
     2019.66872         2.41086         4.60500
     2019.67145        -1.68644         4.68320
     2019.67419        -0.07474         4.60670
     2019.67693         4.69196         5.00794
     2019.67967         2.97566         4.68660
     2019.68240        -2.27664         4.70956
     2019.68514         5.47706         4.87958
     2019.68788         3.00277         4.68065
     2019.69062         4.64247         4.66110
     2019.69336        -1.38883         4.63220
     2019.69609         5.04287         4.79372
     2019.69883        -3.29444         4.99859
     2019.70157        -4.77773         4.72486
     2019.70431         5.19697         4.86683
     2019.70705        -3.58133         4.59054
     2019.70978         2.56437         4.69511
     2019.71252         3.59807         4.78012
     2019.71526         2.32077         4.72996
     2019.71800         4.63648         4.84472
     2019.72073         3.93118         4.83367
     2019.72347         0.96288         4.79372
     2019.72621        -2.83842         4.72231
     2019.72900         3.01538         4.67300
     2019.73169         4.26198         4.64835
     2019.73442        -1.73932         4.92378
     2019.73716         5.00938         4.61775
     2019.73990         3.16708         4.82177
     2019.74264         0.89979         4.83622
     2019.74538         2.73850         4.56079
     2019.74811         6.67918         4.82602
     2019.75087         5.56093         4.67640
     2019.75359         3.92460         5.03260
     2019.75633         2.94329         4.69426
     2019.75906        -2.91801         4.58544
     2019.76180        -1.28032         4.73251
     2019.76454         1.55739         4.66535
     2019.76726         1.93705         4.77417
     2019.77002         1.40079         4.68065
     2019.77275         0.09949         4.94249
     2019.77551         1.22423         4.69681
     2019.77823         5.43090         4.62285
     2019.78097         3.88760         4.86768
     2019.78371         1.17630         4.69426
     2019.78644         1.87300         4.69596
     2019.78918         1.90170         4.86683
     2019.79192         8.19540         4.87788
     2019.79466        13.24610         4.67725
     2019.79739         7.82880         4.73336
     2019.80013         7.35550         4.90593
     2019.80287         1.49220         4.66875
     2019.80561         4.61990         4.98584
     2019.80835        -0.73839         4.87193
     2019.81108        -0.54769         5.09550
     2019.81382         3.71401         4.91188
     2019.81656         7.56671         4.79712
     2019.81930        -1.87359         4.89573
     2019.82203        -3.10989         4.72316
     2019.82477        -1.14619         4.66535
     2019.82751         2.72651         4.77927
     2019.83025         6.66521         4.94249
     2019.83299         2.53591         4.85492
     2019.83572         2.10961         4.65005
     2019.84120         0.40102         4.69001
     2019.84394         5.00772         4.83027
     2019.84668        -6.36058         4.70786
     2019.84941         5.21412         4.86768
     2019.85215         7.26882         4.68916
     2019.85489         2.94552         4.75716
     2019.85763         3.52622         4.87193
     2019.86036         2.09492         4.68575
     2019.86310         4.27762         4.73421
     2019.86584         9.91932         4.73506
     2019.86858         6.29903         4.98584
     2019.87132        -1.83927         4.88298
     2019.87405         3.38843         4.64835
     2019.87679         2.52913         5.00539
     2019.87953         7.52883         4.74101
     2019.88227        16.53853         4.75631
     2019.88501        11.54423         4.60585
     2019.88774         6.93393         4.89828
     2019.89048         9.58763         4.59649
     2019.89322         7.19233         5.03600
     2019.89596         1.73204         5.16011
     2019.89869         6.18274         4.61605
     2019.90143         7.28644         4.62795
     2019.90417        10.15414         4.70616
     2019.90691         9.15684         4.74186
     2019.90965         4.99654         4.67895
     2019.91238         7.63724         4.63815
     2019.91512         9.16394         4.75036
     2019.91786        17.99364         4.55994
     2019.92060         9.14434         4.74101
     2019.92334         8.54704         4.74356
     2019.92607         4.06075         5.00284
     2019.92881         4.06045         4.79117
     2019.93155         8.39115         4.72826
     2019.93429         9.92885         4.79542
     2019.93702         4.38755         4.78947
     2019.93976         2.74425         4.73591
     2019.94250         2.27995         4.70276
     2019.94524         0.86965         4.91103
     2019.94798        -2.85265         4.69086
     2019.95071         4.79205         4.84982
     2019.95345         6.24675         4.67385
     2019.95619         1.70446         4.67895
     2019.95893         2.94016         4.66875
     2019.96167         6.00086         4.63560
     2019.96440         5.05156         4.86598
     2019.96714         1.67226         4.85492
     2019.96988         0.95796         4.66110
     2019.97262         3.13066         4.76821
     2019.97535         3.11836         4.59309
     2019.97809        -0.70494         4.59224
     2019.98083        -1.85024         4.61690
     2019.98357        -1.03354         4.73931
     2019.98631         0.21117         4.68405
     2019.98904        -1.64113         4.62285
     2019.99178         3.81657         4.90593
     2019.99452         0.73327         4.68405
     2019.99726         6.55597         4.73421
     2020.00000        10.14967         4.72486
     2020.00273         3.70837         4.85492
     2020.00547         6.07907         4.78862
     2020.00821         6.62977         4.86598
     2020.01095         2.49347         4.99859
     2020.01368         1.17517         4.71976
     2020.01642        -0.17212         4.76056
     2020.01916        -2.95942         4.65175
     2020.02190        -3.51472         4.83282
     2020.02464        -1.84702         4.74526
     2020.02737         4.61768         4.67385
     2020.03011         1.21338         4.76991
     2020.03285       -15.57192         4.57354
     2020.04106        -5.43482         4.74441
     2020.04380        -7.26312         4.79372
     2020.04654        -2.66941         4.56249
     2020.04928        -2.08471         4.74611
     2020.05201        -2.35401         4.61265
     2020.05475        -3.13531         4.54124
     2020.05749        -4.92361         4.60415
     2020.06023        -1.81791         4.73251
     2020.06297        -1.87721         4.67895
     2020.06570         0.70049         4.59989
     2020.06844        -7.40781         4.77417
     2020.07118         1.19989         4.55739
     2020.07392        -2.90241         4.64240
     2020.07666        -1.33270         4.55824
     2020.07939        -0.00200         4.65430
     2020.08213        -0.83130         4.66280
     2020.08487        -0.90160         4.67470
     2020.08761        -3.04490         4.64070
     2020.09034        -5.08220         4.56164
     2020.09308        -6.12450         4.59054
     2020.09582        -1.26380         4.60159
     2020.09856        -0.06510         4.67130
     2020.10130        -5.46340         4.67130
     2020.10403        -4.30970         4.97989
     2020.10677        -7.61099         4.90338
     2020.10951       -10.89029         4.54464
     2020.11225        -8.64159         4.58289
     2020.11498        -3.34289         4.56164
     2020.11772        -4.43419         4.79457
     2020.12046        -4.56249         4.69511
     2020.12320        -5.26279         4.55229
     2020.12594       -10.90309         4.74186
     2020.13141        -5.53369         4.57779
     2020.13415        -7.82999         4.69851
     2020.13689        -4.62128         4.79032
     2020.13963        -1.08658         4.63985
     2020.14236        -8.56388         4.54464
     2020.14510         4.97782         4.70616
     2020.14784        -5.34848         4.57269
     2020.15058       -13.46878         4.61350
     2020.15331        -6.58508         4.61435
     2020.15605        -6.03038         4.67045
     2020.15879        -7.34068         4.60755
     2020.16153        -1.50998         4.70701
     2020.16427        -7.82428         4.67215
     2020.16700        -3.25257         4.59309
     2020.16974        -6.03087         4.65260
     2020.17248        -0.15217         4.58289
     2020.17522         2.10453         4.64580
     2020.17796        -0.38177         4.59904
     2020.18069        -1.90307         4.58629
     2020.18343        -1.63237         4.70021
     2020.18617        -7.59567         4.50128
     2020.18891        -1.47397         4.60925
     2020.19164        -3.26727         4.68916
     2020.19438        -3.25457         4.73081
     2020.19712        -8.02586         4.67045
     2020.19986        -7.72516         4.62455
     2020.20260        -5.68746         4.66535
     2020.20533        -1.34576         4.63050
     2020.20807         0.06394         4.65770
     2020.21081        -3.96736         4.70276
     2020.21355        -5.71866         5.19326
     2020.21629        -4.75196         4.84812
     2020.21902        -5.43626         4.70701
     2020.22176        -3.29456         4.67385
     2020.22450         5.17114         4.67215
     2020.22724         0.24185         4.67725
     2020.22997        -6.75645         4.63900
     2020.23271        -2.14375         4.70616
     2020.23545         1.78295         4.60415
     2020.23819        -7.08535         4.64495
     2020.24093        -2.78565         4.92038
     2020.24366        -6.28995         4.74866
     2020.24640         1.88475         4.70276
     2020.24914        -7.01155         4.69426
     2020.25188         8.18715        10.29982
     2020.25462        25.09186        30.89181
     2020.25735        37.44056        17.26129
     2020.26009         6.20526         4.84217
     2020.26283         2.69696         4.55059
     2020.26557        -2.67834         4.67130
     2020.26830        -1.07164         4.66875
     2020.27104        -2.07494         4.83282
     2020.27378        -1.35924         4.58799
     2020.27652        -0.15554         4.62285
     2020.27926         2.89316         4.88893
     2020.28199         0.58686         4.67640
     2020.28473        -2.77443         4.72401
     2020.28747        -2.38573         4.65940
     2020.29021         0.85997         4.71381
     2020.29295        -4.15733         4.67640
     2020.29568         1.74537         4.78182
     2020.29842         2.07207         4.91698
     2020.30116         2.22677         4.78352
     2020.30390         1.11347         4.63390
     2020.30663        -0.47983         4.73506
     2020.30937         0.69987         4.82517
     2020.31211        -1.73743         4.90678
     2020.31485         0.05128         4.79627
     2020.31759        -0.46802         4.80307
     2020.32032         0.08068         4.72656
     2020.32306        -3.79362         4.72486
     2020.32580         1.48008         4.70021
     2020.32854       -10.55422         5.01389
     2020.33128        -2.57252         4.57949
     2020.33401         0.97418         4.80222
     2020.33677        -3.01607         4.99009
     2020.33949         0.20858         4.65770
     2020.34223        -1.86672         4.70956
     2020.34496        -2.74201         4.68916
     2020.34770        -2.80131         5.04875
     2020.35044        -0.71061         4.64070
     2020.35318        -2.61291         4.74866
     2020.35592         3.67579         4.95609
     2020.35865         4.88149         4.64920
     2020.36141         0.73722         4.59054
     2020.36413         1.72389         4.56419
     2020.36687         6.29059         5.07765
     2020.36961        -1.13271         4.72911
     2020.37234        -0.09401         4.56504
     2020.37508         3.57770         4.96459
     2020.37782        -0.38560         4.56419
     2020.38056        -2.23190         4.65600
     2020.38329         3.54480         4.64580
     2020.38603        -2.24850         4.96544
     2020.38877         2.25520         4.68831
     2020.39151        -0.68910         4.56759
     2020.39425         0.14960         4.73591
     2020.39698         1.75830         4.61860
     2020.39972        -1.31800         4.63305
     2020.40247         3.77073         4.83027
     2020.40520        -6.10159         4.94164
     2020.40794         1.39011         4.55229
     2020.41067        -0.81419         4.67725
     2020.41341        -0.13249         4.74611
     2020.41615        -5.25579         4.59394
     2020.41889        -1.73409         4.62710
     2020.42162        -5.50739         4.58204
     2020.42436         1.07331         5.13631
     2020.42710         2.03401         4.93653
     2020.42984        -0.24229         4.76566
     2020.43258        -0.49959         4.93738
     2020.43531        -2.96288         4.66535
     2020.43805        -1.77418         4.71211
     2020.44076        -7.33455         4.73336
     2020.44353         0.95622         4.96204
     2020.44626        -5.01508         4.65855
     2020.44900        -4.44438         4.69001
     2020.45174         3.00932         4.88468
     2020.45448         0.41102         4.68490
     2020.45722         2.59372         4.59394
     2020.45995         3.90942         4.56419
     2020.46269        -2.95988         4.88043
     2020.46543         2.74583         4.58289
     2020.46817        -0.81447         4.59054
     2020.47091        -0.94977         4.81582
     2020.47364         0.05293         4.57269
     2020.47638         5.04063         4.56079
     2020.47912         6.92033         4.62965
     2020.48186        -2.10997         4.91613
     2020.48459         7.89573         4.72996
     2020.48733        -0.76357         4.82092
     2020.49007         3.84513         4.83537
     2020.49281         3.17483         4.68405
     2020.49555         1.22754         4.76226
     2020.49828         2.99024         4.55059
     2020.50102        -0.08206         4.71891
     2020.50376        -0.01536         4.58374
     2020.50650        -6.02166         4.57014
     2020.50924        -4.25696         4.88213
     2020.51197        -4.48526         4.59224
     2020.51471         0.23044         4.61265
     2020.51745        -2.93386         4.53274
     2020.52019         3.08784         4.88298
     2020.52292         4.40654         4.67045
     2020.52566         3.01225         4.71126
     2020.52840         0.58995         4.87533
     2020.53114         4.68765         4.65430
     2020.53388         2.11135         4.66705
     2020.53661         2.91505         4.70956
     2020.53935         2.89175         4.94589
     2020.54209        -0.14855         4.74526
     2020.54483        -2.39785         4.65600
     2020.54757         5.86685         4.77332
     2020.55030         3.93255         4.70361
     2020.55304         3.84425         4.74016
     2020.55578         0.38396         4.77757
     2020.55852         6.51966         4.93568
     2020.56125         5.53436         4.64835
     2020.56399         6.45606         4.66280
     2020.56673         3.44276         4.78947
     2020.56947         8.27146         4.75801
     2020.57221         5.10616         4.94504
     2020.57494         9.80786         4.70191
     2020.57768         3.53456         4.79457
     2020.58042         5.09026         4.75291
     2020.58316        -0.36704         4.86513
     2020.58590         0.05167         4.92293
     2020.58863         2.43837         4.71041
     2020.59137         3.99307         4.73506
     2020.59411         7.81477         4.75801
     2020.59685        13.90447         5.20687
     2020.59958         2.81617         4.82092
     2020.60232         8.16487         4.71551
     2020.60506         2.25257         4.83112
     2020.60780         9.83327         4.74611
     2020.61054         5.04697         4.72911
     2020.61327         8.05068         4.80732
     2020.61601         8.98138         4.95184
     2020.61875         4.54908         4.72996
     2020.62149         3.66578         4.75291
     2020.62423        10.00648         4.90253
     2020.62696         2.94518         4.86853
     2020.62970         1.43188         4.79882
     2020.63244         9.96558         4.71551
     2020.63518         6.85328         5.00029
     2020.63791         2.14898         4.97054
     2020.64065         2.93368         4.81837
     2020.64339        -7.16961        13.49875
     2020.64613         2.47609         8.56306
     2020.64887        11.24679         4.70616
     2020.65160         4.37549         4.75801
     2020.65434         6.17119         4.90763
     2020.65708         7.34289         4.70106
     2020.65982         5.94559         4.78947
     2020.66256         4.97029         4.93738
     2020.66529        11.14699         4.77162
     2020.66803         5.01769         4.70531
     2020.67077        10.26739         4.89998
     2020.67351         7.71010         4.99264
     2020.67624         7.80080         4.79032
     2020.67898         3.27650         4.66875
     2020.68172        -2.67380         4.97139
     2020.68446         4.60090         4.77927
     2020.68720         4.84660         4.76481
     2020.68993         5.71030         4.79032
     2020.69267         8.45000         5.08020
     2020.69541         6.55070         5.17881
     2020.69815         4.16940         4.84047
     2020.70089         7.31210         4.98159
     2020.70362         5.60481         4.87448
     2020.70636        13.51951         5.42449
     2020.70908        -2.53482         5.06065
     2020.71184         6.52691         5.33013
     2020.71457         5.29461         4.82942
     2020.71731         3.81731         5.02665
     2020.72005         4.54001         5.20772
     2020.72279         5.18271         4.73506
     2020.72553        11.87342         4.89148
     2020.72826         2.20511         5.01219
     2020.73100        10.07181         5.11931
     2020.73374        15.33152         4.99434
     2020.73648         7.42822         4.80647
     2020.73921         2.44192         4.92208
     2020.74195         5.93462         4.70871
     2020.74469         4.28032         4.69001
     2020.74743         7.91302         4.70191
     2020.75017         5.01372         4.93058
     2020.75290        10.35542         4.74101
     2020.75564        -0.88388         4.73251
     2020.75838        10.63482         4.97564
     2020.76112        11.13052         4.75716
     2020.76386         4.68823         4.69171
     2020.76659         8.43693         4.66535
     2020.76933         7.67163         4.91358
     2020.77207         6.02833         4.67470
     2020.77481        17.03503         4.71636
     2020.77754        18.14973         4.95354
     2020.78028         8.07243         4.89403
     2020.78302        13.63013         4.82517
     2020.78576         7.44883         4.85748
     2020.78850        -0.52447         4.83197
     2020.79123         3.15123         4.84047
     2020.79397         6.67894         4.82092
     2020.79671         6.91964         4.98159
     2020.79945         2.75534         4.80902
     2020.80219         7.18904         4.84812
     2020.80492        14.69974         4.77587
     2020.80766         0.92944         4.91953
     2020.81040         1.11314         4.76906
     2020.81314         9.03484         4.75546
     2020.81587         3.43954         4.96289
     2020.81861         7.51624         4.74611
     2020.82135         4.95894         4.77162
     2020.82409         4.27965         4.79712
     2020.82683         2.78635         5.17201
     2020.82956         2.34205         4.96204
     2020.83230         4.71475         4.78012
     2020.83504         3.19745         5.06745
     2020.83778         7.68415         4.67640
     2020.84052        20.24085         4.80647
     2020.84325        11.87055         5.05470
     2020.84599         7.08825         5.15331
     2020.84873         9.54595         4.61265
     2020.85147         3.61465         4.61775
     2020.85420         8.17836         4.83452
     2020.85694        11.42106         4.81157
     2020.85968         9.14976         4.79542
     2020.86242        14.67846         4.74271
     2020.86516         8.86916         5.05300
     2020.86789        18.04586         4.83962
     2020.87063        13.54956         4.75036
     2020.87337        15.75426         5.20432
     2020.87611        10.62996         4.86768
     2020.87885        15.28866         5.02495
     2020.88158         7.63936         4.84727
     2020.88432         8.14507         4.94249
     2020.88706         1.42577         4.94589
     2020.88980         2.90047         4.77927
     2020.89253         3.71017         5.01984
     2020.89527        12.57587         5.01559
     2020.89801         7.30557         4.90338
     2020.90075         8.72827         4.75546
     2020.90349         4.93697         4.88553
     2020.90622         2.46467         4.74781
     2020.90896         1.97037         4.99944
     2020.91170         4.70207         5.11931
     2020.91444         4.35078         4.86938
     2020.91718        -3.42952         4.72911
     2020.91991        -4.34582         4.80477
     2020.92265         0.94588         4.90933
     2020.92539        -1.77742         4.72656
     2020.92813        -0.89172         4.76736
     2020.93086        -1.02602         4.93398
     2020.93360        -1.80132         4.75546
     2020.93634         1.55138         4.76481
     2020.93908        -2.14592         4.78777
     2020.94182         1.07478         4.84387
     2020.94455        -1.61951         4.71891
     2020.94729        -6.67381         4.65770
     2020.95003        -5.79611         5.01644
