# ================= DQRFIT RESULTS ================
# INPUT FILE: series/BTON.rad
# OUTPUT: LDETRENDED
# FILTER FUNCTION: f(t)
# f(t)=+line(t)+annual(t)
# line(t)=+P 1+P 2*t
# annual(t)=+P 3*sin(2*pi*t+P 4)
# heav(t)=(t<0?0:1)
# TOTAL OBSERVATIONS MTOT= 1913
# INITIAL TIME INTERVAL= 2009.4428 - 2003.3593 =  6.0835
# TOTAL OBSERVATIONS AFTER PREFILTER M= 1905
# TIME-SPAN= 2009.4428 - 2003.3593 =  6.0835
# OBSERVATIONS: USED M=  1905 REJECTED MTOT-M=     8 %USED=   99.5818
# N=  4 PARAMETERS
# MAXSIG= 175.00000
# MAXRES=  50.63492
# SCALE FACTOR FOR LENGTHS: SCL=  10.00000
# SCALE FACTOR FOR SIGMAS: SCLSIG=   1.00000
# CHI^2=   1884.555 DOF=  1901 CHI^2/DOF=   0.99135
# RMS=      6.970 SDEV=      6.968 MEAN=    0.22508
#  P #       PARAMETER +-    SIGMA %error PARAMETER NAME
# P 1 =      4219.87418 +-  165.939   3.93 YZERO                              
# P 2 =        -2.09298 +-    0.083   3.95 SLOPE                              
# P 3 =         5.48818 +-    0.206   3.76 ANNUAL AMPLITUDE                   
# P 4 =        -2.34213 +-    0.037   1.59 ANNUAL PHASE                       
#       T            LDETRENDED       SIG_OBS
     2003.35934        10.66058         6.10542
     2003.36208         7.17031         6.01183
     2003.36481         9.25804         6.19901
     2003.36755         4.26577         6.29659
     2003.37303        -5.83877         6.17213
     2003.37577        -6.25104         6.04269
     2003.37850         0.85869         6.20100
     2003.38124        -0.31157         6.08551
     2003.38398         1.86116         6.09447
     2003.38672         1.47989         6.31949
     2003.38945         4.83662         6.08650
     2003.39219         3.56735         6.37923
     2003.39493         5.65008         6.08351
     2003.39767         8.32681         6.22888
     2003.40041        -0.06346         6.43200
     2003.40314        11.98427         6.46485
     2003.40588         5.98700         6.53256
     2003.40862         5.05373         6.38022
     2003.41136         8.39946         6.03572
     2003.41410         7.76019         6.07654
     2003.41683         3.52192         6.21494
     2003.41957         4.16065         6.25676
     2003.42505        14.90511         6.21793
     2003.42778         8.45984         6.23685
     2003.43052         1.83457         6.14823
     2003.43326         5.86330         6.14923
     2003.43600         2.85003         6.14724
     2003.43874         7.23176         6.08252
     2003.44147        -1.29651         6.07953
     2003.44421         1.25322         6.19702
     2003.44695         2.36395         6.29758
     2003.44969         4.85968         6.05862
     2003.45243        -1.96059         6.01481
     2003.45516         0.32314         6.02278
     2003.45767        -1.33060         6.67892
     2003.46064        -2.44640         6.19802
     2003.46338         3.50933         7.14589
     2003.46611        10.77306         6.03373
     2003.46885         4.60779         6.11040
     2003.47159        -4.69148         6.04468
     2003.47433         6.42925         6.11438
     2003.47707         8.67698         6.17312
     2003.47980        15.33971         6.21195
     2003.48254         5.25245         6.68490
     2003.48528         7.21318         6.38520
     2003.48802        -0.54209         6.31849
     2003.49076        10.15264         6.49373
     2003.49349         5.05437         6.31252
     2003.49623         1.85110         6.13927
     2003.49897        -0.43317         6.16416
     2003.50171         6.95356         6.48178
     2003.50444        -0.54771         6.54351
     2003.50718         5.01702         6.38122
     2003.50992         6.19375         6.26373
     2003.51540         0.43621         6.33044
     2003.51791        10.70646         6.51762
     2003.52908         7.65286         6.22490
     2003.53182        -3.37541         6.66299
     2003.53456        14.34932         7.16680
     2003.53730         7.82905         6.29360
     2003.54004         2.49978         6.45689
     2003.54277        -3.51449         6.29360
     2003.54551        -6.51176         6.28364
     2003.54825        -3.99603         6.82927
     2003.55110         5.71694         6.91788
     2003.55373        -4.09657         6.85615
     2003.55646        -0.13884         6.19005
     2003.55920        12.31389         6.62814
     2003.56194        12.84962         6.45888
     2003.56468        11.67135         6.37027
     2003.56741         3.13408         6.20299
     2003.57015         3.42781         6.40611
     2003.57289         7.50054         6.45091
     2003.57563        12.34627         6.28862
     2003.57837        11.36400         6.19503
     2003.58105        17.06562         6.95472
     2003.63586         5.09634         6.00884
     2003.63860         6.50007         6.25776
     2003.64407         9.35953         6.23884
     2003.64681         4.41826         6.01979
     2003.64955         2.56699         6.26771
     2003.65229         8.21072         6.01780
     2003.65503         2.02345         6.14126
     2003.65776        -1.94282         5.98893
     2003.66050         4.11691         6.10343
     2003.67419        12.09356         6.50866
     2003.67693         6.43229         6.01382
     2003.67967         4.79902         6.06957
     2003.68240         7.19476         6.27369
     2003.68514        -4.85051         6.22490
     2003.68839       -11.65171         9.94968
     2003.69016         3.33099         7.70545
     2003.69336         4.64168         6.42901
     2003.69611         7.25144         6.19304
     2003.69883         6.13614         6.18308
     2003.70157        14.00187         6.13628
     2003.70425         4.33048         6.26771
     2003.70706         5.89836         6.45490
     2003.70978        -5.65094         6.69187
     2003.71252        10.59079         6.20200
     2003.71526         6.25152         6.24879
     2003.71800         3.54825         6.09745
     2003.72073        12.73998         6.37325
     2003.72347         0.24471         6.40014
     2003.72615        11.80632         6.80338
     2003.72895         7.10317         6.35732
     2003.73169        -1.11510         6.52658
     2003.73442        13.84063         6.20299
     2003.73716         2.49336         6.36927
     2003.73990         5.65809         6.15122
     2003.74264         4.04982         6.36429
     2003.74538         9.22255         6.24581
     2003.74811         2.93728         6.36827
     2003.75085        -3.58499         6.31650
     2003.75359         6.46874         6.44494
     2003.75633        -6.13953         6.05564
     2003.75906         9.24520         6.05066
     2003.76180         3.62293         6.44295
     2003.76454        -6.93734         6.46685
     2003.76728        -7.15961         6.51265
     2003.77002         0.20812         6.15321
     2003.77275        -9.10715         6.21892
     2003.77549       -11.78442         6.19802
     2003.77823       -18.34569         6.21892
     2003.78097        -8.03296         6.15022
     2003.78376        -0.29611         6.24680
     2003.78644         2.23251         6.28165
     2003.78918         2.22524         5.88936
     2003.79192         4.89297         6.33044
     2003.79466         1.08470         6.17810
     2003.79739        -1.06657         6.03174
     2003.80013        10.01516         6.26473
     2003.80287         2.00689         5.87642
     2003.80561        16.62162         6.77152
     2003.80835         0.76335         6.14425
     2003.81108         0.71408         6.12434
     2003.81382        -5.11019         6.28563
     2003.81656        -4.94046         5.95109
     2003.81930         3.45527         6.05564
     2003.82203         7.27200         6.03074
     2003.82477         5.15773         7.23649
     2003.82745        -7.09266         6.88702
     2003.83025        -5.56980         6.17810
     2003.83299        -1.14608         5.84356
     2003.83572         5.79565         6.16118
     2003.83846         1.38938         6.18607
     2003.84120         0.24311         6.42503
     2003.84394        -2.99916         6.32148
     2003.84668        -4.16543         5.89832
     2003.84941         7.56430         6.06758
     2003.85215        -1.79397         5.96603
     2003.85489        13.46476         6.00187
     2003.85763         2.42349         6.54550
     2003.86036        12.85622         7.01347
     2003.86310        11.20595         7.17875
     2003.86584         4.29268         6.21992
     2003.86858         8.19041         6.14027
     2003.87679        -2.58640         6.21992
     2003.87953        -1.49467         6.34139
     2003.88227        -4.94393         6.79143
     2003.88501        -5.62720         6.70182
     2003.88774         8.12653         7.06922
     2003.89048         0.97126         6.50468
     2003.89322         1.38399         7.42169
     2003.91786         0.92456         6.82927
     2003.92060         1.19329         6.28563
     2003.92334        -4.19398         6.55347
     2003.92607        -2.00425         6.39018
     2003.92881         0.07348         6.19304
     2003.93155        -2.22379         6.22988
     2003.93429        10.71994         6.55944
     2003.93702        -1.09233         6.03274
     2003.93971         3.24828         5.98893
     2003.94250         7.07613         6.04369
     2003.94507        -7.23950         6.37823
     2003.95893        -5.77949         6.23087
     2003.96167         1.80024         6.19105
     2003.96440         6.41397         6.37126
     2003.96714        -8.10130         6.12234
     2003.96988        -3.34157         6.32446
     2003.97262         6.92416         6.25776
     2003.97535        -0.38111         6.05862
     2003.97809        -9.38038         6.20797
     2003.98083        -4.49765         6.05763
     2003.98357        -0.61191         6.14724
     2003.98631       -18.20518         5.86248
     2003.98904       -18.23545         6.12234
     2003.99178        -5.60072         6.60524
     2003.99452        -7.84199         6.29360
     2003.99726       -14.15326         6.11239
     2004.00273       -19.84080         6.23884
     2004.00547       -19.54607         6.11239
     2004.00821        -7.60434         6.16217
     2004.01089       -20.81973         6.40611
     2004.01357        -8.61312         6.40113
     2004.01574        15.86342         8.49900
     2004.03559       -13.90604         6.04468
     2004.03833       -14.35231         5.92222
     2004.04106       -10.50458         6.17512
     2004.04380        -7.00185         5.93217
     2004.04654       -13.75612         5.95308
     2004.04928        -6.10839         6.17014
     2004.05201       -13.87366         6.07356
     2004.05470       -10.16105         6.32646
     2004.05755        -6.57908         6.37524
     2004.06023       -22.02147         6.60325
     2004.06297       -14.37774         6.09745
     2004.06570       -16.01101         6.00386
     2004.06844        -0.81328         6.04369
     2004.07198       -28.60687         9.37618
     2004.07392         9.17318        11.03695
     2004.07666        -1.47309         6.20100
     2004.07939         1.06764         6.11040
     2004.08213        -6.79662         5.94711
     2004.08487       -13.91989         5.93616
     2004.08761        -4.23716         5.90927
     2004.09034        -1.04643         6.15819
     2004.09308       -14.94970         6.46286
     2004.09582        -8.50297         5.97001
     2004.09856        -5.15724         6.10243
     2004.10130        -7.54251         6.03871
     2004.10403       -13.94478         6.25576
     2004.10671        -5.80217         6.16914
     2004.10951        -1.52032         6.04369
     2004.11225        -2.33259         6.31152
     2004.11498       -10.42986         6.04269
     2004.11772         6.59987         6.30853
     2004.12046       -13.48840         6.13728
     2004.12320        -7.28967         6.50468
     2004.12594        -2.53194         6.10144
     2004.12867        -8.67121         6.39117
     2004.13141       -18.67448         6.21295
     2004.13415       -18.01075         6.37226
     2004.13683        -6.13514         6.12135
     2004.13963         2.49271         5.87044
     2004.14236        -0.33156         6.11040
     2004.14504        -3.91095         6.22291
     2004.14784        -4.04110         6.52758
     2004.15058        -1.88537         6.18208
     2004.15331         0.05236         6.15221
     2004.15609       -13.16283         6.26871
     2004.15879       -19.87418         6.06758
     2004.16153        -4.94645         6.29061
     2004.16427       -11.56772         6.14325
     2004.16700        -6.40799         6.13131
     2004.16974        -9.93826         6.18806
     2004.17248        -8.88553         6.35334
     2004.17522         1.01920         6.39914
     2004.17796        -5.19007         6.23685
     2004.18069        -3.18934         6.16217
     2004.18438        -7.60863        11.12158
     2004.18984        -0.54619        11.13851
     2004.19164        -2.63941         6.19702
     2004.19438        -7.92668         6.22291
     2004.19712        -1.22295         6.15122
     2004.19986        -6.65222         6.26771
     2004.20260       -10.77749         6.26970
     2004.20533       -12.88976         6.18109
     2004.20807        -0.81703         6.66797
     2004.21081         4.61570         6.53355
     2004.21355         2.41043         6.49871
     2004.21629        -0.76184         6.41009
     2004.21902        -2.40611         6.64507
     2004.22176        -5.28838         6.41009
     2004.22450         0.83135         6.50767
     2004.22724         7.75408         6.35832
     2004.22997        -2.89819         6.32048
     2004.23271        -4.31246         6.33840
     2004.23545        -1.77573         6.52459
     2004.23819        -8.51100         6.34338
     2004.24093        -6.51527         6.46386
     2004.24366        -8.50954         6.40014
     2004.24640        -8.41581         6.14724
     2004.24914        -8.31508         6.24979
     2004.25188        -2.52035         6.15719
     2004.25462        -1.83562         6.26970
     2004.25735         0.16711         6.23685
     2004.26009        -3.24516         6.23286
     2004.26283        -5.06043         6.08750
     2004.26557         4.83330         6.44992
     2004.26830        -4.30497         6.00187
     2004.29939         1.97110        10.46245
     2004.30116        -6.76920         6.09247
     2004.30390        -1.14047         6.16018
     2004.30663        -2.84574         5.98893
     2004.30937         9.69199         6.10442
     2004.31211        -3.17228         6.12234
     2004.31485        -3.44555         6.25178
     2004.31759        -3.10682         6.08849
     2004.32032         3.81991         6.18408
     2004.32407       -14.52224        10.57197
     2004.32580         0.03137         6.23983
     2004.32854         0.61210         6.26672
     2004.33128        -1.20217         6.25278
     2004.33401         2.38956         6.39217
     2004.33675        -1.71971         6.28962
     2004.33949         6.42802         6.53355
     2004.34223        14.36975         6.55645
     2004.34496         6.51948         6.20200
     2004.34770         3.31021         6.19702
     2004.35044        -1.19806         6.29260
     2004.35318        -4.82233         6.41109
     2004.35592         4.76040         6.18905
     2004.35865        -0.70687         6.24382
     2004.36139        11.52786         6.19403
     2004.36779        -3.64274         9.69180
     2004.36961         0.89805         6.25178
     2004.37875         0.76319         9.95167
     2004.38056         5.21297         6.26572
     2004.38329         7.10571         6.14425
     2004.38603         5.44344         6.18208
     2004.38877         8.82317         6.24083
     2004.39151         0.57490         6.15918
     2004.39425         3.77163         6.08053
     2004.39698        -0.51464         6.31750
     2004.39972        10.73409         6.07455
     2004.40246         1.39282         6.32944
     2004.40613        -2.37049        11.55171
     2004.40794        -2.60472         6.18806
     2004.41067         9.65201         6.15022
     2004.41341         1.46874         5.94014
     2004.41615         2.32947         6.05464
     2004.41889         3.71020         6.06261
     2004.42162        -5.54007         6.06758
     2004.42521         2.34543         9.50562
     2004.42710        -5.63361         6.23486
     2004.42984        -3.32488         6.31351
     2004.43258        -4.89415         6.18507
     2004.43909       -12.49952        12.88192
     2004.44196       -21.07551        22.32580
     2004.44353         3.87277         6.02278
     2004.44626         8.45950         6.27468
     2004.44900         1.27023         6.32646
     2004.45287        -4.06768        17.81643
     2004.45561         9.06607        18.41084
     2004.46081        -5.34106        10.05024
     2004.46269       -14.42512         6.21096
     2004.47169       -11.25227         9.37618
     2004.47364         4.37380         6.17611
     2004.47638       -15.16347         6.16815
     2004.47912        -4.11374         6.12633
     2004.48186         5.43799         6.25676
     2004.48459        -2.96427         6.06758
     2004.48733        -0.42154         6.22888
     2004.49007        -6.02481         6.30754
     2004.49281       -15.30008         6.55048
     2004.49555         0.30865         6.24282
     2004.49828        10.52738         6.21793
     2004.50102        -5.14089         6.11737
     2004.50376        -4.35216         6.34637
     2004.50650       -10.80043         6.39317
     2004.50924         0.60530         6.28066
     2004.51197         7.56003         6.36031
     2004.51471        -2.33524         6.33741
     2004.52019        -6.30078         6.21395
     2004.52292       -10.20205         6.07555
     2004.52566         0.10568         6.09148
     2004.53114         6.54314         6.37624
     2004.53388        -4.68713         6.21594
     2004.53661         1.59760         6.30555
     2004.53935         5.99833         6.53555
     2004.54209         6.93606         6.47182
     2004.54483        12.44879         6.35533
     2004.54757        -5.31848         6.47780
     2004.55121       -15.15885        12.47170
     2004.55304         3.78998         6.07854
     2004.55578         3.88071         6.12434
     2004.55852         5.02344         6.02875
     2004.56125         0.50317         6.27767
     2004.56399        -4.54610         6.20698
     2004.56673         3.35963         6.19403
     2004.56947        -0.26064         6.19204
     2004.57221         2.41509         6.08351
     2004.57494         0.04082         6.22789
     2004.57768         2.01955         6.14525
     2004.58042         7.47628         6.19304
     2004.58316        -3.86898         6.19204
     2004.58590        -1.25125         6.19503
     2004.58863         8.75148         6.23585
     2004.59137        12.02321         6.20399
     2004.59411         3.40894         6.51464
     2004.59685         0.12167         6.36927
     2004.59958        -0.46560         6.26174
     2004.60232         6.88613         6.15918
     2004.60506         4.07586         6.02875
     2004.60780         1.37359         6.02178
     2004.61054         3.14032         6.02079
     2004.61327        -0.28495         6.03373
     2004.61601         4.85978         6.29061
     2004.61875         7.99751         6.22689
     2004.62149        -1.26476         6.07256
     2004.62423         2.40697         6.39715
     2004.62696         7.62770         6.11338
     2004.62970         2.60943         6.08750
     2004.63244         3.89616         6.13330
     2004.63518         8.24389         6.15321
     2004.63791        12.47862         6.22092
     2004.64065        -4.46265         6.40910
     2004.64339         6.78008         6.26572
     2004.64613        -6.17619         6.31252
     2004.65160        -3.00273         6.23286
     2004.65434        -3.27100         6.19204
     2004.65708         1.38573         6.56542
     2004.65982        -4.87154         6.21395
     2004.66256         0.06719         6.13031
     2004.66529         8.67292         6.30853
     2004.66803         4.55565         6.36927
     2004.68538        20.99096        11.47205
     2004.68720         3.83377         6.19304
     2004.69355         1.39706        11.13552
     2004.69541         6.83796         6.50269
     2004.69815         0.79569         6.20399
     2004.70449         4.49497        10.83184
     2004.70636         7.98988         6.51364
     2004.70910         4.82861         6.04170
     2004.71184         1.75934         6.20200
     2004.71457        -3.47893         6.13529
     2004.71731         8.01880         6.02477
     2004.72005        -6.33847         5.96005
     2004.72279        -0.35374         6.07356
     2004.72553         0.71199         6.09845
     2004.72826        -1.43128         5.94014
     2004.73100         1.78545         6.06261
     2004.73374         8.38618         6.16914
     2004.73648         4.38391         6.00784
     2004.73921         4.27964         6.21594
     2004.74195         2.34437         6.06559
     2004.74469         5.10610         6.10243
     2004.74743         4.26083         6.05165
     2004.75017         5.14956         6.11836
     2004.75290         3.29429         5.96603
     2004.75564         6.19002         6.08849
     2004.75838         4.47075         6.06061
     2004.76112         2.01248         6.10144
     2004.76386         5.03821         6.40412
     2004.76659         5.49994         6.19204
     2004.77207        -6.19960         6.24581
     2004.77481        -2.34587         6.27070
     2004.77754         6.13686         6.22390
     2004.78028         5.84759         6.19802
     2004.78302        12.25233         6.34637
     2004.78576        15.83106         6.08351
     2004.78850         8.88179         6.06858
     2004.79123        16.06752         6.30256
     2004.79397         0.68725         6.17312
     2004.79671         8.48498         6.31351
     2004.79945        16.36871         6.18308
     2004.80219        12.48244         6.11836
     2004.80492        12.67617         6.11040
     2004.80766        16.99890         6.10741
     2004.81040        -3.41737         6.15321
     2004.81314        -0.73864         6.04767
     2004.81587         2.05509         6.03074
     2004.81861        -1.09918         6.30555
     2004.82135         0.70155         6.17611
     2004.82409         9.12928         6.16018
     2004.82683        -7.77799         6.07854
     2004.82956         0.05974         6.66299
     2004.83230        -1.28453         6.13330
     2004.83504        -6.41580         6.26871
     2004.83778         4.62493         6.03373
     2004.84052       -10.52034         6.27568
     2004.84325         8.92139         6.04070
     2004.84599         2.83012         5.98992
     2004.84873         3.12885         6.17910
     2004.85147         2.09658         6.21892
     2004.85420         7.95631         6.79044
     2004.85694         0.22004         6.23187
     2004.85968        -4.34023         6.16914
     2004.86242         3.51850         6.15520
     2004.86516         1.96623         6.14425
     2004.86789        -6.21604         6.18706
     2004.87423       -16.50879        10.17968
     2004.87611        -9.69585         6.06559
     2004.87885       -16.27112         6.20598
     2004.88158       -12.33039         6.23286
     2004.88432        -8.67465         6.31949
     2004.88706         3.18408         6.10542
     2004.88980        -4.53219         6.01979
     2004.89253         2.88454         6.10841
     2004.89527         6.71327         6.04070
     2004.89801         4.53800         6.09048
     2004.90075         4.10473         6.23585
     2004.90349        -2.66554         5.96105
     2004.90622        -9.00981         6.00087
     2004.90896        -3.18008         5.89932
     2004.91170        -4.76835         5.89135
     2004.91444       -21.45162         5.98196
     2004.91718       -18.18489         6.05862
     2004.91991        -2.64916         6.18408
     2004.92265        -2.02543         6.12931
     2004.92539         4.37830         6.20897
     2004.92813        -5.25997         5.97100
     2004.93086        -0.98124         6.07157
     2004.93360         0.23049         6.16615
     2004.93634        -7.35178         6.19105
     2004.93908       -10.08205         6.32546
     2004.94182       -11.64932         6.41009
     2004.94455        -5.38559         6.13230
     2004.94729         0.67514         6.04468
     2004.95003         0.20887         6.11338
     2004.95277        -6.10040         6.08551
     2004.95551       -19.45967         5.94313
     2004.95824       -12.06294         6.11239
     2004.96098        -3.22821         6.05464
     2004.96372        -4.75548         6.01581
     2004.96646        -5.07475         6.16217
     2004.96919        -8.80902         5.80174
     2004.97554        -8.09474        10.52418
     2004.97741       -11.49083         6.16118
     2004.98129         8.62430        16.58479
     2004.98312         4.69913         6.49273
     2004.98562        -1.80863         6.02278
     2004.98836         2.55710         5.99390
     2004.99110         8.56183         6.17113
     2004.99384        -4.32044         6.16416
     2004.99657         1.03429         6.16815
     2004.99931         2.21302         6.11338
     2005.01144        14.53140        20.01685
     2005.01300        -0.63933         5.98395
     2005.01574         1.70840         6.06957
     2005.01848        -3.27387         5.99092
     2005.02121        -7.13814         5.97797
     2005.02395        -7.75041         6.05464
     2005.02669        -5.09268         6.02676
     2005.02943         4.92905         5.99390
     2005.03216        -7.04022         5.98395
     2005.03490        -0.73949         6.23087
     2005.03764        -8.05976         6.05464
     2005.04038        -8.52003         6.20897
     2005.04312         1.09670         6.05663
     2005.04585       -17.51957         6.17014
     2005.04859       -10.92284         6.27767
     2005.05133        -9.93411         6.23386
     2005.05407       -10.96938         6.24083
     2005.05681        -9.40465         6.08750
     2005.05954        -7.89192         6.14226
     2005.06228        -7.91919         6.27667
     2005.06502       -12.50846         6.18806
     2005.06776        -5.76273         6.07157
     2005.07049         1.02800         6.06261
     2005.07323        -0.37527         6.12732
     2005.07597        -3.54054         6.27070
     2005.07871       -14.56381         5.94611
     2005.08145        -8.86008         6.06161
     2005.08418       -15.87434         5.99789
     2005.08692       -14.39061         5.98594
     2005.08966       -15.34488         6.01680
     2005.09240       -13.43915         6.08949
     2005.09514       -12.10242         6.00486
     2005.09787       -11.84669         5.97698
     2005.10061       -19.20296         5.90429
     2005.10335       -14.30723         6.02477
     2005.10609       -13.31650         6.05165
     2005.10882        -2.62377         6.12434
     2005.11156        -8.91704         5.94213
     2005.11430        -5.40831         5.95209
     2005.11704        -8.77658         5.92620
     2005.11978       -11.46585         5.92022
     2005.13442         0.23079        11.39738
     2005.13620         1.17953         6.11438
     2005.13894        -2.55574         5.98096
     2005.14168        -6.61901         6.00884
     2005.14442        -5.22628         5.87442
     2005.14715        -3.69255         6.12533
     2005.14989        -0.73582         6.08949
     2005.15263         0.33791         6.03473
     2005.15537        -6.35336         6.12732
     2005.15811        -6.67663         6.12732
     2005.16084         0.79510         6.24979
     2005.16358        -9.42017         6.16317
     2005.16632         1.04556         6.09247
     2005.16906        -8.56271         6.17512
     2005.17180        -2.70898         6.08451
     2005.17453       -13.72525         6.22689
     2005.17727        -9.25352         6.25278
     2005.18001         5.35421         6.27767
     2005.18275        -8.37406         6.05066
     2005.18548       -13.34832         6.20100
     2005.18822        -4.10959         6.28066
     2005.19096        -4.13486         6.02079
     2005.19370         1.35187         6.21494
     2005.19644        -1.89640         6.07654
     2005.19917        -4.03267         6.01083
     2005.20191         2.03606         6.15719
     2005.20465        -2.13021         6.31252
     2005.20739        -6.67548         6.10243
     2005.21013         0.33325         6.21295
     2005.21286       -10.37602         5.88836
     2005.21560         1.34071         6.10343
     2005.21834        -9.14156         6.14027
     2005.22108         6.07417         6.14724
     2005.22381         0.99090         5.99590
     2005.22655        -4.74937         6.08152
     2005.22929        -6.04764         6.15321
     2005.23203        -6.16091         5.98594
     2005.23477         2.00882         6.07555
     2005.23750        -0.81045         6.19802
     2005.24024        -6.47072         6.34836
     2005.24298        -4.96599         6.05265
     2005.24572        -9.22726         6.25875
     2005.24846         2.97247         6.13529
     2005.25119         3.93220         6.14027
     2005.25393         5.01593         6.43299
     2005.25667        -1.84134         6.54650
     2005.25941        -2.62461         6.06559
     2005.26214         4.63812         6.26273
     2005.26488         7.05185         6.23784
     2005.26762        16.24558         6.36429
     2005.27036         6.66531         6.26771
     2005.27310        -1.70096         6.21594
     2005.27583       -10.44423         6.22092
     2005.27857        -3.87150         6.27070
     2005.28131        -4.32377         6.29659
     2005.28405        -8.34203         6.41308
     2005.28679        -8.34030         6.29161
     2005.28952        -8.26057         6.08451
     2005.29226         5.12516         6.31949
     2005.29500       -14.69511         6.02676
     2005.29774         9.07562         6.08551
     2005.30047         4.66735         6.32048
     2005.30321        -1.50092         6.17312
     2005.30595        -2.56719         6.08750
     2005.30869        -6.92546         6.19204
     2005.31143        -3.70273         6.23286
     2005.31416        -3.30900         6.12234
     2005.31690         0.12873         6.27568
     2005.31964         2.31546         6.20200
     2005.32238         2.40919         6.42204
     2005.32512         0.50092         6.12533
     2005.32785        -0.88535         6.09944
     2005.33059         3.77038         6.22988
     2005.33333        -6.18089         6.15918
     2005.33607         1.88684         6.35633
     2005.33880         6.02457         6.18507
     2005.34154         6.31930         6.15221
     2005.34428         6.88603         6.19702
     2005.34702         8.46476         6.20797
     2005.34976         1.85649         6.40711
     2005.35249        -5.95478         6.15421
     2005.35523       -10.86805         6.14923
     2005.35797        -3.00132         6.33442
     2005.36071         1.18841         6.52459
     2005.37525        10.94885         9.81427
     2005.37713         6.22279         6.62615
     2005.37987       -10.70148         6.49273
     2005.38261        -4.49875         6.28364
     2005.38535        -2.34601         6.31053
     2005.38809       -18.14828         6.69187
     2005.39199        14.37089        18.80612
     2005.39356        -6.10182         6.36628
     2005.41640        -6.42202        10.31907
     2005.41820         1.36475         6.35035
     2005.42094        -0.09152         6.31451
     2005.42368         2.73221         6.39416
     2005.42642        -3.55106         6.18208
     2005.42915        -4.98333         6.07256
     2005.43189        -1.59760         6.29858
     2005.43463        -2.63487         6.38022
     2005.50034        10.26366         6.24780
     2005.50308         7.26039         6.15321
     2005.50581         7.68012         6.30256
     2005.50855         1.62885         6.17014
     2005.51129         2.52158         6.36827
     2005.51403         1.63531         6.23486
     2005.51676         8.98004         6.21096
     2005.51950         7.79077         6.39117
     2005.52224         2.14550         6.34338
     2005.52498         0.12223         6.45589
     2005.52772         1.83096         6.27369
     2005.53045         7.51769         6.28066
     2005.53319         4.30142         6.24979
     2005.53593         9.45715         6.12931
     2005.53867        15.57488         6.47581
     2005.54141         0.97861         6.36827
     2005.54414        13.41034         6.16815
     2005.54688        11.27007         6.11239
     2005.54962         6.25680         6.27966
     2005.55190         5.61757         7.68355
     2005.57974        -2.92917         6.62615
     2005.58201         2.07160         7.78411
     2005.58521         8.85030         6.39416
     2005.58795         8.55803         6.30754
     2005.59069        11.68476         6.47581
     2005.59342         3.81049         6.38719
     2005.59616        18.11022         6.24282
     2005.59890        12.70195         6.33442
     2005.60164         7.86368         6.32048
     2005.60438         7.78241         6.27667
     2005.60711        10.92314         6.43100
     2005.60985         9.22887         6.46685
     2005.61259         6.49360         6.51364
     2005.61533        10.54633         6.33840
     2005.61807        10.76606         6.32148
     2005.62080        12.30679         6.25875
     2005.62354         1.31052         6.53455
     2005.62628        13.25725         6.39914
     2005.62856         1.55801         7.66662
     2005.63723        13.74217         6.35931
     2005.63997        16.56690         6.64407
     2005.64271         9.76863         6.33940
     2005.64544         1.31136         6.43897
     2005.64818         9.79809         6.36529
     2005.65092         8.49082         6.35135
     2005.65366         6.49155         6.40910
     2005.65639        10.09428         6.19802
     2005.65913        16.05201         6.47879
     2005.66187         2.03074         6.32148
     2005.66461         4.61447         6.37823
     2005.66688        10.64323         8.01212
     2005.67282        13.87566         6.19503
     2005.67556         7.15839         6.35832
     2005.67830         9.34212         6.42901
     2005.68062         8.32898         7.72138
     2005.68377        10.40659         6.53555
     2005.68651        10.20432         6.57139
     2005.68925        11.00605         6.44096
     2005.69199         5.30278         6.35832
     2005.69472        10.36951         6.48078
     2005.69746         6.06724         6.29559
     2005.70020        13.53097         6.76057
     2005.70294        13.83070         6.70282
     2005.70568         8.64543         6.57836
     2005.70841         7.61816         6.52658
     2005.71115         7.43689         6.29061
     2005.71389        10.74662         6.27269
     2005.71663         9.23935         6.58832
     2005.71937        10.04608         6.80338
     2005.72210        10.24281         6.56542
     2005.72484         8.94254         6.43399
     2005.72758        16.38527         6.43001
     2005.73032         8.18900         6.47182
     2005.73305        13.86773         6.55247
     2005.73579        12.53346         6.60624
     2005.73853        15.15819         6.58632
     2005.74127        16.22992         6.46685
     2005.74401        21.58165         6.49871
     2005.74674         9.69938         6.38022
     2005.74948        13.39011         6.29161
     2005.75222         7.63984         6.57736
     2005.75496        11.65257         6.51364
     2005.75754         8.98598         6.96368
     2005.76043        10.46603         6.28265
     2005.76317         9.14476         6.23685
     2005.78339        18.56107        12.50456
     2005.78507        15.77461         6.36031
     2005.78781        15.90234         6.44494
     2005.79055         6.80407         6.28265
     2005.79876        11.81926         6.59130
     2005.80150        10.20099         6.41806
     2005.80424        10.75672         6.25079
     2005.80698        13.81345         6.24481
     2005.80971         6.52918         6.29061
     2005.81245        15.23191         6.27568
     2005.81519         8.05164         6.23585
     2005.81793         0.02037         6.36230
     2005.83983         2.95421         6.42801
     2005.84257        -3.71406         6.39914
     2005.84531         0.43667         6.64905
     2005.84804        -1.97660         6.58035
     2005.85037         1.63528         7.51827
     2005.87907       -14.58867        11.10864
     2005.88090        -2.25984         6.20897
     2005.88364        -3.49411         6.21395
     2005.88637         0.38463         6.28165
     2005.88911        11.06236         6.34338
     2005.89459         5.67782         6.20299
     2005.89733         5.61255         6.23187
     2005.90006        -7.20672         6.34438
     2005.90280        -1.77799         6.22390
     2005.90554        -6.21126         6.06261
     2005.90828         7.12047         6.22789
     2005.91102         2.11920         6.29858
     2005.91375        -1.46707         6.20100
     2005.91649        -0.75034         6.09845
     2005.91923        -8.54761         6.15122
     2005.92197        -9.13188         6.07754
     2005.92470       -10.63215         6.12931
     2005.92744       -12.33942         6.11637
     2005.93018        -7.51969         6.11637
     2005.93292         2.17004         5.98196
     2005.93566        -5.12523         5.97598
     2005.93839         0.09850         6.01581
     2005.94113        -4.07177         6.03672
     2005.94387         1.54996         6.08053
     2005.95846        -6.18551        11.71002
     2005.96030        -0.45166         5.92421
     2005.96577        -0.56120         6.45390
     2005.96851        -3.50547         6.36728
     2005.97125       -18.84674         6.16317
     2005.97399        -6.63701         6.42403
     2005.97672         2.76372         6.38022
     2005.97946         0.57845         6.24680
     2005.98220         6.09818         6.26174
     2005.98494        -1.22208         6.04369
     2005.98767         1.18365         6.09546
     2005.99041         0.44638         6.10940
     2005.99315         1.02611         6.18408
     2005.99589        -2.92416         6.08551
     2005.99863        10.98657         6.38719
     2006.00410        -4.48197         6.26473
     2006.00684        -6.37724         6.18308
     2006.00958        -4.99751         6.30356
     2006.01232        -2.73778         6.34338
     2006.01505       -17.03205         6.24979
     2006.01779        -9.53632         6.20399
     2006.02053        -8.92359         6.31451
     2006.02327        -8.45986         6.26572
     2006.02600         0.16087         6.37226
     2006.03148        -9.32267         6.34239
     2006.03422        -9.42494         6.13529
     2006.03696        -9.42121         6.13429
     2006.03969        -9.37048         6.16715
     2006.04243       -12.28475         6.25576
     2006.04517       -11.01502         6.26672
     2006.04791        -3.27729         6.20996
     2006.05065        -5.92356         6.41607
     2006.05338       -12.19283         6.20299
     2006.05612        -9.78910         6.18507
     2006.06261        -6.88452        13.94728
     2006.06433        -8.66091         6.18208
     2006.06707       -17.48618         5.95607
     2006.06981       -18.15745         5.90429
     2006.07255       -18.99772         5.98395
     2006.07529       -13.99499         5.96603
     2006.07802       -16.09926         5.99888
     2006.08076       -10.03653         6.11836
     2006.08350        -9.06180         6.09745
     2006.08624        -9.41806         6.02875
     2006.08898       -16.32833         5.90728
     2006.09171       -11.76160         6.05066
     2006.09445        -5.00887         6.17014
     2006.09719       -11.42814         6.00685
     2006.09993       -10.63741         6.12633
     2006.10266       -13.65868         5.94014
     2006.10540       -15.91195         6.09347
     2006.10814        -8.00122         6.14624
     2006.11088        -6.33349         6.32048
     2006.11362       -11.03776         6.20001
     2006.11635       -12.07503         6.08252
     2006.11909        -7.35930         6.10841
     2006.12183       -11.45757         6.01382
     2006.12731       -11.35411         6.11239
     2006.13278        -5.62165         6.17113
     2006.13552        -4.23992         6.11438
     2006.13826         1.45181         6.12931
     2006.14373        -0.96473         6.20698
     2006.14647         0.80300         6.10442
     2006.14921        -6.99527         5.98295
     2006.15195        -5.22054         5.98196
     2006.15468        -1.35381         6.04867
     2006.15742        -9.47708         6.04369
     2006.16016        -5.85735         6.09347
     2006.16290       -14.98062         6.28464
     2006.16564        -6.01089         6.12334
     2006.16837        -3.44116         6.10343
     2006.17111        -0.78743         5.90429
     2006.17385         4.65230         6.14923
     2006.17932        -7.70524         6.09447
     2006.18206        -7.29651         5.95706
     2006.18480       -15.06277         6.22390
     2006.18754        -5.38704         5.97598
     2006.19028         3.28869         6.26672
     2006.19301        -8.29058         6.28364
     2006.19575        -5.13785         6.14126
     2006.19849         3.91688         6.18507
     2006.20123        -8.46839         6.24780
     2006.20397       -17.68566         6.38620
     2006.20670       -14.15593         6.43996
     2006.20944        -6.59320         6.27767
     2006.21218        -4.76947         6.21494
     2006.21492        -3.72174         6.28265
     2006.21765        -6.46101         6.33442
     2006.22039       -18.34428         6.35135
     2006.22313        -5.18855         6.46087
     2006.22587       -15.32782         6.53654
     2006.22864        -1.88501         6.30256
     2006.23133         1.23061         6.29858
     2006.23507        17.60245        11.30080
     2006.23682        -2.39690         6.13728
     2006.23956        -1.83017         6.05663
     2006.24230        -8.49744         5.99092
     2006.24503        -6.75771         6.19204
     2006.24777        -4.31098         6.15221
     2006.25051        -4.55025         6.15918
     2006.25325         5.63048         6.09048
     2006.25598         2.13521         6.22291
     2006.25872         1.75094         6.03074
     2006.26146         3.03367         6.29659
     2006.26420        -2.79560         6.49771
     2006.26694        -7.91187         6.38022
     2006.27602         2.73314        10.39474
     2006.27789        -8.72895         6.23087
     2006.28062        -0.03822         6.27468
     2006.28336        -9.74149         6.11936
     2006.28610        -0.40875         6.03373
     2006.28884        -4.19802         6.03672
     2006.29158        -6.22829         5.86845
     2006.29431        -0.08456         6.08650
     2006.29706         1.09119         6.20797
     2006.29979         6.09190         6.28464
     2006.30253        -1.83337         6.04070
     2006.30527         2.19936         6.08351
     2006.30800         6.29709         6.01979
     2006.31074         2.76482         6.11040
     2006.31622         3.70328         6.19901
     2006.33084         0.74388        10.61877
     2006.33264        -3.57934         6.22191
     2006.33813         2.01815         6.22191
     2006.34086         6.59085         6.15321
     2006.34360         2.44558         6.01780
     2006.34633        -1.72869         6.12931
     2006.34907         1.95104         6.16217
     2006.35181         1.88777         6.19304
     2006.35455         1.91650         6.15221
     2006.35728        -1.82877         6.13927
     2006.36002         0.83896         6.15918
     2006.36276        -3.93031         6.24780
     2006.36550        -8.64158         6.21594
     2006.36824         8.04315         6.16516
     2006.37371         3.76061         6.42602
     2006.37645         8.14334         6.49672
     2006.37919         5.76907         6.51962
     2006.38193        -5.55820         6.30853
     2006.38466        11.40754         6.44295
     2006.38740        -2.45973         6.46784
     2006.39014         6.00300         6.38321
     2006.39288        -2.08127         6.29559
     2006.39561         9.59546         6.62416
     2006.39835         3.67319         6.28862
     2006.40109         1.81092         6.31750
     2006.40383         2.08365         6.36827
     2006.40657         0.69538         6.22291
     2006.40930        -4.13289         6.43598
     2006.41204         5.89784         6.43897
     2006.41478         7.40657         6.48676
     2006.41752         5.71130         6.57836
     2006.42026         5.34403         6.31451
     2006.42299         3.82276         6.49970
     2006.42573         1.57749         6.68888
     2006.42847         0.07722         6.43200
     2006.43121        -3.37305         6.33741
     2006.43394         1.25168         6.28763
     2006.43668        -0.77959         6.46286
     2006.43942        -3.44286         6.29360
     2006.44216        10.87387         6.45191
     2006.44490         2.65260         6.31650
     2006.44763         4.17833         6.30156
     2006.45037         7.96106         6.39217
     2006.45680        13.85252        13.12486
     2006.45859         4.16925         6.28364
     2006.46132         2.71598         6.48875
     2006.46680         4.95644         6.54152
     2006.46954         4.89217         6.61619
     2006.47227         5.00590         6.38520
     2006.47501         0.27863         6.52161
     2006.47775         2.18336         6.49174
     2006.48049         2.43709         6.52957
     2006.48323         4.63182         6.52957
     2006.48596         7.37256         6.76355
     2006.48870         1.44329         6.72373
     2006.49144         4.98402         6.67195
     2006.49418         5.02975         6.56442
     2006.49692         3.39948         6.39018
     2006.49965         6.13321         6.52459
     2006.50239         1.61794         6.35135
     2006.50513         4.84067         6.41109
     2006.50787         4.69840         6.56143
     2006.51060         7.18913         6.48775
     2006.51334         3.07686         6.28563
     2006.51608         5.27259         6.37027
     2006.51882         7.94632         6.54351
     2006.52156        -4.06795         6.47282
     2006.52429         8.03078         6.40113
     2006.52703        12.13451         6.48676
     2006.52977         8.98724         6.47381
     2006.53251        14.41597         6.49970
     2006.53525         4.04070         6.43598
     2006.53798         8.02143         6.35433
     2006.54072         5.51116         6.72273
     2006.54346        13.97189         6.27568
     2006.54620         8.32962         6.37425
     2006.54893         2.62335         6.36230
     2006.55167        -1.44592         6.41109
     2006.55441        -3.55619         6.27667
     2006.55715        11.84154         6.35633
     2006.55989        11.74427         6.34239
     2006.56262        -3.21800         6.30156
     2006.56536         6.17773         6.46187
     2006.56810         6.40046         6.25178
     2006.57084         2.58019         6.54351
     2006.57357         5.89292         6.48078
     2006.57631        12.33565         6.47182
     2006.57905         9.27638         6.34438
     2006.58179         4.55811         6.21395
     2006.58453         4.03984         6.51464
     2006.58726         7.65158         6.49174
     2006.59000         8.18131         6.93779
     2006.59274         7.03004         6.60624
     2006.59549        -0.58420         6.53355
     2006.59822         3.27450         6.49174
     2006.60095         4.39923         6.47182
     2006.60369        -0.17704         6.44295
     2006.60643        12.18769         6.43498
     2006.60917         6.94942         6.38520
     2006.61190         5.32615         6.27667
     2006.61464         7.13888         6.45291
     2006.61738         5.68061         6.37325
     2006.62012         7.93434         6.51663
     2006.62286         4.75907         6.26970
     2006.62559         7.62680         6.38221
     2006.62833         9.87053         6.58234
     2006.63107         3.32926         6.36529
     2006.63381        10.74899         6.59628
     2006.63655         3.31472         6.49970
     2006.63928         4.86645         6.52061
     2006.64202         8.35318         6.57537
     2006.64476         3.12791         6.72373
     2006.64750        10.03364         6.68191
     2006.65023        12.68237         6.71178
     2006.65297         6.80510         6.71178
     2006.65571         5.70583         6.84619
     2006.65845        14.27256         7.00351
     2006.66119         9.01229         6.69386
     2006.66392         4.48502         6.56840
     2006.66666         6.26675         6.87009
     2006.66940        -0.63752         6.68987
     2006.67214        12.57921         7.10308
     2006.67488        10.92494         7.12398
     2006.67761        -0.92333         6.77550
     2006.74058        13.25447         6.64606
     2006.74450        24.58367        17.50877
     2006.74606         9.91293         6.52061
     2006.74880        13.26466         6.67992
     2006.75797        16.80486        11.59651
     2006.75975         6.10758         6.33343
     2006.76249        15.75531         6.82728
     2006.76522        13.31704         6.61321
     2006.76796         0.01777         6.58632
     2006.77070         7.36750         6.40312
     2006.77344         8.79323         6.43299
     2006.77618         8.97796         6.38719
     2006.77891         7.97069         6.35633
     2006.78165        16.96442         6.43200
     2006.78439        17.29815         6.51762
     2006.78713        12.68289         6.75857
     2006.79260         7.35035         6.44394
     2006.79808         4.75181         6.53355
     2006.80082         8.10354         6.35334
     2006.80355         7.81427         6.40810
     2006.80629         9.84000         6.35234
     2006.80903         9.61673         6.43200
     2006.81177        11.37746         6.40910
     2006.81451         4.25719         6.60126
     2006.81724         0.52192         6.55446
     2006.81998         5.49265         6.39416
     2006.82272         4.49938         6.31053
     2006.82546        16.61611         6.62814
     2006.82820         9.45984         6.16416
     2006.83093        10.92457         6.17113
     2006.83367        13.02730         6.23983
     2006.83641         8.25503         6.21494
     2006.83915        -4.48424         6.31252
     2006.84188        -7.92251         6.61819
     2006.84462         2.57722         6.85715
     2006.84720        -5.59839         6.68788
     2006.85557        -1.33586         6.72671
     2006.85831         6.52087         6.49472
     2006.86105         0.18460         6.61619
     2006.86379        -0.60567         6.63312
     2006.86653        -2.56094         6.46983
     2006.87200         9.00552         6.38819
     2006.87474         6.49325         6.21693
     2006.87748        -3.53002         6.36529
     2006.88021         1.10371         6.20399
     2006.88295        -7.32556         6.64806
     2006.88569        -0.68082         6.47879
     2006.88948        10.25911        14.93398
     2006.89117        -0.38136         6.24780
     2006.89390       -13.42663         6.49174
     2006.89664        -2.43890         6.55845
     2006.89938        -6.46617         6.43498
     2006.91581         2.54021         6.29858
     2006.91854        -7.20806         6.07356
     2006.92128        -3.74033         6.11438
     2006.92402        -6.56060         6.20100
     2006.92676         0.41313         6.44892
     2006.92950        -5.87914         6.49074
     2006.93181        -1.39031         7.42866
     2007.00712         9.04633        12.09634
     2007.00889         1.72904         6.41009
     2007.01437        -5.16650         6.19105
     2007.01711        -4.91777         6.20100
     2007.01984       -10.07004         6.15520
     2007.02258        -7.25931         6.12135
     2007.02532        -3.00558         6.20001
     2007.02806       -10.16285         6.04867
     2007.03080       -17.37112         5.98395
     2007.03353        -7.92539         5.95009
     2007.03627       -11.69166         5.82265
     2007.03901       -10.50793         5.89732
     2007.04175        -9.33120         6.15022
     2007.04449       -17.93647         6.52260
     2007.04996       -12.92301         6.08650
     2007.05270        -5.89528         6.15221
     2007.05544        -6.22655         5.86148
     2007.05817       -11.03282         5.82564
     2007.06091        -7.02909         5.90031
     2007.06365       -11.30436         5.92421
     2007.06639        -5.48863         6.23784
     2007.06913        -4.92190         5.85352
     2007.07186        -1.99517         5.75594
     2007.07460        -8.55644         5.86745
     2007.07734        -2.11071         5.85849
     2007.08008        -5.10798         5.97499
     2007.08282        -3.65025         5.97001
     2007.08555        -2.44052         5.96304
     2007.08829        -4.85578         5.96005
     2007.09103         4.85595         6.06061
     2007.09377        -2.99232         6.00983
     2007.09650        -6.63559         5.83758
     2007.09924        -2.38886         5.77088
     2007.10198        -8.34113         5.83958
     2007.10472        -6.70140         6.10841
     2007.10746        -4.58767         6.26473
     2007.11019        -1.12394         5.90728
     2007.11293       -10.86921         6.01083
     2007.11551        -9.26081         6.37226
     2007.12233        -3.51153        17.41916
     2007.12388        -6.79629         6.02278
     2007.12662       -13.35256         5.91425
     2007.12936        -3.31983         6.13927
     2007.13210         0.70390         6.00884
     2007.13483        -2.30237         5.92421
     2007.13757        -0.05064         6.13728
     2007.14031         0.63209         6.06360
     2007.14305        -4.19618         5.95109
     2007.14579        -6.04845         5.99590
     2007.14852        -6.77772         5.98494
     2007.15126        -6.98999         6.14724
     2007.15508         4.76501        12.70967
     2007.15674        -5.80053         6.00983
     2007.15948        -2.87380         5.94313
     2007.16223        -3.63203         6.18109
     2007.16495       -13.52634         6.15122
     2007.16769        -6.80061         6.45988
     2007.17043         0.36412         6.42304
     2007.17316         4.72985         6.27767
     2007.17590         4.69358         6.21693
     2007.17864        -1.99169         6.07953
     2007.18138         7.73604         6.22988
     2007.18412         4.98377         6.30356
     2007.18685         6.05551         6.03473
     2007.18959         3.85324         6.26672
     2007.19233        -4.52003         6.28066
     2007.19507         2.98670         6.11737
     2007.19780        -2.74557         6.07555
     2007.20054        -1.56684         6.21793
     2007.20328        -1.53811         6.21096
     2007.20602        10.35962         5.99888
     2007.20876        -3.32665         6.22589
     2007.21149        -0.30892         6.17412
     2007.21423        -3.49919         6.19403
     2007.21697         8.95254         6.08152
     2007.21971         8.08327         5.83261
     2007.22245         5.35100         6.31550
     2007.22518         0.78773         6.21096
     2007.22792         2.21546         6.08849
     2007.23066         5.58419         6.08551
     2007.23340         4.27092         6.04468
     2007.23613        -4.06435         5.94512
     2007.23887        -1.41962         5.99789
     2007.24161        -0.30789         6.40711
     2007.24435        10.41184         6.65801
     2007.24709         5.93557         5.94412
     2007.24982         2.32730         5.85650
     2007.25256         2.53603         6.02875
     2007.25530        -1.57424         6.11637
     2007.25804         5.75749         6.45191
     2007.26064         9.84394         6.37923
     2007.27262         5.98901        10.70240
     2007.27446         6.85087         5.99689
     2007.27720         8.58560         6.05165
     2007.27904         5.85444        10.36786
     2007.29177        -2.30490         9.99349
     2007.29363         5.59099         6.10343
     2007.29637        -1.19328         5.99888
     2007.29911        -1.85355         6.05165
     2007.30184        10.82518         6.05265
     2007.30458        13.25091         6.12334
     2007.30732         5.96864         6.07356
     2007.31006         2.38537         6.37425
     2007.31279         3.10010         6.35931
     2007.31553         3.95683         5.93217
     2007.31827         7.39356         6.26970
     2007.32101        13.76129         6.07555
     2007.32375         6.49902         6.05265
     2007.32648         7.37275         6.01083
     2007.32922         3.37248         6.16118
     2007.33196        -4.69379         6.28265
     2007.33470        -9.06106         6.25377
     2007.33744         2.38667         6.07953
     2007.34017        -1.17061         6.01780
     2007.34291        -6.53787         6.23386
     2007.34837         5.02856         6.20200
     2007.35112         9.23332         6.27070
     2007.35386        -4.85795         6.48178
     2007.35660        -8.51022         6.61122
     2007.35934         6.93451         6.10841
     2007.36208        -8.78776         6.29360
     2007.36481         2.19897         6.31949
     2007.36755         3.50370         6.27966
     2007.37029        -2.87457         6.32048
     2007.37303         3.98216         6.40412
     2007.37577        -1.07211         6.26273
     2007.37850        -2.98138         6.26970
     2007.38124         0.20535         6.10044
     2007.38517        -3.91342        17.75570
     2007.38672        -3.25618         6.01481
     2007.38945        -8.02145         6.29858
     2007.39219         3.95228         6.57936
     2007.39493         9.50801         6.27667
     2007.39767         0.22974         6.11438
     2007.40041         1.88847         6.04369
     2007.40314        -0.52180         6.17810
     2007.40588         1.30193         6.28862
     2007.40862         1.40066         6.17611
     2007.41136        -0.45461         6.14724
     2007.41410         6.03012         6.02079
     2007.41683        -6.09015         5.95308
     2007.41957         1.45458         6.31849
     2007.42231         8.11831         6.43598
     2007.42505         9.88904         6.54550
     2007.42778        10.49677         5.92919
     2007.43052         5.99850         5.94014
     2007.43326         7.52823         6.03572
     2007.43600        -4.22304         5.91525
     2007.44147         1.74642         5.97996
     2007.44421        -1.75285         6.04170
     2007.44695        -9.95712         6.16416
     2007.44969        -3.54039         6.01382
     2007.45243        -5.48466         5.97001
     2007.45516         4.98107         8.44324
     2007.46074        24.97774        40.04665
     2007.46343        -4.08563        10.95033
     2007.46612        -2.46799         6.92883
     2007.46885        -1.44928         5.92719
     2007.47159        -1.95655         5.97598
     2007.47433         0.73118         6.01680
     2007.47707        -7.98709         5.97598
     2007.47980        -9.31836         6.19204
     2007.48254       -10.33663         6.67494
     2007.48528        -4.02590         6.06360
     2007.48802        -7.81516         6.03672
     2007.49076        -8.97143         6.27866
     2007.49349         3.30030         6.47680
     2007.49623        -5.48597         6.84122
     2007.49981         8.23351        10.43557
     2007.50171        -2.68151         6.41109
     2007.50444        -7.64278         5.83858
     2007.50718         1.99595         5.92321
     2007.51113        17.07121        21.44364
     2007.51208        -9.72780         7.98922
     2007.51637        17.03417        11.34262
     2007.51813        -5.91613         5.88836
     2007.52087        10.90560         5.84157
     2007.52361         1.79033         6.23187
     2007.52635         6.62906         5.92222
     2007.52908         2.41279         5.99390
     2007.53182        -6.53348         6.09944
     2007.53456        -2.75475         6.32148
     2007.53730        -2.40902         5.93815
     2007.54004        -5.49529         5.94313
     2007.54277        -3.40156         6.07555
     2007.54551        -1.56683         5.95408
     2007.54825         2.87190         5.96005
     2007.55099         1.97563         5.88040
     2007.55271        10.25923        13.07607
     2007.56468         6.74528         5.93914
     2007.56829         1.98184         9.66492
     2007.57015         7.96174         6.08351
     2007.57289        -1.09053         5.95308
     2007.57563        -1.22180         5.95906
     2007.57837         3.70193         6.30754
     2007.58110        12.54666         6.07157
     2007.58384         3.51439         5.93317
     2007.58658        -0.13687         6.01581
     2007.58932         1.59586         5.97897
     2007.59206         2.52759         5.85352
     2007.59479        12.15532         5.95109
     2007.59753         2.00005         6.18607
     2007.60027         3.80978         5.91126
     2007.60301         3.90851         5.95806
     2007.60574         2.49424         5.90828
     2007.60848         5.39097         5.76590
     2007.61122        12.04770         6.08152
     2007.61362         0.46672         6.98658
     2007.62577        -1.39386        10.97422
     2007.62765         5.97408         6.32446
     2007.63039        -2.35619         6.34737
     2007.63312        -4.40146         6.24979
     2007.63586         1.79027         6.06261
     2007.63860         3.42100         6.11438
     2007.64252        13.65720        15.87688
     2007.64407         3.04546         6.15819
     2007.64681        -2.13281         6.15719
     2007.64955        16.23092         6.21295
     2007.65229         5.40965         6.11139
     2007.65503         7.75938         6.17611
     2007.65776         7.46011         6.12832
     2007.66050         6.75784         6.47282
     2007.66431         4.45281        15.22073
     2007.66598        12.09330         6.04269
     2007.66872         4.92503         6.31949
     2007.67145         2.12576         6.24083
     2007.67419         2.90149         6.19204
     2007.67693        16.08722         6.11338
     2007.67970        10.00903         6.38918
     2007.68240        12.92768         6.20698
     2007.68514         7.80941         6.21494
     2007.68788        12.04315         6.21096
     2007.69062        10.22588         6.23286
     2007.69336        11.91861         6.20897
     2007.69609        12.52134         6.21992
     2007.69883         7.89807         6.14525
     2007.70157         9.61980         6.37226
     2007.70431         8.32153         6.42602
     2007.70705         9.87026         6.20100
     2007.70978         6.82799         6.13230
     2007.71252         6.01872         6.08750
     2007.71526        13.93245         6.06858
     2007.71800        19.25618         5.95408
     2007.72073         8.86191         5.99689
     2007.72347        16.37764         5.90230
     2007.72621         5.19037         5.90728
     2007.72895        17.07510         6.00287
     2007.73169        10.57683         6.06659
     2007.73442         1.66356         5.95408
     2007.73716         4.22829         6.59329
     2007.73990        -0.57498         6.17113
     2007.74264        10.68375         6.04269
     2007.74538        -2.55452         5.94412
     2007.74811        -1.57779         6.00784
     2007.75085        11.29994         6.50667
     2007.75359         2.75067         6.29858
     2007.75633        11.36640         5.97300
     2007.75906        18.20413         5.99390
     2007.76180        10.57086         5.98096
     2007.76454         5.84559         6.15520
     2007.76728         4.44732         6.68788
     2007.77002        15.19405         6.58433
     2007.77275         5.72478         6.33741
     2007.77549        16.54551         6.07256
     2007.77828         0.78234         6.06559
     2007.78097        11.68197         5.96403
     2007.78371         8.08770         6.15421
     2007.78644         4.36144         5.96702
     2007.78918         4.47717         6.21494
     2007.79192        14.73490         6.17412
     2007.79466         8.59663         6.08451
     2007.79739        10.25236         6.11438
     2007.80013        -2.29391         6.10343
     2007.80287        -5.33818         5.98793
     2007.80556        -3.60355         6.24182
     2007.81490        11.86700        16.65150
     2007.81656         2.27047         6.21295
     2007.81930         4.10720         6.00884
     2007.82203        -3.02107         6.10343
     2007.82477        -3.83834         6.40412
     2007.82751         3.92839         6.05165
     2007.83025         8.37112         6.13628
     2007.83299         3.35685         6.31849
     2007.83572         3.51458         5.87642
     2007.83846        -4.10169         6.03373
     2007.84120         0.12504         6.05464
     2007.84489         2.32076        11.52084
     2007.84668        -4.49050         5.93217
     2007.84941         2.01723         6.23983
     2007.85215        -1.52104         6.28962
     2007.85489        12.57869         6.42104
     2007.85763        -8.38358         6.07157
     2007.86036        -0.12385         5.98196
     2007.86310         1.05388         6.19204
     2007.86584         1.68461         6.06659
     2007.86858        -0.09566         5.95706
     2007.87132        -0.14893         6.15321
     2007.87413        -2.03405         6.19005
     2007.87679        -2.95547         5.96204
     2007.87953        -1.51574         6.02178
     2007.88227       -11.06701         6.05066
     2007.88501        -6.83528         5.82066
     2007.88774        -4.68154         5.90031
     2007.89048        -4.54981         5.98395
     2007.89322         2.72792         6.02178
     2007.89596         7.69665         6.17213
     2007.89869        -0.08062         5.96105
     2007.90143        -0.65089         6.09148
     2007.90417        -0.22216         6.00685
     2007.90691        -7.58643         6.00287
     2007.90965        -9.29370         6.05165
     2007.91238        -3.93897         5.99988
     2007.91512         2.09176         5.94611
     2007.91786        -5.20651         5.89932
     2007.92038        -4.05823         6.55745
     2007.92972         8.27031        11.28188
     2007.93266        14.27546        13.10395
     2007.93429        -2.06213         6.09247
     2007.93702        -5.70140         6.21793
     2007.93976        -9.92367         6.13031
     2007.94250         0.04206         6.18905
     2007.94524        -1.37521         6.50368
     2007.94798       -12.94348         6.25178
     2007.95071         5.11325         6.09247
     2007.95345        -4.33702         6.09247
     2007.95619        -5.06229         6.21096
     2007.95893         0.33044         6.20996
     2007.96175        -6.94865         6.41208
     2007.96440         7.48390         6.02676
     2007.96714        -6.00537         6.18507
     2007.96988       -15.69964         6.10940
     2007.97262       -12.84191         6.14027
     2007.97535       -17.23718         6.18706
     2007.97809       -14.64945         6.08650
     2007.98083        -4.26072         6.26871
     2007.98357       -17.92999         6.04468
     2007.98631       -11.65126         6.12434
     2007.98904        -6.20152         6.38022
     2007.99178       -12.32779         6.34537
     2007.99452       -10.84306         6.18607
     2007.99726       -10.51033         5.96005
     2008.00000        -7.85660         6.09745
     2008.00273       -19.05487         6.15719
     2008.00518        -8.26476         6.94178
     2008.00821         0.41259         6.20001
     2008.01095        -3.18368         5.74997
     2008.01368        -4.80195         5.86148
     2008.01766         6.90536        22.09580
     2008.02190        -5.73876         5.94512
     2008.02464        -9.10703         5.89633
     2008.02737       -18.73930         5.88836
     2008.03011        -5.39457         5.87741
     2008.03285       -11.23284         5.92321
     2008.03559        -9.85511         5.90131
     2008.03833       -16.62138         6.07555
     2008.04106        -9.82965         6.10641
     2008.04380       -12.07292         6.00884
     2008.04654        -2.78919         6.20499
     2008.04928        -2.89146         6.40412
     2008.05201        -7.68473         5.91425
     2008.05475        -0.65700         5.86248
     2008.05749        -8.54127         5.86248
     2008.06297         4.07919         5.91126
     2008.06570        -0.39508         5.78780
     2008.06844        -4.45335         5.93217
     2008.07118        -7.61162         5.98494
     2008.07392         0.41811         5.96105
     2008.07674         0.61901         6.36230
     2008.07939        -8.92643         6.19702
     2008.08213        -6.73470         5.89533
     2008.08487       -13.86997         5.99490
     2008.08699       -32.73552         8.43826
     2008.09675        10.37291         9.58826
     2008.09856        -9.14731         6.06460
     2008.10130        -7.27958         6.01680
     2008.10401        -9.79989         5.83261
     2008.10678        -2.24611         5.83659
     2008.10951        -4.64639         5.93616
     2008.11225         1.13634         5.85152
     2008.11498        -5.14293         6.04369
     2008.11772       -18.17520         5.86945
     2008.12046        -3.20047         5.93516
     2008.12320        -5.10474         5.93516
     2008.12594        -2.20101         5.89732
     2008.12867        -2.45828         5.84754
     2008.13141         3.00645         5.95706
     2008.13415         2.92118         5.83161
     2008.13689         2.07291         5.81070
     2008.13963         5.95664         5.91525
     2008.14236         9.37337         5.94113
     2008.14510         5.75910         5.88737
     2008.14784         5.14783         5.94910
     2008.15058        -1.15744         5.77784
     2008.15331        -6.93771         5.75893
     2008.15605         2.17802         5.81767
     2008.15879        -1.32025         5.90031
     2008.16153         1.81248         6.04966
     2008.16427         0.74821         5.83958
     2008.16700        -1.84306         5.82365
     2008.16974        -4.14533         5.97996
     2008.17248        -1.62760         5.87940
     2008.17522        -4.04787         6.00983
     2008.17796         5.70886         5.86646
     2008.18069        -5.74441         6.01083
     2008.18351        -5.72652         6.14425
     2008.18617        -4.15595         6.18308
     2008.18891        -5.03421         6.08650
     2008.19164        -6.11748         5.91624
     2008.19438        -5.97575         5.91624
     2008.19712        -7.26902         5.88637
     2008.19986        -6.10429         5.78382
     2008.20260        -6.76356         5.84854
     2008.20533        -0.15683         5.91724
     2008.20807         1.35490         5.93217
     2008.21081       -10.84637         6.17213
     2008.21355         2.80236         6.02975
     2008.21629        -3.71391         5.94014
     2008.21902        -9.17018         5.95308
     2008.22176        -8.31145         6.08551
     2008.22450        -6.80472         5.92122
     2008.22724        -4.38699         6.34637
     2008.22997        -6.27826         6.08351
     2008.23271        -8.24453         6.05663
     2008.23545        -0.27680         5.96503
     2008.23819        -6.69707         5.96204
     2008.24093         2.16766         6.00087
     2008.24366       -10.96661         6.99256
     2008.24638        -7.39393         9.84613
     2008.24893         7.29440         9.36921
     2008.27491        -8.27222        16.80085
     2008.27732        -6.56616         9.47973
     2008.27926        -4.05612         5.93317
     2008.28199         3.65661         5.93715
     2008.28473        -4.80566         5.93118
     2008.28747         1.43508         5.91425
     2008.29021       -10.56019         5.93516
     2008.29295        -4.73346         5.88836
     2008.29568        -3.89373         5.84953
     2008.29842        -2.87500         5.95806
     2008.30116        -5.21127         5.87542
     2008.30390        -0.78654         6.13330
     2008.30663        -4.13181         6.00784
     2008.30937        -5.23508         6.06261
     2008.31215        -6.81026         6.06061
     2008.31485        -0.92562         5.86845
     2008.31759        -6.59489         6.02676
     2008.32032        -1.03516         5.94113
     2008.32306        -5.25443         6.07356
     2008.32580        -1.37670         6.14126
     2008.32854        -9.36797         5.99590
     2008.33128        -7.93924         6.12234
     2008.33401        -5.74651         6.02975
     2008.33675        -4.06178         5.91226
     2008.33949         4.91695         6.00983
     2008.34223        -2.64532         6.07455
     2008.34496        -4.46159         6.02477
     2008.34770        -0.42486         5.92122
     2008.35044        -1.32913         5.92321
     2008.35318         1.79960         5.86148
     2008.35592         1.87633         5.89832
     2008.35865         5.00106         5.79577
     2008.36139         3.20879         5.89932
     2008.36413        -0.76848         5.79079
     2008.36687         2.38525         5.80572
     2008.36961        -1.46902         5.80174
     2008.37234        -3.11729         5.71213
     2008.37508        -5.17756         5.88239
     2008.37782         4.25117         5.97001
     2008.38056         0.54490         5.97598
     2008.38329        -6.31837         6.23585
     2008.38603         0.84036         5.82265
     2008.38877        -1.99090         5.91525
     2008.39151        -6.42317         5.95308
     2008.39425        -6.96644         5.75395
     2008.39582        24.83785        16.10090
     2008.40355        10.11802        12.83213
     2008.40520         4.19548         5.87841
     2008.40794        -6.63679         5.76988
     2008.41067         3.60194         5.96901
     2008.41314        -3.36191         6.50269
     2008.41999         1.09745        14.59645
     2008.42162       -19.24414         5.78382
     2008.42436         1.38159         5.71711
     2008.42710        -4.87568         5.97897
     2008.42984        -2.31195         5.89633
     2008.43258        -5.56322         6.35732
     2008.43531         1.26951         6.04269
     2008.43805         3.25324         6.12234
     2008.44079        -2.10803         5.75395
     2008.44353        -9.33530         5.82862
     2008.44626        -6.65357         5.79577
     2008.44900        -7.25284         5.88438
     2008.45174        -2.34411         5.93815
     2008.45448        -0.34438         6.15918
     2008.45722        -4.05765         5.95906
     2008.45995        -3.36092         5.97200
     2008.46269        -7.43419         5.83858
     2008.46543        -6.30946         6.03174
     2008.46817        -3.00773         6.16217
     2008.47091        -4.30900         6.03174
     2008.47364       -11.31327         6.03074
     2008.47638        -3.87754         5.91624
     2008.47912        -8.46781         6.06559
     2008.48186         5.05292         5.97996
     2008.48459        -4.58635         5.99291
     2008.48733        -3.63561         5.90828
     2008.49007       -10.01388         6.08451
     2008.49281         0.28685         6.18208
     2008.49648         1.84554        10.64764
     2008.49828         2.36531         6.26970
     2008.50102         0.06804         6.17910
     2008.50376         7.30877         6.06858
     2008.50650         6.77150         6.27169
     2008.50924        -0.36677         6.07057
     2008.51197         0.72496         6.05364
     2008.51471        -9.20731         6.05165
     2008.51745        -3.11558         6.03074
     2008.52019         3.70015         5.99490
     2008.52292        -2.49412         6.27369
     2008.52665        -4.04032        11.31076
     2008.52840         2.61234         5.98893
     2008.53114        -4.78693         6.20001
     2008.53388        -1.11020         5.88637
     2008.53661         5.63353         5.90629
     2008.53935         1.69026         5.89235
     2008.54209         4.49299         5.90131
     2008.54483        -1.86928         6.12135
     2008.54757         2.97545         5.99490
     2008.55030         7.27718         5.93317
     2008.55304        13.07991         5.96901
     2008.55578        10.76464         5.96204
     2008.55852        -1.15563         6.10542
     2008.56125         0.87110         5.84655
     2008.56399        -4.32517         6.09148
     2008.56673        -0.84644         5.94810
     2008.56947         7.93629         5.98992
     2008.57307         5.80583        10.35492
     2008.57494        -2.73725         6.22490
     2008.57768         5.87648         6.04966
     2008.58042         0.15121         5.87442
     2008.58316         1.62094         6.02278
     2008.58590         5.25967         6.03672
     2008.58863         8.42341         6.13031
     2008.59137         2.05014         5.97100
     2008.59411         6.22987         5.98395
     2008.59685         3.77660         6.02975
     2008.59958        18.35933         7.75623
     2008.60232         1.58306         6.16815
     2008.60506         3.07179         6.31351
     2008.60780         3.25952         6.10542
     2008.61054         2.44925         5.99789
     2008.61327         7.28498         5.93317
     2008.61601         8.43371         6.10841
     2008.61875         9.38544         6.13628
     2008.62149         8.57517         6.07057
     2008.62423         3.01090         6.06161
     2008.62696        10.81063         6.05165
     2008.62970        11.82836         6.25178
     2008.63244        13.05309         5.94014
     2008.63518         3.15682         6.29360
     2008.63791         1.26355         6.05265
     2008.64065         5.54328         6.09944
     2008.64339         9.01401         5.99689
     2008.64613        13.16574         6.30057
     2008.64983         3.30048        11.11561
     2008.65159         5.97418         6.06261
     2008.65429        38.84183        36.07096
     2008.65719       -22.18211       119.51168
     2008.65978         6.69931        10.92145
     2008.67611        53.64849        80.87191
     2008.67887        10.50228        39.65834
     2008.68720        -7.92230        23.55843
     2008.69002        37.59760        76.42726
     2008.69262        55.60205        50.59871
     2008.69929        38.02900        72.60788
     2008.70091        -2.78660        12.01768
     2008.70363         9.33210        18.34214
     2008.70915         0.16264        29.10628
     2008.71184        10.51827        10.28323
     2008.71457         5.09400         6.17312
     2008.71731        15.14173         7.42368
     2008.72005         3.54846         6.70580
     2008.72279         1.14919         7.63078
     2008.72553        -4.22408         7.17875
     2008.72826         6.22165         6.88403
     2008.73099         5.71936         7.67558
     2008.73374         6.78711        13.47334
     2008.73652        -5.59708         8.75488
     2008.73921         1.76857         6.23087
     2008.74582        18.33340        16.71423
     2008.74743         8.84776         6.02577
     2008.75015         5.97845         6.08949
     2008.75292        -2.77274         9.37120
     2008.75564         3.43995         7.17078
     2008.75838         2.34868         6.44494
     2008.76112        -1.10159         6.71078
     2008.76386        -3.48586         7.17974
     2008.76659        -2.56913         7.47247
     2008.76933        -0.38140         6.42901
     2008.77207         3.40133         6.95671
     2008.77481        -7.29594         5.74598
     2008.77754        -1.75621         6.65503
     2008.78028         5.32652         7.35498
     2008.78335        -6.38405        13.39966
     2008.78548       -34.14860       141.05389
     2008.78859         9.85491        16.63358
     2008.79123        -2.44555         6.11538
     2008.79397        -6.13882         6.37923
     2008.79670         7.30789        11.13253
     2008.79945        -4.25435         7.42069
     2008.80219         3.46737         6.15918
     2008.80492        -2.63090         6.92286
     2008.80768        -4.70612        11.95396
     2008.81039        15.48055         7.32212
     2008.81314         3.72129         6.31152
     2008.81587        12.03402         6.10940
     2008.81832         7.00014         6.44295
     2008.82224         0.45835        10.32803
     2008.82373         2.34845         6.81632
     2008.82687         3.23904         6.55048
     2008.82956         1.92967         6.22589
     2008.83230        -5.29360         6.08949
     2008.83504         5.03613         7.92350
     2008.83778        -3.09814         7.52325
     2008.84147         1.94458        12.85702
     2008.84325         2.49032         7.27732
     2008.84599        -1.25195         6.32148
     2008.84873        -1.12622         5.98594
     2008.85138        12.17732         6.64806
     2008.85425        11.74934        14.55065
     2008.85693         0.57394        10.53513
     2008.85968        14.54070        14.10858
     2008.86242        -5.49557         6.73269
     2008.86519         5.34724         8.47709
     2008.87073        -5.51617         6.62615
     2008.87337        -6.48665         6.31252
     2008.87611        -0.65792         5.96702
     2008.87885         0.33281         6.08849
     2008.88147        -0.12269         8.44025
     2008.88441        -5.27954        10.82188
     2008.88706        -3.48800         6.05265
     2008.88980        -8.24326         6.04170
     2008.89253         9.39047         6.05364
     2008.89527        -5.71680         6.03074
     2008.89801         1.01693         6.03074
     2008.90075        -1.56734         5.99689
     2008.90295       -13.33674         7.58697
     2008.91814        -0.15394        12.13318
     2008.91991        -3.64023         6.05066
     2008.92265         0.34650         6.08849
     2008.92539         1.32923         5.97996
     2008.92813         9.72196         5.96403
     2008.93086         5.03469         5.96204
     2008.93360         2.62842         6.04070
     2008.93634        -5.71485         5.96005
     2008.93908        -6.49212         6.00187
     2008.94182        -3.62139         5.98096
     2008.94455         0.37534         6.19105
     2008.94729        -7.87193         6.17910
     2008.95003        -4.00020         5.84754
     2008.95277         0.63853         5.91027
     2008.96372       -18.04455         5.75793
     2008.96646        -4.87882         5.94313
     2008.96919        -6.26109         5.79975
     2008.97193         5.69064         5.80473
     2008.97467        13.64837         6.05464
     2008.97741         6.64910         5.79676
     2008.98015         0.09683         5.96105
     2008.98288        -7.48844         5.75992
     2008.98562       -12.68571         5.56975
     2008.98836        -2.50797         5.69520
     2008.99110        -9.10224         5.91525
     2008.99384       -12.32151         5.98295
     2008.99657       -17.41878         5.81369
     2008.99931       -10.99105         6.01581
     2009.00752        -6.87286         5.89633
     2009.01026         1.22087         6.17312
     2009.01574        -0.23167         5.89633
     2009.01848        -0.17094         5.88936
     2009.02123        -3.04118         6.09546
     2009.02395        -7.57048         6.09347
     2009.02669       -14.15875         6.17412
     2009.02943       -20.16502         6.06957
     2009.03216       -19.45129         5.85152
     2009.03490       -12.54056         5.86248
     2009.03764        -7.74183         5.83758
     2009.04038        -8.09210         5.79378
     2009.04312        -7.00637         5.97499
     2009.04585        -5.21564         5.91823
     2009.04859        -7.96491         5.83958
     2009.05133        -6.73318         5.85252
     2009.05405        -3.79949         5.88538
     2009.05682        -3.28570         5.85451
     2009.05954        -1.95599         5.80771
     2009.06228        -5.32326         5.98494
     2009.06502        -2.60553         5.91126
     2009.06776       -11.14380         5.87442
     2009.07049        -0.23207         5.86049
     2009.07323         2.85666         6.08849
     2009.07597        -8.43461         5.78382
     2009.07871        -4.36588         5.91823
     2009.08145        -5.32515         5.87642
     2009.08418        -2.26242         6.00386
     2009.08692        -0.28769         5.85949
     2009.08966        -1.57495         5.93616
     2009.09240        -6.57922         5.96105
     2009.09514        -0.33249         5.94113
     2009.09787         3.12624         5.79676
     2009.10061        -0.32703         5.83460
     2009.10335         0.62770         5.94711
     2009.10609         4.93543         5.85451
     2009.10882        -5.65384         5.79178
     2009.11156        -2.96911         5.76988
     2009.11430        -0.89438         5.92421
     2009.11704         5.99435         6.00784
     2009.11978         1.85708         5.89434
     2009.12251         3.58581         5.95607
     2009.12525         3.29954         5.98096
     2009.12799         6.89527         5.86845
     2009.13193        18.04252        17.07466
     2009.13347        -1.21127         5.90330
     2009.13620        -0.13454         5.85352
     2009.13894        -2.18881         5.91027
     2009.14168        -3.26908         5.93516
     2009.14442         7.84565         5.80075
     2009.14715        -3.37562         5.96204
     2009.14989        -3.29689         6.04468
     2009.15263       -12.39116         5.97001
     2009.15537        -2.22743         6.00486
     2009.15811         0.74330         6.02079
     2009.16084         2.40603         5.88737
     2009.16358         3.76176         5.94810
     2009.16632         4.06749         5.88139
     2009.16906         6.72522         6.10741
     2009.17180         4.28095         5.94512
     2009.17453        -3.90832         5.96204
     2009.17824         8.21144        11.14249
     2009.18001         6.17114         6.03074
     2009.18275         6.10487         5.93317
     2009.18548         1.71660         6.10542
     2009.18822        -2.14067         5.94313
     2009.19096        -1.58693         5.97100
     2009.19370        -2.18420         6.00087
     2009.19644        -0.00547         5.87542
     2009.19917        -0.35974         5.94014
     2009.20191        -8.58401         5.76391
     2009.20465        -1.29528         6.01282
     2009.21013        -8.63482         5.95507
     2009.21286         2.63191         6.05364
     2009.21560         7.07964         5.93516
     2009.21834         2.69937         6.12732
     2009.22108         4.53110         6.04269
     2009.22381        -6.09917         5.85451
     2009.22655        -6.41044         5.82464
     2009.22929        -2.72371         5.82165
     2009.23203        -3.36298         5.79676
     2009.23477         2.99375         6.07654
     2009.23750        -5.31252         6.03771
     2009.24024        -5.75279         6.02178
     2009.24298         0.87694         5.91525
     2009.24572        -0.74833         6.04369
     2009.24846        -2.97260         5.94810
     2009.25119         4.07813         6.28066
     2009.25393        -6.32014         6.24182
     2009.25667         0.04359         6.04966
     2009.25941        -4.43468         5.86646
     2009.26214         3.50105         6.09646
     2009.26488        -0.10722         6.08551
     2009.26762        -0.17749         5.95308
     2009.27310       -11.60303         5.85650
     2009.27583         0.12370         5.96503
     2009.27857        -9.02457         6.08949
     2009.28131       -15.66484         6.03970
     2009.28405       -11.35711         6.06659
     2009.28679         2.28762         6.05763
     2009.28952        -5.31664         5.99291
     2009.29226       -12.50291         6.03373
     2009.29500        -6.88918         6.19304
     2009.29774        -7.58645         6.01780
     2009.30047        -6.20972         6.01481
     2009.30404        -0.27926        14.29775
     2009.32050        -4.79981         9.47475
     2009.32238        -8.71288         5.94512
     2009.32512        -0.54215         6.18009
     2009.32785        -8.03042         6.14525
     2009.33059        -3.32269         5.90927
     2009.33326        -3.68410         6.23585
     2009.34250        10.20224        12.41993
     2009.34428       -10.46004         5.81468
     2009.34702        -1.27231         6.17312
     2009.34976        -6.01058         5.97300
     2009.35249        -6.82785         6.11637
     2009.35523        -6.35212         6.13230
     2009.35797       -10.18439         5.99590
     2009.36071        -3.20966         6.05464
     2009.37808        -1.52230        11.67816
     2009.37987        -8.65855         6.04568
     2009.38261        -4.67882         6.01979
     2009.38535        -8.08909         5.98793
     2009.38809        -6.81336         6.22689
     2009.39082       -10.30462         6.03970
     2009.39356        -7.57589         6.01780
     2009.39630        -2.76016         5.96304
     2009.39904        -3.47643         6.19105
     2009.40451         0.22003         6.05464
     2009.40725        -3.52924         6.04269
     2009.40999         0.65649         6.14226
     2009.41273        -0.56678         6.07754
     2009.41546         1.56695         6.24182
     2009.41820        -2.05832         5.93815
     2009.42094        -3.19659         6.20200
     2009.42367        -6.84888         6.30356
     2009.43552         3.08192        10.62375
     2009.43737        -5.66421         6.14624
     2009.44010       -12.09348         6.00983
     2009.44284        -3.10675         6.05165
