# ================= DQRFIT RESULTS ================
# INPUT FILE: series/CAMI.rad
# OUTPUT: LDETRENDED
# FILTER FUNCTION: f(t)
# f(t)=+line(t)
# line(t)=+P 1+P 2*t
# heav(t)=(t<0?0:1)
# TOTAL OBSERVATIONS MTOT=  226
# INITIAL TIME INTERVAL= 2004.9578 - 2003.2991 =  1.6587
# TOTAL OBSERVATIONS AFTER PREFILTER M=  226
# TIME-SPAN= 2004.9578 - 2003.2991 =  1.6587
# OBSERVATIONS: USED M=   226 REJECTED MTOT-M=     0 %USED=  100.0000
# N=  2 PARAMETERS
# MAXSIG= 175.00000
# MAXRES=  12.33129
# SCALE FACTOR FOR LENGTHS: SCL=  10.00000
# SCALE FACTOR FOR SIGMAS: SCLSIG=   1.00000
# CHI^2=    134.190 DOF=   224 CHI^2/DOF=   0.59906
# RMS=      4.508 SDEV=      4.518 MEAN=    0.00421
#  P #       PARAMETER +-    SIGMA %error PARAMETER NAME
# P 1 =      -263.89401 +- 1179.178 446.84 YZERO                              
# P 2 =         0.13153 +-    0.588 447.27 SLOPE                              
#       T            LDETRENDED       SIG_OBS
     2003.29911         3.89595         4.47135
     2003.30184        -2.38141         4.46206
     2003.30458         4.70323         4.56423
     2003.30732         1.30887         4.48219
     2003.31006        -6.27749         4.46284
     2003.31279         1.64615         5.04023
     2003.31553        -3.75621         4.58977
     2003.31827         3.56043         4.46980
     2003.32101         4.03307         4.57352
     2003.32375         3.01171         4.41872
     2003.32648        -0.07465         4.56423
     2003.32922        -4.75001         4.54256
     2003.33196        -3.09137         5.17723
     2003.33470         1.92827         4.49999
     2003.33744        -0.19209         4.45045
     2003.34017        -0.96445         4.49921
     2003.34291        -4.31781         4.46438
     2003.34565         0.04483         4.49921
     2003.34839         0.18047         4.56191
     2003.35112         4.36511         5.25308
     2003.35386         2.16575         4.43652
     2003.35660         1.53639         4.38157
     2003.35934         3.15703         4.41253
     2003.36208         2.40866         4.45045
     2003.36481         4.46330         4.48993
     2003.36755        -3.25606         4.52166
     2003.37029         1.05958         5.07197
     2003.37303        -9.20978         4.54875
     2003.37577        -8.46514         4.41640
     2003.37850        -5.13350         4.43652
     2003.38124        -4.01986         4.48915
     2003.38398        -4.09822         4.41098
     2003.38672        -1.58858         4.47522
     2003.38945        -1.65694         5.13853
     2003.39219         1.05970         4.48683
     2003.39493         6.68734         4.57584
     2003.40041         5.96262         4.75541
     2004.33128        -8.45081         4.42259
     2004.33401         3.57983         4.46748
     2004.33675        -4.45953         4.50308
     2004.33949         7.02811         4.58281
     2004.34223         7.54175         4.58048
     2004.34496        -1.67561         4.50076
     2004.34770         5.27403         4.49070
     2004.35044         4.93467         4.53714
     2004.35318        -6.54069         4.58590
     2004.35592         0.95795         4.50154
     2004.35865        -0.19841         4.53482
     2004.36139        -2.14677         4.49767
     2004.36413        -2.50313         4.48528
     2004.36687        -3.60049         4.47058
     2004.36961         2.45115         4.47522
     2004.37234         2.86779         4.48451
     2004.37508         3.13243         4.49457
     2004.37782         0.52307         4.46748
     2004.38056         3.76171         4.47522
     2004.38329         2.18135         4.42646
     2004.38603        -1.58601         4.46825
     2004.38877         1.06063         4.48606
     2004.39151         3.81627         4.41098
     2004.39425         2.88391         5.16330
     2004.39698         1.13855         4.50308
     2004.39972         0.39119         4.45123
     2004.40246         1.70683         4.50695
     2004.40520        -1.04753         4.49302
     2004.40794         1.44211         4.37692
     2004.41067         5.13775         4.35912
     2004.41341        -0.48061         4.35990
     2004.41615         3.50503         4.39705
     2004.41889         0.60267         4.39395
     2004.42162         1.07231         4.36764
     2004.42436         5.57095         4.42104
     2004.42710        -3.26541         4.52630
     2004.42984        -2.66777         4.41949
     2004.43258         0.31387         4.41485
     2004.43531        -0.38949         4.40324
     2004.43805         6.19515         4.42646
     2004.44079         1.52279         4.38931
     2004.44353         1.45743         4.36686
     2004.44626         2.01807         4.40943
     2004.44900        -0.70629         4.44891
     2004.45174        -3.33265         4.53017
     2004.45448         1.45899         4.48064
     2004.45722        -0.43937         4.43884
     2004.45995        -7.15673         4.55185
     2004.46269        -6.34109         4.55417
     2004.46543        -4.43945         4.41717
     2004.46817        -1.38181         4.39860
     2004.47091        -3.12218         4.39550
     2004.47364         1.87046         4.39240
     2004.47547         2.63022         7.49534
     2004.48231        -7.60468         5.65478
     2004.48459        -1.91798         4.41330
     2004.48733        -0.31734         4.39163
     2004.49007        -1.51770         4.45355
     2004.49281        -3.29106         4.52863
     2004.49555        -9.58742         4.52398
     2004.49828         2.32422         4.39163
     2004.50102        -4.08314         4.46980
     2004.50376        -4.79750         4.40634
     2004.50650        -2.58886         4.49302
     2004.50924        -3.99822         4.48451
     2004.51197         4.91442         4.62538
     2004.51471         1.19906         4.70045
     2004.51745        -1.51930         4.44039
     2004.52019        -0.91466         4.50618
     2004.52292        -2.94702         4.39240
     2004.52566         1.14962         4.43188
     2004.52840         1.75426         4.38002
     2004.53114        -1.56910         4.47058
     2004.53388         1.36654         4.49457
     2004.53661        -4.99582         4.47058
     2004.53935         0.76682         4.69581
     2004.54209         2.76746         4.54798
     2004.54483        -8.34290         4.58435
     2004.54757        -2.88726         4.62692
     2004.55030         4.18138         4.50618
     2004.55304         0.86802         4.37151
     2004.63081         6.23379        10.33124
     2004.63244        -3.35842         4.40943
     2004.63518         1.27222         4.37692
     2004.63791         4.67886         4.46980
     2004.64065         2.43250         4.49999
     2004.64339         8.76214         4.49534
     2004.64613        -1.30822         4.48296
     2004.64887         0.59242         4.46748
     2004.65160        -0.00394         4.38157
     2004.65434         1.87970         4.48064
     2004.65708         0.79834         4.51702
     2004.65982         2.55998         4.49302
     2004.66256         1.41862         4.57042
     2004.66529        -2.47574         4.42414
     2004.66803         7.79090         4.59287
     2004.67077         4.41454         4.39705
     2004.67351        -1.35982         4.43420
     2004.67624         2.72382         4.42956
     2004.67898        -1.96554         4.41872
     2004.68172        -0.57590         4.44813
     2004.68446         6.29374         4.39163
     2004.68720         3.88138         4.49457
     2004.68993         1.95002         4.45587
     2004.69267        -2.10234         4.42646
     2004.69541         6.20730         4.55339
     2004.69815        -1.16006         4.39318
     2004.70089        -0.59842         4.47522
     2004.70362         4.41422         4.50773
     2004.70636         7.41886         4.41175
     2004.70910        -0.00250         4.41872
     2004.71184        -2.63086         4.46825
     2004.71457         4.65178         4.38002
     2004.71731         5.69542         4.36764
     2004.72005        -4.25294         4.35448
     2004.72279        -5.89630         4.36067
     2004.72553        -2.56066         4.37460
     2004.72826        -2.49502         4.41330
     2004.73100        -0.65238         4.38466
     2004.73374        -2.63774         4.42569
     2004.73648        -4.70910         4.35835
     2004.73921        -2.53746         4.37151
     2004.74195         0.65818         4.33900
     2004.74469        -5.04618         4.33048
     2004.74743        -5.67655         4.34132
     2004.74971       -10.46285         5.44735
     2004.78850         5.89005         4.45742
     2004.79123         3.13769         4.45278
     2004.79397         4.68833         4.42801
     2004.79671         4.92597         4.38776
     2004.79945         8.09061         4.38544
     2004.80219         7.66625         4.35680
     2004.80492         0.95189         4.42336
     2004.80766         7.97853         4.44968
     2004.81040         2.44317         4.37925
     2004.81314        -1.73819         4.35061
     2004.81587         9.57045         4.33668
     2004.81861         2.81009         4.48528
     2004.82135        -1.43927         4.45045
     2004.82409         1.35337         4.38157
     2004.82683        -0.85599         4.35370
     2004.82956        11.95665         4.51547
     2004.83230         8.33329         4.37615
     2004.83504        -8.22007         4.46593
     2004.83778         1.13457         4.35757
     2004.84052        -6.03579         4.46671
     2004.84325         3.51785         4.28095
     2004.84599         3.68049         4.37538
     2004.84873         3.11513         4.38853
     2004.85147        -0.66323         4.44736
     2004.85420        -1.13659         5.42181
     2004.85694        -1.00295         4.46980
     2004.85968         1.70669         4.60370
     2004.86242        -3.58767         4.32429
     2004.86516         0.75297         4.31268
     2004.86789        -7.30739         4.32120
     2004.87063       -13.37175         4.39163
     2004.87337        -2.44411         4.50463
     2004.87611        -2.32947         4.33435
     2004.87885        -6.98183         4.33745
     2004.88158        -4.65419         4.51856
     2004.88432        -0.66255         4.60835
     2004.88706        -3.74991         4.45819
     2004.88980         0.25373         4.37073
     2004.89253        -0.69463         4.33668
     2004.89527         1.22601         4.41021
     2004.89801         1.74165         4.33126
     2004.90075        12.33129         4.59287
     2004.90349         7.91393         4.33668
     2004.90622         1.38057         4.30649
     2004.90896        -7.69979         4.26856
     2004.91170        -1.91715         4.28327
     2004.91444        -4.34451         4.33822
     2004.91718        -8.67487         4.40014
     2004.91991        -2.01023         4.36454
     2004.92265        -3.35059         4.34906
     2004.92539         5.81805         4.33900
     2004.92813        -1.83131         4.33048
     2004.93086         6.46533         4.41021
     2004.93360         8.98997         4.43652
     2004.93634         2.70461         4.41253
     2004.93908         3.70025         4.41253
     2004.94182        -4.62711         4.59132
     2004.94455        -2.70647         4.42723
     2004.94729        -0.76183         4.31036
     2004.95003        -3.57719         4.42336
     2004.95277       -10.76455         4.29565
     2004.95551       -10.85191         4.33126
     2004.95779       -13.99821         5.31732
