# ================= DQRFIT RESULTS ================
# INPUT FILE: series/CIHL.rad
# OUTPUT: LDETRENDED
# FILTER FUNCTION: f(t)
# f(t)=+line(t)+annual(t)
# line(t)=+P 1+P 2*t
# annual(t)=+P 3*sin(2*pi*t+P 4)
# heav(t)=(t<0?0:1)
# TOTAL OBSERVATIONS MTOT= 3673
# INITIAL TIME INTERVAL= 2022.7488 - 2011.7016 = 11.0472
# TOTAL OBSERVATIONS AFTER PREFILTER M= 3666
# TIME-SPAN= 2022.7488 - 2011.7016 = 11.0472
# OBSERVATIONS: USED M=  3666 REJECTED MTOT-M=     7 %USED=   99.8094
# N=  4 PARAMETERS
# MAXSIG= 175.00000
# MAXRES=  25.50122
# SCALE FACTOR FOR LENGTHS: SCL=  10.00000
# SCALE FACTOR FOR SIGMAS: SCLSIG=   1.00000
# CHI^2=   5112.430 DOF=  3662 CHI^2/DOF=   1.39608
# RMS=      6.386 SDEV=      6.386 MEAN=    0.02654
#  P #       PARAMETER +-    SIGMA %error PARAMETER NAME
# P 1 =      1231.31544 +-   65.261   5.30 YZERO                              
# P 2 =        -0.61036 +-    0.032   5.30 SLOPE                              
# P 3 =         5.57652 +-    0.147   2.63 ANNUAL AMPLITUDE                   
# P 4 =        -3.09646 +-    0.037   1.20 ANNUAL PHASE                       
#       T            LDETRENDED       SIG_OBS
     2011.70157         4.08081         6.40994
     2011.70431         6.93348         6.43830
     2011.70705        10.68515         6.61081
     2011.70978         6.46882         6.45721
     2011.71252         3.35450         6.39931
     2011.71526        -2.78083         6.55055
     2011.71800         3.98084         6.52692
     2011.72073         9.11751         6.35087
     2011.72347         6.30818         6.36859
     2011.72621         3.38985         6.30479
     2011.72895         7.89852         6.29179
     2011.73169         2.53919         6.48438
     2011.73442         5.55486         6.53637
     2011.73716         1.26154         6.66043
     2011.73990        10.35521         6.31778
     2011.74264         6.36188         6.30597
     2011.74538         3.48355         6.45839
     2011.74811         4.34722         6.57536
     2011.75085         6.67089         6.43003
     2011.75359         0.67856         6.44657
     2011.75633        17.15123         6.49974
     2011.75906        26.13990         6.43003
     2011.76180         7.43158         6.44421
     2011.76454         2.46625         6.49974
     2011.76728         9.44192         6.43830
     2011.77002        -0.85141         6.53873
     2011.77275         7.37626         6.91683
     2011.77549         7.90693         6.71951
     2011.77823        -4.43040         6.46666
     2011.78077         5.97015         7.11888
     2011.78371        -0.60306         6.54700
     2011.78644         3.49162         6.42885
     2011.78918         6.24629         6.60017
     2011.79192         2.35596         6.61553
     2011.79466        -1.10237         6.49383
     2011.79739         4.61130         6.48793
     2011.80013         1.64397         6.39340
     2011.80287         1.52964         6.44303
     2011.80561         3.04431         6.48556
     2011.80835         2.41998         6.44421
     2011.81108         6.51465         6.68288
     2011.81382        -1.40067         6.45602
     2011.81656         1.37200         6.40876
     2011.81930         2.17367         6.41821
     2011.82203         2.55434         6.39813
     2011.82477         4.47901         6.60136
     2011.82751         8.34568         6.47847
     2011.83025         0.94035         6.41940
     2011.83299        -0.48598         6.40522
     2011.83572        -0.53531         6.53755
     2011.83846         1.78737         6.47257
     2011.84120         9.35104         6.40876
     2011.84394         7.75471         6.36504
     2011.84668         4.25538         6.49383
     2011.84941         1.48105         6.41821
     2011.85215        -4.50828         6.43239
     2011.85489        -1.90061         6.51628
     2011.85763         3.51106         6.57064
     2011.86036         8.67773         6.42176
     2011.86310         4.44741         6.47138
     2011.86584         1.04108         6.48202
     2011.86858         8.76675         6.45366
     2011.87132         0.06042         6.44303
     2011.87405         0.44209         6.38868
     2011.87679        20.25976         6.44303
     2011.87953         5.92343         6.46902
     2011.88227         1.36310         6.46548
     2011.88501         6.39177         6.41113
     2011.88743        -2.37775         7.47453
     2011.89048        -2.65188         6.45012
     2011.89322        -5.58521         6.51156
     2011.89596         1.67646         6.47493
     2011.89869         7.07513         6.45602
     2011.90143        -2.52620         6.41821
     2011.90417        -4.30453         6.50447
     2011.90691         0.13814         6.41349
     2011.90965         3.07081         6.37804
     2011.91238        -2.77952         6.66162
     2011.91512        -0.52884         6.49383
     2011.91786         4.38683         6.63444
     2011.92060        -4.99250         6.47493
     2011.92334        -7.64583         6.53519
     2011.92607        -3.36016         6.54700
     2011.92881        -2.45249         6.66870
     2011.93155         1.12518         6.56591
     2011.93429        -0.76715         6.63798
     2011.93702         2.13352         6.38041
     2011.93976         1.63620         6.37686
     2011.94250         1.20787         6.41821
     2011.94524        14.06354         6.41821
     2011.94798        14.03621         6.43121
     2011.95071         5.99088         6.38513
     2011.95345         1.40755         6.46548
     2011.95619        -0.57378         6.59427
     2011.95893         0.90389         6.48675
     2011.96167         6.93256         6.56945
     2011.96440         4.51923         6.49974
     2011.96714         2.33591         6.40522
     2011.96988         5.38358         6.40404
     2011.97262        -0.59275         6.47611
     2011.97535        -2.10708         6.52574
     2011.97809         1.47659         6.57773
     2011.98083         0.26126         6.48438
     2011.98357         4.16993         6.38159
     2011.98631         2.72960         6.36741
     2011.98904         0.26227         6.66989
     2011.99178        20.23895         6.53046
     2011.99452        17.21962         6.47847
     2011.99726        13.93329         6.39340
     2012.00273         0.96763         6.39813
     2012.00547        -6.38570         6.44303
     2012.00821         2.25097         6.52219
     2012.01095         2.70564         6.40994
     2012.01368         8.37531         6.34496
     2012.01642         6.62399         6.39340
     2012.01916         1.96466         6.39458
     2012.02190         2.96233         6.38159
     2012.02464         3.73200         6.40167
     2012.02737         1.80667         6.36977
     2012.03011         3.95034         6.36268
     2012.03285         0.49201         6.38868
     2012.03559         0.77368         6.40758
     2012.03833        -1.01265         6.35677
     2012.04106         2.95102         6.35677
     2012.04380         4.06570         6.38159
     2012.04654        -0.07163         6.38159
     2012.04928        -1.24296         6.45602
     2012.05201         2.45871         6.47966
     2012.05475        21.07138         6.44539
     2012.05749        18.17405         6.39931
     2012.06023        16.16072         6.47493
     2012.06297         2.24039         6.46075
     2012.06570         8.94606         6.52219
     2012.06844        -8.02226         6.54819
     2012.07118        -1.85759         6.34141
     2012.07392        -1.38392         6.37686
     2012.07666        -5.33925         6.35914
     2012.07939         0.71442         6.49383
     2012.08213         1.57209         6.41467
     2012.08487        -0.47224         6.43239
     2012.08761         1.76843         6.52574
     2012.09034        -1.85590         6.38041
     2012.09308         2.59478         6.41349
     2012.09582         2.48045         6.44539
     2012.09856         2.73912         6.47257
     2012.10130         0.48379         6.58836
     2012.10403        -4.94654         6.46902
     2012.10677         9.48613         6.53873
     2012.10951        -0.82620         6.56473
     2012.11225         7.79847         6.51510
     2012.11498         1.18914         6.51865
     2012.11772         4.30182         6.52337
     2012.12046         5.13149         6.55055
     2012.12320         2.52016         6.50211
     2012.12594        -0.70417         6.37332
     2012.12867        -1.94550         6.40994
     2012.13141         2.84317         6.50801
     2012.13415         5.46484         6.42294
     2012.13689         8.64651         6.44539
     2012.13963         1.88618         6.55173
     2012.14236        -0.18415         6.68407
     2012.14510        -0.30247         6.49502
     2012.14784        -5.31680         6.48438
     2012.15058        -2.23913         6.45957
     2012.15331        -2.75546         6.40285
     2012.15605         0.51721         6.52337
     2012.15879        -0.15712         6.53046
     2012.16153         0.63155         6.43948
     2012.16427        -2.75678         6.50211
     2012.16700         1.54089         6.54110
     2012.16974        -2.33643         6.42176
     2012.17248        -1.10276         6.42412
     2012.17522        -2.39509         6.46784
     2012.17796         0.03758         6.48675
     2012.18069        -0.72675         6.55528
     2012.18343        -3.98208         6.46193
     2012.18617        -6.89341         6.44421
     2012.18891        -6.30574         6.51274
     2012.19164        -2.56607         6.53283
     2012.19438        -6.02039         6.50092
     2012.19712        -0.11072         6.47611
     2012.19986        -1.63405         6.52101
     2012.20260         7.00962         6.51156
     2012.20533        14.87929         6.49265
     2012.20807         2.72596         6.34260
     2012.21081        -0.24037         6.20553
     2012.21355        -0.54570         6.26107
     2012.21614       -13.50512         6.67343
     2012.21902        -0.39536         6.28943
     2012.22176        -0.86168         6.40522
     2012.22450        -8.51001         6.37213
     2012.22724        -5.08034         6.44657
     2012.22997        -0.41267         6.43239
     2012.23271         2.79900         6.49620
     2012.23545        -3.36133         6.26698
     2012.23819         0.90634         6.42176
     2012.24093        -4.86999         6.31542
     2012.24366         7.19468         6.27643
     2012.24640         5.83236         6.49383
     2012.24914        -2.67097         6.42176
     2012.25188        -4.34930         6.40404
     2012.25462       -10.26663         6.39458
     2012.25735        -8.52696         6.34378
     2012.26009        -3.26129         6.37213
     2012.26283        -3.82962         6.40876
     2012.26557        -5.62295         6.41349
     2012.26830        -5.94028         6.39222
     2012.27104        -9.52860         6.46193
     2012.27378        -4.32793         6.33314
     2012.27652         0.42574         6.39577
     2012.27926         0.53841         6.60372
     2012.28199        -2.48592         6.39104
     2012.28473        -0.79525         6.36032
     2012.28747        -5.51458         6.36741
     2012.29021         2.24609         6.39695
     2012.29295        -6.30424         6.41940
     2012.29568       -11.38857         6.42294
     2012.29842        -1.00089         6.39813
     2012.30116       -12.17922         6.40876
     2012.30390       -13.29855         6.19845
     2012.30663        -9.98788         6.23035
     2012.30937        -3.51921         6.24453
     2012.31211         0.67846         6.61908
     2012.31485        -1.59387         6.54582
     2012.31759        -1.88020         6.38868
     2012.32032        -6.96353         6.39222
     2012.32306        -5.49985         6.32605
     2012.32580        -8.39218         6.29415
     2012.32854        -8.28551         6.41467
     2012.33128        -2.19684         6.40758
     2012.33401         0.04483         6.47138
     2012.33675        -7.31550         6.38159
     2012.33949        -8.40083         6.33196
     2012.34223       -11.95216         6.25398
     2012.34496       -11.32749         6.24334
     2012.34770        -7.10081         6.38041
     2012.35036        -5.55819         6.48675
     2012.35318        -3.63747         6.51392
     2012.35592        -2.41880         6.28115
     2012.35865        -5.94813         6.30597
     2012.36139        -7.05346         6.24334
     2012.36413        -8.63579         6.28115
     2012.36687        -6.78812         6.26107
     2012.36961        -4.84445         6.25634
     2012.37234        -1.83477         6.35677
     2012.37508         0.12590         6.29888
     2012.37782        -5.39843         6.39340
     2012.38056        -5.72276         6.24334
     2012.38329        -7.87309         6.40994
     2012.38603        -7.90942         6.44303
     2012.38877       -11.06675         6.50211
     2012.39151        -2.02008         6.41703
     2012.39425        -4.87841         6.31542
     2012.39698         5.87426         6.54346
     2012.39972        -4.32006         6.33905
     2012.40246        -4.64939         6.19372
     2012.40520       -13.44872         6.22562
     2012.40794        -3.61905         6.25634
     2012.41067        -2.99638         6.41113
     2012.41341        -0.70371         6.32724
     2012.41615       -10.07304         6.44775
     2012.41889        -3.44637         6.52101
     2012.42162        -5.92670         6.30833
     2012.42363         6.42453         9.59069
     2012.42710        10.51565         6.45012
     2012.42984        -3.95968         6.32960
     2012.43258        -8.14701         6.37095
     2012.43531        -8.56634         6.33314
     2012.43805        -8.05467         6.28706
     2012.44079       -13.08000         6.30715
     2012.44353        -7.99833         6.33669
     2012.44626        -4.91166         6.38395
     2012.44900        -4.80698         6.41231
     2012.45174        -2.75631         6.33078
     2012.45448        -4.22664         6.34378
     2012.45722        -4.95597         6.38159
     2012.45995        -0.55330         6.72187
     2012.46269        -6.91963         6.34968
     2012.46543        -4.57996         6.31069
     2012.46817        -4.73429         6.34732
     2012.47091        -7.18962         6.40876
     2012.47364        -2.89995         6.38513
     2012.47638        -0.25327         6.40522
     2012.47912        -3.11260         6.34023
     2012.48186        -3.31293         6.34968
     2012.48459        -6.92426         6.38041
     2012.48733        -7.66459         6.40049
     2012.49007        -1.90692         6.38395
     2012.49281        -4.45125         6.37922
     2012.49555        -3.02058         6.34850
     2012.49828         0.92609         6.40758
     2012.50102        -5.55123         6.43948
     2012.50376        -3.51156         6.47375
     2012.50650        -1.80489         6.29888
     2012.50924        -2.77822         6.40758
     2012.51197         3.66245         6.44303
     2012.51471         5.21612         6.37095
     2012.51701         2.75653         7.94124
     2012.52019        -4.51454         6.48202
     2012.52292         1.31313         6.39813
     2012.52566         4.46481         6.30833
     2012.52840         2.31148         6.39104
     2012.53114        -2.14785         6.40404
     2012.53388        -2.17218         6.37922
     2012.53661        -5.62551         6.43948
     2012.53935         3.92716         6.32960
     2012.54209         5.34583         6.33669
     2012.54483         2.78550         6.52219
     2012.54757         1.38017         6.42294
     2012.55030        -4.57216         6.38159
     2012.55208        -0.10807        11.57335
     2012.55578         2.84519         6.33787
     2012.55852        -1.81014         6.28943
     2012.56125        -0.81947         6.34378
     2012.56399        -2.49980         6.33669
     2012.56673         1.44887         6.33787
     2012.56947         0.57554         6.38395
     2012.57221         0.78121         6.29179
     2012.57494         2.57888         6.34496
     2012.57768         6.31056         6.40994
     2012.58042         3.59523         6.34378
     2012.58316        -3.17110         6.33551
     2012.58590         1.95557         6.36504
     2012.58863         5.38424         6.32015
     2012.59137         0.83591         6.37686
     2012.59411         7.95458         6.36150
     2012.59685         1.74825         6.53519
     2012.59958         5.80592         6.41467
     2012.60232         3.70960         6.70179
     2012.60506         3.87727         6.34496
     2012.60780         6.72894         6.34141
     2012.61054         9.46761         6.33432
     2012.61327         8.27628         6.29888
     2012.61601        11.54095         6.35205
     2012.61875         6.31562         6.33432
     2012.62149        10.16629         6.42058
     2012.62423        10.60396         6.34496
     2012.62696        -0.30237         6.43003
     2012.62970         0.59331         6.43003
     2012.63244        -0.12402         6.45484
     2012.63518         9.31265         6.42412
     2012.63791         7.10032         6.39813
     2012.64065        15.44199         6.45012
     2012.64339        10.41566         6.35796
     2012.64613         9.99833         6.35323
     2012.64887         5.50300         6.32133
     2012.65160         9.55767         6.39695
     2012.65434         6.41035         6.42530
     2012.65708        11.12002         6.55882
     2012.65982         4.06769         6.50329
     2012.66256         9.08236         6.36741
     2012.66529        13.96903         6.37568
     2012.66803         8.15770         6.44066
     2012.67077         8.43237         6.40285
     2012.67351         6.01404         6.38986
     2012.67624         6.90171         6.37922
     2012.67898         9.95439         6.31187
     2012.68172         5.44206         6.36032
     2012.68446         7.50573         6.33078
     2012.68720         6.78940         6.35087
     2012.68993         6.59707         6.33314
     2012.69267         8.68574         6.44066
     2012.69541         5.45341         6.29415
     2012.69815         4.27108         6.45602
     2012.70089         1.53375         6.34614
     2012.70362         0.04843         6.35087
     2012.70636         8.18010         6.39340
     2012.70910         3.88377         6.29179
     2012.71184         9.69544         6.39222
     2012.71457         9.63811         6.30715
     2012.71706         9.53363         6.95582
     2012.72005        10.62045         6.29651
     2012.72279         6.58812         6.32487
     2012.72553        12.36479         6.35796
     2012.72826        10.65246         6.48675
     2012.73100         3.42614         6.52101
     2012.73374         6.15981         6.45484
     2012.73648         7.16448         6.35559
     2012.73921         6.94815         6.43358
     2012.74195        11.66182         6.45248
     2012.74469        10.97949         6.39577
     2012.74743        12.51716         6.37332
     2012.75017         3.42883         6.37804
     2012.75290         8.86250         6.32251
     2012.75564         3.89718         6.29651
     2012.75838         5.03685         6.34023
     2012.76112        11.71752         6.30597
     2012.76386         6.89819         6.30479
     2012.76659         9.44186         6.31542
     2012.76933         8.73353         6.31424
     2012.77207         9.53620         6.31306
     2012.77481         5.28587         6.24216
     2012.77754         7.94554         6.16300
     2012.78028         9.20922         6.33669
     2012.78302        12.77289         6.30951
     2012.78576         3.79556         6.25989
     2012.78850         6.30223         6.37095
     2012.79123        26.29890         6.51628
     2012.79397         6.34757         6.30715
     2012.79671         5.56724         6.28824
     2012.79945         3.84491         6.49502
     2012.80219        18.32358         6.50801
     2012.80492         7.26225         6.28706
     2012.80766         2.78293         6.33432
     2012.81040        -0.29140         6.40285
     2012.81314         2.74027         6.39931
     2012.81587        -3.02406         6.35677
     2012.81861        -4.55639         6.45484
     2012.82135        -3.54972         6.36150
     2012.82409         3.45095         6.51628
     2012.82683       -13.22838         6.57536
     2012.82956        -5.00771         6.40994
     2012.83230        -1.86203         6.34968
     2012.83504         6.49664         6.41231
     2012.83778         5.65131         6.37804
     2012.84052        -4.51602         6.44775
     2012.84325         4.22665         6.45721
     2012.84599        -3.22368         6.49856
     2012.84873         0.59899         6.47257
     2012.85147         0.70966         6.53283
     2012.85420         4.15433         6.48911
     2012.85694         5.05401         6.49147
     2012.85968         1.97268         6.47729
     2012.86242        -0.20465         6.33078
     2012.86516         5.11002         6.42649
     2012.86789         1.38869         6.59309
     2012.87063         2.68836         6.46784
     2012.87337        -0.19497         6.50447
     2012.87611         3.34470         6.42294
     2012.87885         3.88637         6.42294
     2012.88158         4.64204         6.37804
     2012.88432        -3.90628         6.48911
     2012.88706        17.35439         6.56945
     2012.88980         8.52106         6.64035
     2012.89253         1.09973         6.38986
     2012.89527        -3.87160         6.43948
     2012.89801         4.81507         6.42885
     2012.90075        14.41374         6.48675
     2012.90349         3.40641         6.44539
     2012.90622         0.35708         6.41349
     2012.90896         0.14476         6.52928
     2012.91170         1.00443         6.45721
     2012.91444        17.65410         6.47493
     2012.91718         3.09277         6.35441
     2012.91991        27.23744         6.36268
     2012.92265         8.49011         6.43712
     2012.92539        10.11778         6.44185
     2012.92813         4.43645         6.41113
     2012.93086        -3.25288         6.45602
     2012.93360        -1.62920         6.49147
     2012.93634        -3.06553         6.40876
     2012.93908        -3.08686         6.36977
     2012.94182         0.78881         6.34850
     2012.94455         4.40348         6.31778
     2012.94729         4.33715         6.47611
     2012.95003         4.63882         6.47966
     2012.95277         8.00949         6.36032
     2012.95551         6.17816         6.34614
     2012.95824         4.06784         6.39577
     2012.96646         4.78185         6.36623
     2012.96919        -3.68748         6.46666
     2012.98015         8.43420         6.41113
     2012.98288         4.23987         6.43121
     2012.98562         2.13755         6.43358
     2012.98836         2.55522         6.38868
     2012.99110         3.55289         6.42412
     2012.99384         4.98256         6.44775
     2012.99657        15.06523         6.39813
     2012.99931         9.62590         6.44539
     2013.00205         2.86057         6.44303
     2013.00479        -1.93376         6.47611
     2013.00752         0.32891         6.46311
     2013.01026         0.34659         6.47375
     2013.01300        -1.73974         6.40404
     2013.01574         1.70493         6.41585
     2013.01848        -1.76440         6.56355
     2013.02121        -5.20473         6.53046
     2013.02395        -8.76806         6.51274
     2013.02669         1.53461         6.59072
     2013.02943         2.05328         6.43594
     2013.03216        -2.09905         6.44303
     2013.03490        -4.74737         6.48084
     2013.03764        -6.66070         6.42885
     2013.04038        -9.41703         6.44185
     2013.04312        -9.63736         6.65571
     2013.04585        -7.07969         6.61435
     2013.04859       -10.07902         6.59190
     2013.05133        -6.14135         6.46193
     2013.05407        -6.14768         6.44894
     2013.05681        -3.08701         6.42767
     2013.05954        -3.90234         6.46075
     2013.06228        -6.97266         6.60963
     2013.06502        -1.41199         6.59309
     2013.06776         7.27168         6.53283
     2013.07049         3.29135         6.54228
     2013.07323        -1.05098         6.40640
     2013.07597        -4.92331         6.41467
     2013.07871        -3.56764         6.42058
     2013.08145        -2.40797         6.43830
     2013.08418        -6.01830         6.42294
     2013.08692        -7.64462         6.41821
     2013.08966        -9.97195         6.42294
     2013.09240        -3.37128         6.46075
     2013.09514        -0.50261         6.46193
     2013.09787        -8.22194         6.79631
     2013.10061        -6.60227         6.89556
     2013.10335        -6.35860         6.51747
     2013.10609        -2.69693         6.41231
     2013.10882        -2.67426         6.44303
     2013.11156        -9.33058         6.59663
     2013.11430        -8.09591         6.49620
     2013.11704        -9.06824         6.56355
     2013.11978        -8.10457         6.72896
     2013.12251        -8.35590         6.48320
     2013.12525       -11.44723         6.50919
     2013.12799       -15.05856         6.53755
     2013.13073        -5.55289         6.50211
     2013.13347        -0.96822         6.53046
     2013.13620         1.66645         6.46902
     2013.13894         0.42713         6.49029
     2013.14168         0.47780         6.58718
     2013.14442        -7.57653         6.77505
     2013.14715        -3.05586         6.74196
     2013.14989        -8.29519         6.48911
     2013.15263       -12.53252         6.51510
     2013.15537       -12.72585         6.46666
     2013.15811        -8.48218         6.47257
     2013.16084       -13.60751         6.47257
     2013.16358        -9.64583         6.57182
     2013.16632        -6.53416         6.36623
     2013.16906        -4.02949         6.47493
     2013.17180        -3.48182         6.42530
     2013.17453        -6.08115         6.43358
     2013.17727        -5.08248         6.68525
     2013.18001        -4.24681         6.60372
     2013.18275        -3.49214         6.35559
     2013.18548        -5.03047         6.29297
     2013.18822       -10.70679         6.43358
     2013.19096        -9.07912         6.49502
     2013.19370        -6.00145         6.45721
     2013.19644        -4.53078         6.50447
     2013.19917        -4.76111         6.38631
     2013.20191         0.59356         6.42767
     2013.20465        -7.96177         6.47020
     2013.20739        -7.25410         6.47020
     2013.21013        -3.72643         6.45130
     2013.21286        -7.13976         6.42530
     2013.21560         4.64092         6.48202
     2013.21834       -10.68741         6.42530
     2013.22108        -8.76774         6.34496
     2013.22381        -4.73607         6.38513
     2013.22655        -7.40440         6.45839
     2013.22929        -5.56573         6.41231
     2013.23203        -6.79306         6.39577
     2013.23477        -4.84639         6.40285
     2013.23750        -5.78072         6.60726
     2013.24024        -7.75204         6.53164
     2013.24298       -11.29337         6.55409
     2013.24572         1.87530         6.53283
     2013.24846         0.35397         6.56709
     2013.25119        -3.90736         6.39695
     2013.25393        -1.84769         6.38277
     2013.25667        -6.50402         6.59427
     2013.25941        -1.17835         6.47847
     2013.26214        -2.08468         6.47847
     2013.26488         3.65700         6.52692
     2013.26762         0.04567         6.41113
     2013.27036        -4.15066         6.41821
     2013.27310        -8.25399         6.76205
     2013.27583        -1.49932         6.45130
     2013.27857        -2.55965         6.63444
     2013.28131       -11.37298         6.45721
     2013.28405         1.97869         6.41585
     2013.28679        -2.16164         6.47966
     2013.28952        -0.03196         6.34141
     2013.29226        -7.66329         6.52456
     2013.29500        -6.92062         6.37450
     2013.29774       -17.91195         6.56236
     2013.30047        -3.83628         6.43003
     2013.30321        -9.98161         6.38631
     2013.30595        -8.29494         6.37213
     2013.30869        -9.78027         6.38868
     2013.31143        -7.71560         6.30006
     2013.31416        -2.28393         6.35677
     2013.31690        -1.31225         6.42530
     2013.31964        -3.68758         6.36268
     2013.32238       -10.10591         6.37568
     2013.32512        -0.19224         6.38868
     2013.32785        -0.65057         6.35205
     2013.33059        -5.46290         6.35441
     2013.33333        -7.77123         6.40876
     2013.33607        -8.20656         6.38159
     2013.33880         1.03011         6.38513
     2013.34154         0.91379         6.33905
     2013.34428        -1.41954         6.47493
     2013.34702        -1.37387         6.53401
     2013.34976        -6.14220         6.54700
     2013.35249        -6.13353         6.52928
     2013.35523         0.13514         6.63917
     2013.35797        -8.77319         6.48911
     2013.36071        -3.34652         6.59309
     2013.36344        -5.92585         6.60136
     2013.36618        -1.65217         6.51747
     2013.36892        -0.27550         6.50211
     2013.37166        -2.46583         6.46075
     2013.37440        -4.23916         6.49147
     2013.37713        -5.10949         6.55409
     2013.37987        -6.23482         6.49856
     2013.38261        -8.60415         6.49502
     2013.38535        -3.23448         6.64153
     2013.38809        -6.91581         6.44539
     2013.39082        -3.34114         6.50683
     2013.39356        -4.07646         6.52810
     2013.39630        -4.22479         6.46902
     2013.39904        -1.21712         6.51510
     2013.40177        -1.25345         6.53992
     2013.40451         2.17322         6.50329
     2013.40725         1.04789         6.71597
     2013.40999         3.77856         6.51865
     2013.41273        -5.19477         6.50565
     2013.41546        -0.86810         6.72424
     2013.41820        -4.40242         6.49738
     2013.42094         0.37325         6.47493
     2013.42368        -6.80408         6.52574
     2013.42642         0.30659         6.56827
     2013.42915         5.00226         6.53755
     2013.43189        -3.45907         6.55291
     2013.43463        -2.93840         6.42530
     2013.43737         1.36327         6.41821
     2013.44010        -0.99206         6.48438
     2013.44284        -2.54538         6.55409
     2013.44558        -2.83471         6.61790
     2013.44832        -8.72804         6.38395
     2013.45106        -5.24437         6.38159
     2013.45379        -3.66470         6.36623
     2013.45653        -8.62503         6.45366
     2013.45927        -2.34836         6.51156
     2013.46201         1.69331         6.47138
     2013.46475         3.76598         6.37213
     2013.46748        -7.44235         6.43121
     2013.47022        -9.55867         6.38868
     2013.47296        -2.53300         6.45248
     2013.47570         3.03667         6.42176
     2013.47843         3.53034         6.44421
     2013.48117         4.58001         6.53046
     2013.48391         1.06468         6.49856
     2013.48665         3.12535         6.47020
     2013.48939        -2.86798         6.57654
     2013.49212        -5.68931         6.50801
     2013.49486        -2.96663         6.50211
     2013.49760        -3.77896         6.63444
     2013.50034        -8.14629         6.53637
     2013.50308         7.53938         6.51274
     2013.50581         2.80705         6.42412
     2013.50855        -3.91328         6.38631
     2013.51129         4.19539         6.42176
     2013.51403        -1.98794         6.49383
     2013.51676         4.92273         6.43121
     2013.51950         1.69641         6.44303
     2013.52224         4.52008         6.47847
     2013.52498        -3.00225         6.70061
     2013.52772        -3.25758         6.40758
     2013.53045        -6.13991         6.42294
     2013.53319        -2.54224         6.42767
     2013.53593         3.57043         6.43594
     2013.53867        -0.82490         6.46666
     2013.54141         0.71077         6.43594
     2013.54414        -3.46155         6.45012
     2013.54688        -4.43488         6.39931
     2013.54962         2.34079         6.45130
     2013.55236         2.51246         6.43830
     2013.55509         0.72913         6.41467
     2013.55783         5.41280         6.45012
     2013.56057         0.11847         6.57300
     2013.56331        -3.58486         6.65689
     2013.56605        -4.17119         6.49147
     2013.56878         1.50648         6.46193
     2013.57152         1.87616         6.44539
     2013.57426         5.53383         6.43476
     2013.57700        -0.72550         6.55173
     2013.57974         3.06617         6.45012
     2013.58247        10.05184         6.61672
     2013.58521         1.70551         6.50801
     2013.58795         6.39818         6.41349
     2013.59069         3.53785         6.48320
     2013.59342         3.27252         6.50919
     2013.59616         7.53820         6.46075
     2013.59890         3.89487         6.46666
     2013.60164         2.85354         6.56945
     2013.60438         4.28921         6.52928
     2013.60711         6.06788         6.57536
     2013.60985         0.30155         6.48793
     2013.61259         2.34222         6.50211
     2013.61533         8.07289         6.65216
     2013.61807         3.92356         6.62617
     2013.62080         4.19524         6.55528
     2013.62354         8.13591         6.53519
     2013.62628         8.39258         6.72424
     2013.62902         0.47825         6.57536
     2013.63175         6.34492         6.51392
     2013.63449        10.36059         6.67934
     2013.63723        10.24426         6.48438
     2013.63997        12.49993         6.54819
     2013.64271         0.05060         6.53519
     2013.64544         7.19427         6.42885
     2013.64818         6.15695         6.54346
     2013.65092        10.40462         6.58009
     2013.65366         3.11329         6.43476
     2013.65639         6.48496         6.45602
     2013.65913         3.54763         6.55291
     2013.66187        -1.04470         6.49265
     2013.66461         8.58797         6.40285
     2013.66735         8.90164         6.51510
     2013.67008        11.82231         6.43003
     2013.67282         4.99599         6.62499
     2013.67556         8.21966         6.49738
     2013.67830         9.69733         6.49738
     2013.68104         8.12000         6.44421
     2013.68377        12.92467         6.35677
     2013.68651         3.67634         6.36386
     2013.68925         6.44601         6.42058
     2013.69199        11.35268         6.35914
     2013.69472        11.13835         6.43476
     2013.69746         3.91503         6.36741
     2013.70020        12.23070         6.38868
     2013.70294        12.42137         6.46075
     2013.70568         8.40104         6.47493
     2013.70841         7.56471         6.45839
     2013.71115        13.98838         6.45721
     2013.71389         6.13505         6.38395
     2013.71663         5.79772         6.44775
     2013.71937        12.82839         6.45130
     2013.72210        13.07106         6.43003
     2013.72484        10.41074         6.49147
     2013.72758         7.43341         6.43003
     2013.73032         1.54008         6.39931
     2013.73305        14.06375         6.25516
     2013.73579         6.74942         6.24334
     2013.73853         3.60809         6.34023
     2013.74127         9.70376         6.45484
     2013.74401        13.45643         6.42294
     2013.74674        16.08310         6.31778
     2013.74948         0.07278         6.26579
     2013.75222         3.73545         6.40758
     2013.75496         1.87312         6.38395
     2013.75770        -3.34121         6.30242
     2013.76043        -0.60954         6.25870
     2013.76317         2.02913         6.24807
     2013.76591         5.01680         6.40994
     2013.76865         4.62247         6.46430
     2013.77138        10.76914         6.42412
     2013.77412        12.83782         6.41585
     2013.77686         2.00549         6.38277
     2013.77960         3.59716         6.38513
     2013.78234         0.25983         6.42885
     2013.78507        -2.25150         6.48556
     2013.78781        -6.25783         6.43003
     2013.79055        -0.40216         6.39931
     2013.79329        -2.23949         6.43948
     2013.79603         1.54618         6.34614
     2013.79876         0.64885         6.39104
     2013.80150         1.42453         6.49974
     2013.80424         0.97620         6.54228
     2013.80698         1.82287         6.36032
     2013.80971         3.48354         6.33314
     2013.81245         6.39421         6.38749
     2013.81519         0.63788         6.39222
     2013.81793        -1.45245         6.37568
     2013.82067         2.70822         6.45839
     2013.82340        21.42989         6.38159
     2013.82614        20.94857         6.56591
     2013.82888         8.30924         6.42885
     2013.83162         1.17491         6.36977
     2013.83436         6.97958         6.57773
     2013.83709         5.52725         6.52456
     2013.83983         8.09192         6.45366
     2013.84257         4.19659         6.37095
     2013.84531         6.45126         6.47966
     2013.84804         6.80393         6.38041
     2013.85078         8.17961         6.46430
     2013.85352         5.45628         6.40167
     2013.85626         5.10795         6.37450
     2013.85900         1.47862         6.39813
     2013.86173        -2.18271         6.33905
     2013.86447        -2.71904         6.37922
     2013.86721         1.05463         6.34968
     2013.86995         0.86630         6.35323
     2013.87269         6.12097         6.39813
     2013.87542         6.14565         6.55173
     2013.87816        10.95732         6.39695
     2013.88090         8.25599         6.53283
     2013.88364         5.54766         6.67934
     2013.88637        13.83333         6.39931
     2013.88911         7.05000         6.40049
     2013.89185        -6.76633         6.40285
     2013.89459        -3.89866         6.37213
     2013.89733         0.01401         6.30124
     2013.90006         1.54068         6.40640
     2013.90280        -5.70664         6.44421
     2013.90554        -1.07897         6.39458
     2013.90828         5.22870         6.39813
     2013.91102         1.26337         6.34496
     2013.91375        -4.70296         6.29415
     2013.91649         0.52071         6.43594
     2013.91923         3.68638         6.66043
     2013.92197        15.05705         6.51510
     2013.92470        16.56172         6.35205
     2013.92744        11.58540         6.42412
     2013.93018         8.49707         6.20553
     2013.93292         6.28574         6.27170
     2013.93566         3.54141         6.30479
     2013.93839         1.87708         6.28234
     2013.94113        -2.79725         6.30124
     2013.94387        -1.77858         6.20317
     2013.94661        -2.17391         6.30715
     2013.94935        -0.04624         6.35677
     2013.95208        -0.50856         6.30833
     2013.95482        -7.43589         6.31778
     2013.95756        -2.66322         6.26579
     2013.96030        -2.95555         6.27761
     2013.96303         2.42112         6.36623
     2013.96577         4.45179         6.38631
     2013.96851         3.63646         6.44539
     2013.97125        17.34913         6.39695
     2013.97399         2.04280         6.45602
     2013.97672        -3.26853         6.43948
     2013.97946        -4.12185         6.45130
     2013.98220        -5.07318         6.35205
     2013.98494        -5.92551         6.36032
     2013.98767        -7.59084         6.38159
     2013.99041        -7.69417         6.44775
     2013.99315        -9.50350         6.38513
     2013.99589        -4.56283         6.35914
     2013.99863        -7.49116         6.37450
     2014.00410        -5.36581         6.35323
     2014.00684        -7.22214         6.41703
     2014.00958        -3.81847         6.43358
     2014.01232        -7.28480         6.45130
     2014.01505        -6.87813         6.50211
     2014.01779        -7.20646         6.43712
     2014.02053         2.50521         6.40167
     2014.02327        -2.86512         6.57536
     2014.02600        -6.69345         6.61790
     2014.02874        -0.42577         6.41703
     2014.03148         0.83690         6.37095
     2014.03422         3.56557         6.29770
     2014.03696        -6.34676         6.35677
     2014.03969        -3.86309         6.36977
     2014.04243         0.59358         6.57300
     2014.04517         4.14225         6.52456
     2014.04791        -2.18008         6.36386
     2014.05065        -0.51641         6.30479
     2014.05338        -2.26874         6.40994
     2014.05612        -1.50706         6.35441
     2014.05886        -7.46039         6.35205
     2014.06160         0.71428         6.35087
     2014.06433        -2.11605         6.51865
     2014.06707        -0.62738         6.54228
     2014.06981        -0.00271         6.42412
     2014.07255         1.18496         6.35441
     2014.07529         8.09163         6.36032
     2014.07802         7.67230         6.39931
     2014.08076         9.25098         6.38749
     2014.08350         9.35065         6.46075
     2014.08624         4.94032         6.51865
     2014.08898        -4.33001         6.60608
     2014.09171        -4.74734         6.63562
     2014.09445        -1.61367         6.41821
     2014.09719        -0.96400         6.48438
     2014.09993         6.82767         6.44657
     2014.10540         3.94002         6.39340
     2014.10814        -1.70131         6.41113
     2014.11088        -3.81964         6.58363
     2014.11362        -6.60397         6.47138
     2014.11635         6.01770         6.47257
     2014.11909         2.22637         6.45602
     2014.12457         1.47071         6.36150
     2014.12731        13.98638         6.34023
     2014.13004         5.68605         6.40285
     2014.13278        -5.61127         6.76205
     2014.13552        -6.57160         6.45130
     2014.13826        -0.00393         6.33787
     2014.14099        -0.33326         6.35441
     2014.14373        -2.41559         6.33905
     2014.14647        -3.90492         6.42530
     2014.14921         4.38575         6.45484
     2014.15195        -1.88758         6.33314
     2014.15468        -0.51191         6.41940
     2014.15742        11.54377         6.35914
     2014.16290         4.00111         6.46193
     2014.16564         0.25778         6.37332
     2014.16837        -0.56555         6.71479
     2014.17111         0.68112         6.73960
     2014.17385        -0.64721         6.81758
     2014.17659         8.83646         6.52928
     2014.17932         5.30713         6.71951
     2014.18206        -0.59919         6.62853
     2014.18480        -0.13852         6.47611
     2014.18754         1.85515         6.41113
     2014.19028        -5.32018         6.47257
     2014.19301        -3.41951         6.47729
     2014.19575        -2.60084         6.60726
     2014.19849        -7.16917         6.64507
     2014.20123        -7.84750         6.43476
     2014.20397       -10.07583         6.39695
     2014.20670        -6.91215         6.48084
     2014.20944         0.25552         6.44657
     2014.21218        -2.39081         6.42530
     2014.21765        -2.00647         6.48202
     2014.22039        -5.01880         6.43594
     2014.22313        -2.54813         6.48202
     2014.22587        -2.66946         6.41113
     2014.22861        -1.38679         6.46666
     2014.23134         1.11188         6.41467
     2014.23408        -2.71944         6.58009
     2014.23682        -1.47077         6.58009
     2014.23956         0.09790         6.65334
     2014.24230        -1.86343         6.45602
     2014.24503        -4.58076         6.43948
     2014.24776         3.82391         6.72660
     2014.25051        -1.26642         6.47493
     2014.25325        -2.63375         6.53637
     2014.25598        -1.70208         6.69234
     2014.25872        -4.90840         6.45366
     2014.26146        -6.52173         6.63090
     2014.26420        -5.53506         6.49383
     2014.26694        -3.55839         6.54346
     2014.26967       -12.42672         6.53519
     2014.27241        -7.59805         6.67225
     2014.27515        -5.63138         6.67579
     2014.27789        -1.68671         6.51747
     2014.28062        -2.97004         6.50683
     2014.28336        -6.70036         6.51747
     2014.28884        -4.12502         6.79749
     2014.29158        -7.47235         6.52456
     2014.29705        -4.59301         6.54700
     2014.29979        -5.16834         6.50801
     2014.30253        -9.24467         6.55882
     2014.30527        -5.94300         6.51983
     2014.30800        -8.80433         6.51747
     2014.31622        -2.52231         6.55882
     2014.32169       -14.28197         6.64626
     2014.32443       -14.32030         6.62144
     2014.32991        -5.58396         6.48202
     2014.34086        -2.14427         6.58245
     2014.34360        -3.38360         6.53873
     2014.34907        -2.68526         6.66162
     2014.35181         0.72541         6.78804
     2014.36550        -7.51123         6.45366
     2014.37097        -4.30889         6.64507
     2014.38740        -8.63586         6.62499
     2014.39014        -4.78719         6.47138
     2014.39288        -1.63352         6.48556
     2014.39561        -1.76185         6.56236
     2014.40743        16.14336        10.07159
     2014.40930        -8.68450         6.46902
     2014.41204        -4.33682         6.49147
     2014.41478        -8.35015         6.54937
     2014.41752        -2.92248         6.55646
     2014.42026         6.48319         6.60372
     2014.42299        -7.00714         6.45602
     2014.42573        -6.61947         6.53637
     2014.42847        -4.87780         6.58363
     2014.43121       -10.20613         6.50329
     2014.43394        -6.36246         6.54228
     2014.43668        -4.75178         6.50683
     2014.43942        -1.94611         6.44657
     2014.44216        -7.44944         6.47493
     2014.44490        -8.44077         6.71597
     2014.44763        -0.24310         6.68643
     2014.45037        -6.03843         6.36859
     2014.45311        -1.40276         6.41703
     2014.45585        -3.69009         6.38868
     2014.45859        -7.53342         6.36977
     2014.46132        -8.34074         6.42885
     2014.46406        -5.09207         6.49502
     2014.46680        -8.21140         6.47966
     2014.46954        -0.57573         6.44775
     2014.47227        -2.67806         6.34141
     2014.47501        -4.13239         6.37804
     2014.47775        -4.66272         6.45721
     2014.48049        -4.23105         6.41940
     2014.48323         2.30262         6.41467
     2014.48596         1.51829         6.49856
     2014.48870         1.66297         6.43712
     2014.49144         2.05764         6.42058
     2014.49418        -4.52669         6.40640
     2014.49692        -6.97002         6.31187
     2014.49965        -3.73035         6.41585
     2014.50239        -8.72968         6.67579
     2014.50513         0.67499         6.60963
     2014.50787        -5.21334         6.42412
     2014.51060        -7.22267         6.32487
     2014.51334         1.31601         6.38041
     2014.51608         2.80568         6.44066
     2014.51882         3.63935         6.61081
     2014.52156         2.95802         6.63917
     2014.52429         4.81569         6.45012
     2014.52703         4.31536         6.43239
     2014.52977         0.31703         6.55409
     2014.53251        -4.94930         6.44539
     2014.53525         2.19137         6.40994
     2014.53798         3.38005         6.38513
     2014.54072         8.34172         6.48675
     2014.54346         3.38339         6.35559
     2014.54620         2.59806         6.32369
     2014.54893         6.11973         6.42412
     2014.55167         2.18440         6.54464
     2014.55441         9.66707         6.53164
     2014.55715        -0.19326         6.64389
     2014.55989        -1.38959         6.44303
     2014.56262         3.50008         6.49147
     2014.56536         2.51076         6.45248
     2014.56810        -0.93757         6.53283
     2014.57084         2.84410         6.49265
     2014.57357         0.90977         6.49147
     2014.57631        -0.01856         6.66752
     2014.57905         1.79311         6.44303
     2014.58179         2.40978         6.60490
     2014.58726         2.63112         6.68643
     2014.59000         1.98980         6.46548
     2014.59274         4.93447         6.50565
     2014.59548        -0.74586         6.42649
     2014.59822        -0.62819         6.51274
     2014.60369         1.02215         6.58009
     2014.60643        -0.93118         6.35914
     2014.60917         3.07649         6.40876
     2014.61190         5.14716         6.51747
     2014.61464         4.87984         6.43712
     2014.61738         8.52751         6.53992
     2014.62012         8.47318         6.45366
     2014.62286         6.57385         6.33551
     2014.62559         3.96752         6.40404
     2014.62833         3.78719         6.58245
     2014.63381         9.25453         6.66634
     2014.63655         3.07620         6.55409
     2014.63928         4.96287         6.47375
     2014.64202        -0.36745         6.41349
     2014.64476         0.03922         6.48084
     2014.64750         5.43389         6.54582
     2014.65023        -2.44944         6.40758
     2014.65297         4.48023         6.44421
     2014.65571         9.49490         6.46430
     2014.65845        11.11057         6.48084
     2014.66119         7.14824         6.62144
     2014.66392        14.23791         6.57064
     2014.66666         8.64059         6.43358
     2014.66940         5.49626         6.40522
     2014.67214         3.33593         6.43948
     2014.67488         1.98860         6.45366
     2014.67761        -1.88673         6.44421
     2014.68035         4.56494         6.26343
     2014.68309         1.59461         6.42530
     2014.68583         2.92928         6.34378
     2014.68856         4.49695         6.52219
     2014.69130        -1.25337         6.53755
     2014.69404         2.99630         6.30360
     2014.69678        -1.48703         6.24807
     2014.69952         5.99364         6.28470
     2014.70225         3.06731         6.33196
     2014.70499         0.43798         6.32487
     2014.70773         5.84665         6.38868
     2014.71047         4.79232         6.41585
     2014.71321         1.47199         6.38986
     2014.71594         1.87966         6.41113
     2014.71868         2.66934         6.38277
     2014.72142         4.31501         6.40994
     2014.72416         7.05868         6.41231
     2014.72689         9.17835         6.41821
     2014.73237        15.74969         6.42649
     2014.73511         3.26636         6.39695
     2014.73785        10.17103         6.40285
     2014.74058         9.90670         6.49620
     2014.74332         7.72038         6.44421
     2014.74606        13.68805         6.60608
     2014.74880         4.97572         6.40876
     2014.75154         2.80139         6.56473
     2014.75427         1.90706         6.39340
     2014.75701         0.33373         6.38749
     2014.75975         5.34840         6.36386
     2014.76249         2.57307         6.48911
     2014.76522         2.47374         6.39577
     2014.76796         6.23142         6.36386
     2014.77070         1.82909         6.44066
     2014.77344         2.84476         6.39931
     2014.77618         3.49343         6.73015
     2014.77891         1.12210         6.36504
     2014.78165         7.88077         6.39931
     2014.78439         2.60344         6.39340
     2014.78713        12.54911         6.49738
     2014.78987         1.85578         6.41467
     2014.79260         3.61546         6.44066
     2014.79534         9.01513         6.37804
     2014.79808         6.12280         6.51274
     2014.80082        -1.71853         6.46075
     2014.80355         9.35914         6.60372
     2014.80629         9.15081         6.55173
     2014.80903        12.86948         6.38277
     2014.81177        11.73815         6.36859
     2014.81451         7.12682         6.48675
     2014.81724        18.39449         6.42058
     2014.81998        10.10517         6.45366
     2014.82272        11.02984         6.53401
     2014.82546        14.21651         6.47020
     2014.82820        -2.13582         6.35559
     2014.83093        -0.07115         6.35087
     2014.83367         6.50852         6.39813
     2014.83641         2.72719         6.31542
     2014.83915         6.10186         6.29770
     2014.84188         3.44053         6.43358
     2014.84462         9.40921         6.37450
     2014.84736        -3.44912         6.50092
     2014.85010         3.99055         6.47729
     2014.85284         2.00322         6.28943
     2014.85557        -0.94011         6.50919
     2014.85831         4.80756         6.40285
     2014.86105        -0.93277         6.35323
     2014.86379        -1.44910         6.32960
     2014.86653        -0.34843         6.37804
     2014.86926        16.71025         6.44775
     2014.87200         9.06692         6.40640
     2014.87474         2.29359         6.41703
     2014.87748         0.41526         6.35559
     2014.88021         1.78893         6.55764
     2014.88295        -1.42840         6.39458
     2014.88569        -2.48473         6.76914
     2014.88843         2.66494         6.72424
     2014.89117        15.96961         6.79986
     2014.89390         7.68228         6.66516
     2014.89664         8.49696         6.64744
     2014.89938        -3.11237         6.74551
     2014.90212       -11.81970         6.57536
     2014.90485       -11.12403         6.66280
     2014.90759         7.15064         6.62026
     2014.91033        11.45831         6.58245
     2014.91307        12.66398         6.50565
     2014.91581         0.69765         6.50683
     2014.91854         7.95332         6.35677
     2014.92128         4.81600         6.36623
     2014.92402        14.53267         6.44066
     2014.92676        -0.00866         6.41349
     2014.92950        -5.78699         6.41585
     2014.93223        -0.85332         6.38041
     2014.93497         2.72135         6.34023
     2014.93771        -4.45498         6.32487
     2014.94045        -3.87231         6.36032
     2014.94318         4.73336         6.59309
     2014.94592        -2.42396         6.28234
     2014.94866        -1.32329         6.20553
     2014.95140        -4.28062         6.21735
     2014.95414        -3.82695         6.24334
     2014.95687         2.50072         6.28943
     2014.95961         2.58139         6.29533
     2014.96235         2.14806         6.24689
     2014.96509        -0.48527         6.41940
     2014.96783        -3.90960         6.28706
     2014.97056        -3.74993         6.36859
     2014.97330        -4.64125         6.30360
     2014.97604        -8.62958         6.26225
     2014.97878        -3.34391         6.33078
     2014.98151         9.69176         6.40994
     2014.98425        -4.67057         6.26698
     2014.98699        -6.48690         6.30242
     2014.98973       -17.34223         6.31187
     2014.99247       -10.91556         6.28706
     2014.99520        -7.82889         6.27643
     2014.99794        -7.56921         6.29533
     2015.00068        -7.23854         6.27052
     2015.00342        -9.55687         6.24925
     2015.00616       -15.84520         6.27407
     2015.00889       -11.95053         6.36386
     2015.01163       -12.92886         6.41349
     2015.01437       -10.25319         6.37922
     2015.01711        -9.09652         6.38513
     2015.01984        -5.55285         6.34732
     2015.02258        -2.09217         6.45602
     2015.02532        -1.85350         6.36386
     2015.02806        -3.16183         6.40640
     2015.03080         3.60184         6.32842
     2015.03353        -5.19049         6.45602
     2015.03627        -5.09282         6.34968
     2015.03901        -0.35815         6.40876
     2015.04175         1.55652         6.55173
     2015.04449        -3.16681         6.55646
     2015.04722         4.48187         6.51747
     2015.04996        -7.04746         6.38159
     2015.05270        -6.69379         6.32133
     2015.05544        -6.95812         6.34614
     2015.05817        -3.41845         6.37804
     2015.06091        -4.92578         6.43121
     2015.06365        -2.20511         6.54700
     2015.06639        -3.75944         6.32251
     2015.06913        -6.81977         6.33669
     2015.07186        -9.07410         6.39222
     2015.07460        -6.16042         6.42294
     2015.07734       -13.51875         6.38986
     2015.08008       -12.69608         6.35559
     2015.08282        -4.41141         6.24334
     2015.08555        -4.23074         6.34023
     2015.08829         1.39193         6.55173
     2015.09103         1.46860         6.47375
     2015.09377         2.21627         6.29061
     2015.09650        -4.94606         6.45248
     2015.09924         2.38662         6.49738
     2015.10198        14.43129         6.26934
     2015.10472         4.12196         6.27997
     2015.10746        -1.92137         6.31778
     2015.11019       -13.05270         6.48320
     2015.11293        -8.80403         6.46784
     2015.11567        -7.18936         6.31542
     2015.11841        -7.69269         6.35559
     2015.12115        -5.52902         6.30124
     2015.12388        -8.56834         6.20553
     2015.12662       -10.61367         6.18190
     2015.12936        -6.28000         6.20199
     2015.13210        -7.29133         6.31542
     2015.13483        -6.96966         6.32487
     2015.13757        -7.22499         6.20317
     2015.14031        -7.14232         6.18781
     2015.14305        -3.77565         6.26225
     2015.14579        -8.42898         6.30242
     2015.14852        -7.72631         6.30833
     2015.15126        -6.74663         6.31187
     2015.15400       -10.38996         6.29651
     2015.15674        -2.24929         6.30242
     2015.15948         0.43338         6.25989
     2015.16221        -4.35095         6.30006
     2015.16495        -4.09228         6.27761
     2015.16769        -6.87461         6.30715
     2015.17043        -5.89094         6.32133
     2015.17316        -8.39227         6.47847
     2015.17590        -7.31159         6.45248
     2015.17864        -5.15192         6.28943
     2015.18138        -2.17325         6.31542
     2015.18412        -2.23658         6.31778
     2015.18685        -2.90691         6.31896
     2015.18959        -1.42724         6.34614
     2015.19233         3.04743         6.53755
     2015.19507        -5.41090         6.32015
     2015.19780        -5.13123         6.46666
     2015.20054        -3.82955         6.31660
     2015.20328        -2.25988         6.38395
     2015.20602         3.26179         6.31424
     2015.20876        -8.82954         6.34496
     2015.21149       -14.52787         6.30006
     2015.21423       -13.66520         6.53519
     2015.21697        -3.99053         6.25752
     2015.21971        -2.08286         6.32369
     2015.22245        -0.38819         6.33905
     2015.22518        -8.31552         6.33551
     2015.22792        -3.55184         6.32842
     2015.23066        -6.40717         6.30951
     2015.23340        -2.11550         6.42530
     2015.23613        -0.96183         6.53164
     2015.23887        -8.32216         6.56000
     2015.24161        -5.57249         6.58245
     2015.24435        -7.63182         6.68407
     2015.24709        -8.08715         6.41349
     2015.24982        -9.72448         6.25280
     2015.25256        -5.42880         6.28115
     2015.25530        -8.43713         6.30479
     2015.25804        -6.34446         6.34141
     2015.26078        -2.87879         6.27879
     2015.26351        -3.99112         6.25043
     2015.26496       -25.59524        35.32145
     2015.60853        14.20547         6.79159
     2015.61122        12.20311         6.36741
     2015.61396        10.08778         6.45839
     2015.61670         8.16245         6.37922
     2015.61943        11.36612         6.43948
     2015.62217        11.35479         6.34850
     2015.62491        17.39346         6.40049
     2015.62765        13.21713         6.37095
     2015.63039        12.74280         6.35796
     2015.63312        15.24648         6.40404
     2015.63586         9.12215         6.41821
     2015.63860         8.57982         6.34260
     2015.64134        14.50049         6.36741
     2015.64407         6.73916         6.43712
     2015.64681        11.49383         6.55528
     2015.64955        15.40150         6.42412
     2015.65229        11.14817         6.40876
     2015.65503        10.50384         6.38631
     2015.65776        11.10451         6.43003
     2015.66050        12.16619         6.39813
     2015.66324        18.92186         6.45012
     2015.66598        12.60653         6.48320
     2015.66872        12.67620         6.54464
     2015.67145        16.78587         6.39695
     2015.67419        17.41454         6.31542
     2015.67693        21.94221         6.32369
     2015.67967        11.73288         6.33787
     2015.68240        14.27255         6.37568
     2015.68514         8.70923         6.38986
     2015.68788        14.70590         6.34023
     2015.69062        18.06157         6.35796
     2015.69336        12.86324         6.54937
     2015.69609        13.76891         6.40522
     2015.69883        18.54558         6.42530
     2015.70157        16.52125         6.46193
     2015.70431        19.91292         6.36386
     2015.70705        13.47359         6.33787
     2015.70978        27.11327         6.39222
     2015.71252        14.73694         6.41585
     2015.71526        12.29061         6.36150
     2015.71800        19.00428         6.26698
     2015.72073        17.97395         6.26225
     2015.72347         9.68762         6.26343
     2015.72621        12.44429         6.37568
     2015.72895         9.86496         6.39931
     2015.73169        11.63763         6.41821
     2015.73442        11.07230         6.42530
     2015.73716        13.38498         6.23507
     2015.73990        17.15365         6.37095
     2015.74264        17.60632         6.39340
     2015.74538        16.28799         6.69588
     2015.74811        12.24666         6.72424
     2015.75085         7.00133         6.29061
     2015.75359        17.59800         6.29297
     2015.75633        22.29667         6.26461
     2015.75906        15.44334         6.34732
     2015.76180         8.98202         6.38868
     2015.76454        13.71769         6.31424
     2015.76728        11.89136         6.30479
     2015.77002        15.70803         6.35914
     2015.77275        15.32170         6.25870
     2015.77549        14.71137         6.55291
     2015.77823        15.45104         6.43948
     2015.78097        13.88671         6.26107
     2015.78371        14.11238         6.28115
     2015.78644        19.08306         6.20908
     2015.78918        12.50573         6.21971
     2015.79192        21.55840         6.29297
     2015.79466        20.36707         6.31660
     2015.79739        19.84574         6.34378
     2015.80013        13.77341         6.26579
     2015.80287         9.59108         6.27643
     2015.80561        13.44175         6.36150
     2015.80835        11.40242         6.23980
     2015.81108        15.16109         6.27879
     2015.81382         8.53377         6.37213
     2015.81656        11.26944         6.35323
     2015.81930        14.14811         6.35914
     2015.82203        14.79778         6.38631
     2015.82477        19.26345         6.39340
     2015.82751        13.40812         6.42530
     2015.83025         3.23379         6.48556
     2015.83299        16.73446         6.44657
     2015.83572        10.32613         6.36623
     2015.83846        10.84081         6.36977
     2015.84120         9.05748         6.32960
     2015.84394         7.13615         6.34850
     2015.84668         6.96582         6.39458
     2015.84941        15.39349         6.42058
     2015.85215        22.87116         6.42649
     2015.85489        21.08583         6.43121
     2015.85763        11.37250         6.43121
     2015.86036         8.73417         6.49502
     2015.86310        11.06485         6.43948
     2015.86584        14.06752         6.45839
     2015.86858         9.17619         6.46902
     2015.87132         8.46686         6.43239
     2015.87405         7.19353         6.41231
     2015.87679         9.49020         6.58481
     2015.87953         9.60687         6.75496
     2015.88227        19.61154         6.52928
     2015.88501         4.91721         6.40167
     2015.88774         7.49488         6.47966
     2015.89048        11.54656         6.48202
     2015.89322        11.26923         6.48084
     2015.89596        14.25490         6.38159
     2015.89869        21.49757         6.35914
     2015.90143        15.05824         6.39340
     2015.90417         5.29091         6.38986
     2015.90691         6.68058         6.43948
     2015.90965         9.75625         6.42767
     2015.91238         8.10392         6.43358
     2015.91512         5.46260         6.43239
     2015.91786        16.98827         6.46666
     2015.92334         6.77461         6.48084
     2015.92607        10.14228         6.36268
     2015.92881         4.43095         6.40876
     2015.93155         8.81562         6.65216
     2015.93429        13.95829         6.60490
     2015.93702        26.22496         6.65689
     2015.95619        24.43066         6.39222
     2015.95893        15.62433         6.60726
     2015.96167         7.55600         6.60726
     2015.96440         7.37968         6.37686
     2015.96714         5.06035         6.40522
     2015.96988         5.21202         6.43358
     2015.97262         3.93369         6.45248
     2015.97535         1.32436         6.38749
     2015.97809         3.24703         6.36859
     2015.98083         4.53370         6.42176
     2015.98357        -3.76263         6.41585
     2015.98631        -0.18696         6.52337
     2015.98904         3.11371         6.40167
     2015.99178        -0.43561         6.42058
     2015.99452         1.40806         6.38159
     2015.99726         2.03473         6.41113
     2016.00000         2.97440         6.41113
     2016.00273        -0.82493         6.43712
     2016.00547         1.12474         6.47966
     2016.00821         3.72841         6.45366
     2016.01095         4.38508         6.42767
     2016.01368         0.90275         6.46193
     2016.01642         2.61143         6.54819
     2016.01916         0.33110         6.65689
     2016.02190         6.56477         6.53164
     2016.02464         2.98944         6.40758
     2016.02737        -1.65689         6.46902
     2016.03011        -1.00322         6.39577
     2016.03285         0.30645         6.45721
     2016.03559         4.01912         6.43358
     2016.03833         4.70479         6.48911
     2016.04106         2.01147         6.37450
     2016.04380         9.08714         6.36623
     2016.04654        12.36081         6.36859
     2016.04928         4.73648         6.34260
     2016.05201        -3.03085         6.37568
     2016.05475         0.48282         6.34023
     2016.05749        -3.19651         6.35559
     2016.06023         4.89616         6.40049
     2016.06297         2.08783         6.32960
     2016.06570         2.76450         6.54228
     2016.06844        -1.33282         6.43830
     2016.07118        -2.91115         6.51274
     2016.07392         3.42952         6.58836
     2016.07666        13.19519         6.61317
     2016.07939        10.75186         6.47257
     2016.08213         2.11353         6.62853
     2016.08487         0.51420         6.44894
     2016.08761        -2.93413         6.40285
     2016.09034        -5.57246         6.45012
     2016.09308        -3.10878         6.46784
     2016.09582        -2.53611         6.51156
     2016.09856        -5.85444         6.60608
     2016.10130        -2.10177         6.43948
     2016.10403        -8.00910         6.50919
     2016.10677        -7.83143         6.42294
     2016.10951        -5.85076         6.46548
     2016.11225        -6.52109         6.43121
     2016.11498        -8.60742         6.45957
     2016.11772       -13.28574         6.45839
     2016.12046        -7.94307         6.40640
     2016.12320        -5.83640         6.45839
     2016.12594       -12.04173         6.35441
     2016.12867        -5.32706         6.36977
     2016.13141         8.59061         6.34260
     2016.13415        -4.59072         6.45366
     2016.13689        -5.55305         6.36504
     2016.13963        -6.70338         6.39222
     2016.14236        -7.31171         6.33787
     2016.14510        -7.25403         6.40285
     2016.14784        -6.46236         6.37332
     2016.15058        -3.29969         6.43948
     2016.15331        -0.92002         6.53519
     2016.15605         7.77365         6.41703
     2016.15879        -2.99368         6.60136
     2016.16153       -10.28601         6.44066
     2016.16427        -5.34834         6.45366
     2016.16700        -2.63167         6.34614
     2016.16974         4.96901         6.50565
     2016.17248        -1.76732         6.51038
     2016.17522         2.38435         6.40640
     2016.17796        12.60202         6.37804
     2016.18069         3.26669         6.45957
     2016.18343        -1.34964         6.56473
     2016.18617         0.59003         6.37095
     2016.18891         6.91270         6.27052
     2016.19164         7.50237         6.24216
     2016.19438         5.52705         6.27879
     2016.19712         2.37772         6.20317
     2016.19986         1.26639         6.40758
     2016.20260       -12.54194         6.46075
     2016.20533        -6.14827         6.53519
     2016.20807        -3.97960         6.51628
     2016.21081        -8.92293         6.40994
     2016.21355        -6.61426         6.36386
     2016.21629        -7.89059         6.25162
     2016.21902        -0.66091         6.27879
     2016.22176        -0.76124         6.26816
     2016.22450        -8.08957         6.20435
     2016.22724       -19.53590         6.29770
     2016.22997        -7.32123         6.22680
     2016.23271        -7.48756         6.22090
     2016.23545        -7.01689         6.30006
     2016.23819        -3.40722         6.24571
     2016.24093         3.63045         6.29651
     2016.24366        -2.69388         6.24807
     2016.24640        -2.28620         6.26816
     2016.24914        -5.97553         6.24807
     2016.25188        -4.58386         6.28824
     2016.25462        -5.97519         6.28824
     2016.25735        -7.72952         6.34141
     2016.26009        -7.79385         6.25162
     2016.26283       -11.22818         6.28943
     2016.26557        -5.88751         6.38277
     2016.26830        -3.05284         6.26461
     2016.27104        -3.65416         6.27761
     2016.27378        -0.58349         6.25752
     2016.27652        -6.34482         6.24571
     2016.27926         4.42885         6.29179
     2016.28199        -9.66848         6.30597
     2016.28473        -5.10681         6.27879
     2016.28747        -6.49914         6.23744
     2016.29021       -10.06047         6.23862
     2016.29295        -6.96480         6.29770
     2016.29568        -2.83512         6.28470
     2016.29842        -5.60645         6.45721
     2016.30116        -4.50178         6.42530
     2016.30390       -12.40811         6.27997
     2016.30663        -1.90144         6.31424
     2016.30937         5.01723         6.30006
     2016.31211        -1.76210         6.31896
     2016.31485        -4.09543         6.25870
     2016.31759        -1.58676         6.24571
     2016.32032        -3.26909         6.27407
     2016.32306        -6.65641         6.27288
     2016.32580        -5.44074         6.29651
     2016.32854        -5.43907         6.25280
     2016.33128        -3.82540         6.22917
     2016.33401        -4.75773         6.35323
     2016.33675        -8.27106         6.33078
     2016.33949         1.85961         6.39222
     2016.34223        -0.82472         6.43358
     2016.34496         7.08995         6.49620
     2016.34770         1.12563         6.41821
     2016.35044         0.71530         6.37686
     2016.35318        -4.47103         6.22326
     2016.35592        -8.65236         6.26107
     2016.35865       -10.71069         6.29061
     2016.36139       -10.89202         6.36386
     2016.36413         1.44765         6.29297
     2016.36687         5.10732         6.29533
     2016.36961        12.26399         6.29651
     2016.37234         6.40767         6.22562
     2016.37508        -1.60366         6.29533
     2016.37782       -10.77599         6.27643
     2016.38056        -7.93732         6.33432
     2016.38329         2.15535         6.17600
     2016.38603        -1.72198         6.19017
     2016.38877         3.33669         6.30951
     2016.39151        -0.80964         6.33787
     2016.39425         0.33303         6.19372
     2016.39698         9.73070         6.22917
     2016.39972         1.37838         6.21971
     2016.40246        -2.11995         6.30951
     2016.40520        -4.81628         6.25516
     2016.40794       -10.77561         6.28470
     2016.41067        -8.05494         6.21144
     2016.41341        -6.16127         6.21144
     2016.41615        -7.73760         6.35087
     2016.41889        -8.97893         6.24807
     2016.42162        -1.57626         6.32605
     2016.42436        -6.54658         6.25516
     2016.42710        -3.12491         6.28234
     2016.42984        -4.40924         6.28943
     2016.43258         4.59343         6.39458
     2016.43531         1.06510         6.57773
     2016.43805         2.25877         6.35205
     2016.44079        -9.44556         6.37450
     2016.44353        -4.38189         6.21971
     2016.44626        -3.60322         6.20672
     2016.44900        -6.20154         6.25162
     2016.45174        -5.48887         6.27170
     2016.45448         3.27180         6.26816
     2016.45722        -0.65653         6.27643
     2016.45995         3.44314         6.25870
     2016.46269         7.91381         6.23626
     2016.46543         2.87148         6.23862
     2016.46817         1.29615         6.24334
     2016.47091         3.54882         6.29651
     2016.47364        -3.34151         6.34496
     2016.47638         3.83117         6.49029
     2016.47912         1.85384         6.47847
     2016.48186        -1.11549         6.21735
     2016.48459        -1.08182         6.30360
     2016.48733         0.12285         6.29415
     2016.49007         2.26052         6.38159
     2016.49281         1.46219         6.30833
     2016.49555         1.70786         6.24334
     2016.49828        -0.95747         6.25398
     2016.50102        -2.04679         6.37450
     2016.50376         1.42388         6.61317
     2016.50650         2.23355         6.38513
     2016.50924         2.11022         6.26461
     2016.51197        -3.35611         6.27052
     2016.51471         3.09956         6.32251
     2016.51745         3.27823         6.47138
     2016.52019         3.44190         6.37568
     2016.52292         6.98157         6.29415
     2016.52566         5.28425         6.24689
     2016.52840         6.65292         6.34850
     2016.53114         1.82259         6.25870
     2016.53388         3.07126         6.25634
     2016.53661         0.55093         6.25989
     2016.53935         1.99960         6.26698
     2016.54209         0.01127         6.22444
     2016.54483        18.04994         6.44657
     2016.54757         6.96461         6.43003
     2016.55030         0.18729         6.43830
     2016.55304         1.28996         6.30124
     2016.55578         7.88863         6.56473
     2016.55852         1.84530         6.29770
     2016.56125         3.68397         6.26579
     2016.56399         0.81564         6.30006
     2016.56673         3.77131         6.53283
     2016.56947         0.76298         6.54110
     2016.57221         3.61865         6.29061
     2016.57494         6.00032         6.49383
     2016.57768        11.71700         6.40049
     2016.58042         8.32367         6.28706
     2016.58316         2.53634         6.26698
     2016.58590        -1.27699         6.29533
     2016.58863         2.24568         6.35205
     2016.59137        -2.19765         6.30479
     2016.59411         3.68202         6.35677
     2016.59685        19.70669         6.47493
     2016.59958         4.57836         6.38277
     2016.60232        12.94004         6.31187
     2016.60506         2.69071         6.39222
     2016.60780         6.58038         6.27879
     2016.61054         3.85505         6.32487
     2016.61327         6.64372         6.38513
     2016.61601        -3.17261         6.38041
     2016.61875         2.12806         6.41349
     2016.62149         0.75873         6.33787
     2016.62423         9.55140         6.45484
     2016.62696         3.99408         6.38868
     2016.62970         2.19675         6.33196
     2016.63244        -0.99658         6.37213
     2016.63518         7.81509         6.33551
     2016.63791        13.46276         6.21735
     2016.64065        11.15043         6.37332
     2016.64339         3.19010         6.33314
     2016.64613         2.85777         6.28943
     2016.64887         1.51344         6.26343
     2016.65160         6.39911         6.30597
     2016.65434         3.51679         6.29061
     2016.65708         4.28646         6.29061
     2016.65982        -0.70487         6.34378
     2016.66256         3.93980         6.47138
     2016.66529         2.69747         6.32605
     2016.66803         8.73814         6.41349
     2016.67077        12.67981         6.41940
     2016.67351         8.02148         6.29888
     2016.67624        16.14315         6.30833
     2016.67898        10.21683         6.25752
     2016.68172        13.81450         6.31069
     2016.68446        15.94217         6.54582
     2016.68720         2.98484         6.61908
     2016.68993         6.42651         6.33787
     2016.69267         5.30218         6.27643
     2016.69541         4.71285         6.30951
     2016.69815         9.58052         6.25043
     2016.70089         8.43719         6.20317
     2016.70362         7.77487         6.40167
     2016.70636         8.25754         6.60726
     2016.70910         6.21521         6.55291
     2016.71184         3.36388         6.21617
     2016.71457         9.16055         6.27761
     2016.71731         9.50722         6.17127
     2016.72005        10.50889         6.21735
     2016.72279        12.19356         6.23744
     2016.72553         7.12323         6.18781
     2016.72826        11.96390         6.20672
     2016.73100         6.45758         6.13110
     2016.73374         2.50925         6.13700
     2016.73648         6.07292         6.17481
     2016.73921         3.89159         6.12519
     2016.74195         6.57426         6.14882
     2016.74469        -1.28907         6.26816
     2016.74743         1.45860         6.14764
     2016.75017         7.87727         6.23389
     2016.75290         3.14894         6.11810
     2016.75564        10.30662         6.07675
     2016.75838        18.14129         6.14291
     2016.76112        16.14796         6.15827
     2016.76386        13.75363         6.08974
     2016.76659         3.47330         6.18663
     2016.76933         8.97297         6.16300
     2016.77207         4.71864         6.12401
     2016.77481         7.04031         6.15945
     2016.77754        13.50998         6.08738
     2016.78028        12.77066         6.13346
     2016.78302         8.65433         6.17245
     2016.78576        21.07200         6.16418
     2016.78850        16.21267         6.19845
     2016.79123        11.98634         6.17009
     2016.79397        12.17101         6.26461
     2016.79671        15.65568         6.10865
     2016.79945         2.30635         6.07793
     2016.80219         0.68202         6.32960
     2016.80492         8.29569         6.15236
     2016.80766         9.50037         6.30124
     2016.81040        -1.37296         6.13937
     2016.81314        -2.10129         6.10510
     2016.81587         6.09838         6.25752
     2016.81861         1.13005         6.24098
     2016.82135        -0.79228         6.21026
     2016.82409         8.28539         6.10628
     2016.82683         7.43906         6.24689
     2016.82956        10.41773         6.14528
     2016.83230         8.36441         6.20672
     2016.83504         1.60108         6.16418
     2016.83778        -0.09625         6.16064
     2016.84052        -1.57658         6.19963
     2016.84325        -1.57491         6.22917
     2016.84599        -1.64424         6.19254
     2016.84873         4.12443         6.29415
     2016.85147        -2.12290         6.32015
     2016.85420         1.27277         6.28234
     2016.85694         3.21745         6.36859
     2016.85968         5.51412         6.47847
     2016.86242         4.50279         6.15118
     2016.86516        12.86946         6.37332
     2016.86789        10.38713         6.27643
     2016.87063         3.47480         6.22917
     2016.87337        10.81747         6.41231
     2016.87611         6.75814         6.25989
     2016.87885         3.85581         6.14291
     2016.88158        -0.83151         6.09801
     2016.88432        -1.31884         6.11810
     2016.88706         4.53483         6.21262
     2016.88980         9.49450         6.19490
     2016.89253         2.78217         6.15827
     2016.89527        -4.54616         6.14646
     2016.89801        -4.47449         6.06966
     2016.90075        -5.74182         6.07438
     2016.90349         0.16985         6.26107
     2016.90622         4.43152         6.29651
     2016.90896        -0.87080         6.17363
     2016.91170         2.10187         6.08856
     2016.91444         2.85554         6.09447
     2016.91718        -1.12679         6.20790
     2016.91991        -2.03012         6.28470
     2016.92265         0.54655         6.18899
     2016.92539        -0.20078         6.15591
     2016.92813        -0.37611         6.17481
     2016.93086        -2.28644         6.20081
     2016.93360         2.12924         6.23153
     2016.93634         3.84591         6.27643
     2016.93908         4.28158         6.39458
     2016.94182         0.75125         6.19845
     2016.94455        -8.72008         6.14764
     2016.94729         2.08559         6.23980
     2016.95003         1.48826         6.18427
     2016.95277         1.68893         6.16772
     2016.95551         5.87660         6.12046
     2016.95824        17.49828         6.11219
     2016.96098        12.41695         6.13582
     2016.96372         4.80362         6.24925
     2016.96646        -5.34071         6.19845
     2016.96919        14.46296         6.26816
     2016.97193         2.32463         6.13819
     2016.97467         3.11930         6.17600
     2016.97741         0.77297         6.21262
     2016.98015         3.03364         6.20081
     2016.98288        -0.73469         6.15709
     2016.98562        -1.10201         6.22562
     2016.98836        -3.96034         6.21853
     2016.99110        -0.50367         6.18072
     2016.99384        -3.22800         6.17954
     2016.99657        -2.78533         6.20435
     2016.99931         1.65034         6.15709
     2017.00205        -2.82599         6.22208
     2017.00479        -3.22232         6.10983
     2017.00752        -4.84065         6.18663
     2017.01026        -0.78697         6.22444
     2017.01300         3.05870         6.21262
     2017.01574         0.42137         6.24807
     2017.01848        -2.48396         6.15827
     2017.02121         1.83571         6.18309
     2017.02395        14.59438         6.33551
     2017.02669        15.09505         6.33432
     2017.02943        11.36472         6.23389
     2017.03216         9.18439         6.20908
     2017.03490        -2.20793         6.18545
     2017.03764        -5.27526         6.29297
     2017.04038        -3.80459         6.26225
     2017.04312        -0.58992         6.22562
     2017.04585         4.85175         6.59545
     2017.04859        11.39142         6.54582
     2017.05133        10.07709         6.20672
     2017.05407         7.61176         6.25162
     2017.05681         7.73343         6.29061
     2017.05954        -4.05990         6.28234
     2017.06228        -2.08622         6.25989
     2017.06502        -1.91655         6.20435
     2017.06776        -4.78188         6.24098
     2017.07049        -4.25121         6.25162
     2017.07323        -8.76454         6.28115
     2017.07597       -11.63487         6.29533
     2017.07871       -11.38620         6.26343
     2017.08145       -11.04653         6.27407
     2017.08418       -14.35986         6.28943
     2017.08692        -7.02718         6.26579
     2017.08966        -1.36851         6.24807
     2017.09240        -0.69684         6.25870
     2017.09514         1.39983         6.29651
     2017.09787        -2.45150         6.25870
     2017.10061         1.53117         6.24807
     2017.10335        -4.47316         6.28470
     2017.10609        -6.07249         6.34141
     2017.10882        -1.48182         6.29770
     2017.11156        -3.99014         6.28470
     2017.11430        -6.48347         6.23980
     2017.11704       -14.19780         6.22444
     2017.11978        -9.42413         6.20435
     2017.12251       -11.19346         6.21144
     2017.12525        -2.03379         6.49147
     2017.12799         5.92088         6.40994
     2017.13073         6.17455         6.22326
     2017.13347         2.70222         6.23389
     2017.13620         1.66090         6.26579
     2017.13894        -2.86443         6.31424
     2017.14168        -9.07876         6.26107
     2017.14442        -6.47009         6.21853
     2017.14715       -11.01142         6.21853
     2017.14989       -10.27575         6.27288
     2017.15263        -4.18008         6.25752
     2017.15537        -6.97741         6.30715
     2017.15811        -3.61874         6.41231
     2017.16084        -8.00207         6.22680
     2017.16632       -12.07072         6.30242
     2017.16906        -7.59905         6.28588
     2017.17180        -4.37238         6.35205
     2017.17727        -9.62804         6.32605
     2017.18001       -18.57237         6.29179
     2017.18275       -12.69870         6.30006
     2017.18548        -2.26803         6.41821
     2017.18822       -17.69635         6.45366
     2017.19096       -15.33568         6.29297
     2017.19370       -11.36401         6.30124
     2017.19644        -7.21934         6.25870
     2017.19917        -9.22167         6.25752
     2017.20191       -13.07300         6.30833
     2017.20465        -5.40633         6.36268
     2017.21013        -3.30099         6.30479
     2017.21286         0.94169         6.22090
     2017.21560         4.57236         6.30006
     2017.21834         5.83203         6.40758
     2017.22108        -2.17630         6.26698
     2017.22381        -6.61363         6.35559
     2017.22655        -8.84196         6.30951
     2017.22929        -3.37929         6.22208
     2017.23203        -4.17762         6.27170
     2017.23477         0.02905         6.22562
     2017.23750        -8.69228         6.24334
     2017.24024        -9.64860         6.19490
     2017.24298        -4.94493         6.25516
     2017.24572        -8.93026         6.25634
     2017.24846       -11.40559         6.28943
     2017.25119        -7.69892         6.20672
     2017.25393        -9.30025         6.18663
     2017.25667       -11.83458         6.22208
     2017.25941       -19.03891         6.34378
     2017.26214        -3.80624         6.32960
     2017.26488         8.74744         6.27052
     2017.26762        -5.00789         6.18190
     2017.27036        -6.96522         6.20199
     2017.27310       -18.06355         6.33078
     2017.27583        -9.87588         6.29770
     2017.27857       -11.28021         6.27879
     2017.28131        -2.63754         6.24098
     2017.28405       -12.56487         6.19372
     2017.28679       -13.18820         6.20672
     2017.28952       -10.68052         6.29061
     2017.29226         1.72215         6.30951
     2017.29500        -9.85218         6.26343
     2017.29774       -14.78951         6.22326
     2017.30047       -12.83684         6.20317
     2017.30321       -11.23817         6.25162
     2017.30595       -14.80050         6.24334
     2017.30869       -10.02983         6.25162
     2017.32238       -17.61447         6.34496
     2017.32512       -17.84380         6.19726
     2017.32785        -9.12213         6.25870
     2017.33059       -19.16846         6.25989
     2017.33333       -19.13479         6.24453
     2017.33607       -14.27812         6.24571
     2017.33880       -13.52845         6.24216
     2017.34154        -5.14377         6.58600
     2017.34428       -15.21510         6.19726
     2017.34702       -13.91243         6.21853
     2017.34976       -10.13776         6.17245
     2017.35249       -12.50909         6.24216
     2017.35523       -13.00242         6.23744
     2017.36071        -8.59508         6.20908
     2017.36344       -10.56641         6.22798
     2017.36618       -16.26373         6.20672
     2017.36892        -8.62206         6.18427
     2017.37166       -23.58439         6.43476
     2017.37440       -13.20172         6.21026
     2017.37713       -11.24405         6.34496
     2017.37987       -13.07138         6.33432
     2017.38261       -15.74571         6.20317
     2017.38535       -11.22304         6.20553
     2017.38809       -11.32237         6.17481
     2017.39082        -9.89970         6.19608
     2017.39356       -11.43702         6.19254
     2017.39630        -6.17935         6.08856
     2017.39904       -11.95568         6.13937
     2017.40177        -7.62401         6.18190
     2017.40451       -10.56734         6.28588
     2017.40725        -8.97367         6.25870
     2017.40999        -8.07800         6.21853
     2017.41273        -9.07933         6.20081
     2017.41546        -5.85266         6.22562
     2017.41820        -7.83698         6.32487
     2017.42094        -9.13731         6.27052
     2017.42368        -5.37364         6.28470
     2017.42642        -6.30297         6.16182
     2017.42915        -4.62930         6.15236
     2017.43189        -6.75163         6.26461
     2017.43463        -5.78496         6.31778
     2017.43737         5.53771         6.23980
     2017.44010         1.15638         6.19963
     2017.44284        -0.16094         6.14528
     2017.44558        -2.09427         6.26461
     2017.44832        -0.66260         6.23507
     2017.45106         2.09407         6.27879
     2017.45379         5.00574         6.43476
     2017.45653        -3.24359         6.41467
     2017.45927        -5.06992         6.28706
     2017.46201        -6.59125         6.29415
     2017.46475        -7.21458         6.33078
     2017.46748         1.16010         6.52928
     2017.66003        10.20962        10.94239
     2017.66187        -4.54726         6.29179
     2017.66461         3.26641         6.28352
     2017.66735         3.92408         6.27407
     2017.67008         4.44675         6.17481
     2017.67282         7.55443         6.35677
     2017.67556         0.79910         6.13464
     2017.67830        -0.69423         6.17718
     2017.68104         2.01344         6.16891
     2017.68377        -0.98789         6.45602
     2017.68651        10.54178         6.48320
     2017.68925         0.70245         6.21617
     2017.69199         0.61812         6.16536
     2017.69472         4.61679         6.19136
     2017.69746         7.17847         6.30124
     2017.70020         8.28014         6.25280
     2017.70294         8.74281         6.21381
     2017.70568         1.26648         6.13819
     2017.70841         3.84615         6.27288
     2017.71115        -0.77418         6.30715
     2017.71389         2.84249         6.47020
     2017.71663         7.79716         6.26579
     2017.71937         5.75383         6.24216
     2017.72210         3.64651         6.22208
     2017.72484         3.64518         6.22917
     2017.72758         6.95385         6.20790
     2017.73032         4.57852         6.21617
     2017.73305         5.44419         6.26107
     2017.73579         8.84986         6.23389
     2017.73853         2.36553         6.25870
     2017.74127         1.22620         6.20790
     2017.74401         7.07887         6.20081
     2017.74674         9.38554         6.21735
     2017.74948        -0.69378         6.23862
     2017.75222         0.67689         6.19845
     2017.75496         4.85956         6.19136
     2017.75770         1.81023         6.30242
     2017.76043        -1.07910         6.21026
     2017.76317         6.20357         6.32842
     2017.76591        -4.30476         6.25870
     2017.76865         3.42891         6.22444
     2017.77138         0.25558         6.22090
     2017.77412         0.61126         6.29770
     2017.77686        -1.16907         6.25989
     2017.77960         0.96660         6.20553
     2017.78234         3.43427         6.19254
     2017.78507         1.59994         6.15236
     2017.78781         0.57461         6.17363
     2017.79055        -2.01172         6.29770
     2017.79329        -1.35405         6.28470
     2017.79603         4.40762         6.19608
     2017.79876         5.81330         6.50447
     2017.80150         9.64497         6.44421
     2017.80424         6.07764         6.38513
     2017.80698        -2.84869         6.46430
     2017.80971         3.65398         6.29533
     2017.81245        -3.65435         6.31424
     2017.81519         0.87532         6.18309
     2017.81793        -1.91701         6.23744
     2017.82067        -2.61234         6.28234
     2017.82340         1.30333         6.22326
     2017.82614         2.84801         6.18190
     2017.82888         6.94868         6.17481
     2017.83162         4.38235         6.29297
     2017.83436        -3.99498         6.23035
     2017.83709       -18.67231         6.32724
     2017.83983       -19.33664         6.16064
     2017.84257        -7.28797         6.22326
     2017.84531       -12.92230         6.24807
     2017.84804       -15.56263         6.22798
     2017.85078        -7.94495         6.25752
     2017.85352        -4.22728         6.29297
     2017.85626         5.49339         6.30479
     2017.85900       -11.98894         6.41467
     2017.86173        -3.57227         6.43712
     2017.86447        -8.59460         6.19136
     2017.86721        -5.32493         8.29925
     2017.86995        -9.78926         6.33432
     2017.87269        -4.66059         6.24689
     2017.87542        -6.89591         6.17363
     2017.87816        -8.01024         6.25870
     2017.88090        -3.30057         6.30833
     2017.88364        -7.45590         6.24334
     2017.88637         5.32877         6.26343
     2017.88911         2.32844         6.27879
     2017.89185        -6.23089         6.42058
     2017.89459         0.62278         6.37450
     2017.89733         4.23345         6.44421
     2017.90006        -5.65588         6.30951
     2017.90280        -7.43420         6.33432
     2017.90554         3.80147         6.27879
     2017.90828        -2.63286         6.39695
     2017.91102        -0.92419         6.51865
     2017.91375        -7.82252         6.45721
     2017.91649        -9.98485         6.32369
     2017.91923        -8.73518         6.36032
     2017.92197        -8.93151         6.40640
     2017.92470        -8.90384         6.35087
     2017.92744       -13.05016         6.40285
     2017.93018       -14.74249         6.30242
     2017.93292       -13.43782         6.34968
     2017.93566       -11.13915         6.35796
     2017.93839        -9.35148         6.38868
     2017.94113       -11.66081         6.40876
     2017.94387        -7.51314         6.30597
     2017.94661        -9.98247         6.28234
     2017.94935        -8.64180         6.30597
     2017.95208        -8.93912         6.48438
     2017.95482       -12.33045         6.44421
     2017.95756        -9.21578         6.28234
     2017.96030        -3.05511         6.28824
     2017.96303        -7.85344         6.29770
     2017.96577       -10.82177         6.38749
     2017.96851        -6.81410         6.25162
     2017.97125        -9.19943         6.26225
     2017.97399       -15.12276         6.30951
     2017.97672       -13.86909         6.27170
     2017.97946        -6.60941         6.29415
     2017.98220        -3.39774         6.32015
     2017.98494       -10.94607         6.25043
     2017.98767       -19.09740         6.35205
     2017.99041       -14.08973         6.32133
     2017.99315       -16.53406         6.31660
     2017.99589        -7.76439         6.42767
     2017.99863        -9.37672         6.29179
     2018.00136       -17.47705         6.32842
     2018.00410       -16.65037         6.30833
     2018.00684       -13.94670         6.29179
     2018.00958       -12.08803         6.27407
     2018.01232        -6.78136         6.32605
     2018.01505        -4.45169         6.32251
     2018.01779        -1.61202         6.22798
     2018.02053        -5.62335         6.36386
     2018.02327         6.32132         6.31778
     2018.02600        -9.70101         6.29297
     2018.02874         3.45367         6.34496
     2018.03148        -2.83966         6.33314
     2018.03422       -10.08299         6.22798
     2018.03696       -19.71132         6.21026
     2018.03969       -16.89165         6.35323
     2018.04243        -7.00198         6.42294
     2018.04517       -14.01331         6.24216
     2018.04791       -13.42264         6.27879
     2018.05065        -5.71697         6.17481
     2018.05338        -2.69029         6.27643
     2018.05612       -14.04562         6.24098
     2018.05886       -15.26895         6.33669
     2018.06160       -14.66328         6.22917
     2018.06433       -16.17461         6.45484
     2018.06707        -9.81794         6.31187
     2018.06981       -19.67127         6.35559
     2018.07255       -20.00160         6.44185
     2018.07529       -18.33493         6.36386
     2018.07802       -20.74226         6.35559
     2018.08076       -26.71758         6.40049
     2018.08350       -12.63691         6.40640
     2018.08624       -16.30424         6.38631
     2018.08898       -15.37857         6.37922
     2018.09171       -14.73790         6.41940
     2018.09445       -15.03323         6.37095
     2018.09719        -7.93656         6.55528
     2018.09993       -14.30189         6.47493
     2018.10266       -17.41022         6.34496
     2018.10540       -21.46154         6.47847
     2018.10814       -14.44387         6.36859
     2018.11088       -11.37520         6.33905
     2018.11362       -11.83253         6.38277
     2018.11635        -8.95186         6.32015
     2018.11909       -13.61919         6.46075
     2018.12183       -15.74352         6.48675
     2018.12457       -11.94885         6.34023
     2018.12731       -14.69418         6.39104
     2018.13004       -14.22950         6.36741
     2018.13278        -8.90883         6.36150
     2018.13552        -9.10116         6.32015
     2018.13826       -10.43549         6.38631
     2018.14099       -15.67482         6.34260
     2018.14373       -12.59615         6.32251
     2018.14647       -13.55548         6.64744
     2018.14921       -16.77081         6.45248
     2018.15195       -15.94114         6.33196
     2018.15468       -11.38347         6.31424
     2018.15742       -11.95079         6.32251
     2018.16016       -13.63312         6.35087
     2018.16290       -17.34545         6.45957
     2018.16564       -15.52178         6.44066
     2018.16837       -14.43211         6.29533
     2018.17111       -13.52444         6.31306
     2018.17385       -13.87877         6.34968
     2018.17659       -13.38810         6.35677
     2018.17932       -12.45243         6.40049
     2018.18206       -11.04075         6.39931
     2018.18480        -5.81508         6.45484
     2018.18754        -9.14941         6.25870
     2018.19028       -13.93374         6.24098
     2018.19301       -12.69007         6.29061
     2018.19575        -0.92340         6.34732
     2018.19849        -1.00673         6.20317
     2018.20123        -6.50306         6.30951
     2018.20397        -2.73939         6.16891
     2018.20670        -6.05771         6.14173
     2018.20944       -10.46004         6.23744
     2018.21218       -12.05637         6.17127
     2018.21492       -24.17870         6.26343
     2018.21765        -7.94803         6.30479
     2018.22313       -10.73269         6.26343
     2018.22587       -14.44102         6.20553
     2018.22861       -15.76835         6.23980
     2018.23134       -14.68568         6.32605
     2018.23408       -14.30800         6.29533
     2018.23682       -15.24133         6.30242
     2018.23956       -14.23766         6.22798
     2018.24230       -13.17299         6.26816
     2018.24503       -13.16932         6.28943
     2018.24777       -10.04665         6.27997
     2018.25051       -11.50898         6.25280
     2018.25325       -11.55631         6.15473
     2018.25598       -16.72064         6.24925
     2018.25872        -1.93596         6.44539
     2018.26146         7.19671         6.44421
     2018.26420         2.45138         6.48675
     2018.26694       -21.08995         6.33078
     2018.26967       -13.43028         6.23153
     2018.27241       -13.60461         6.27407
     2018.27515        -5.72594         6.27761
     2018.27789        -3.82727         6.46548
     2018.28062       -10.34860         6.38631
     2018.28336       -10.52892         6.28470
     2018.28610       -12.72525         6.31306
     2018.28884         2.34942         6.27997
     2018.29158       -10.76991         6.49265
     2018.29431       -13.29824         6.32487
     2018.29705        -4.13857         6.23271
     2018.29979       -12.16990         6.23035
     2018.30253       -15.21623         6.29415
     2018.30527       -10.42656         6.18781
     2018.30800       -12.84188         6.19017
     2018.31074       -13.45121         6.19372
     2018.31348       -10.18254         6.25280
     2018.31622       -13.01187         6.20553
     2018.31895        -5.10020         6.42176
     2018.32169        -6.66953         6.16772
     2018.32443        -8.91786         6.23626
     2018.32717        -9.81519         6.24216
     2018.32991        -9.27752         6.45012
     2018.33264        -6.24685         6.19726
     2018.33538        -5.51117         6.45839
     2018.33812       -13.82150         6.48084
     2018.34086        -8.45383         6.24689
     2018.34360        -9.20716         6.29415
     2018.34633        -9.44449         6.24925
     2018.42674        -6.31941        13.67179
     2018.42847         1.03064         6.29179
     2018.43121        -1.27069         6.29061
     2018.43394        -6.10802         6.39931
     2018.43668         2.06066         6.35559
     2018.43942        -3.39467         6.31306
     2018.44216         1.77000         6.29651
     2018.44490        -7.11033         6.26107
     2018.44763        -4.97066         6.42412
     2018.45037         1.76201         6.31306
     2018.45311        -5.68732         6.19136
     2018.45585        -1.28565         6.25634
     2018.45859         9.91502         6.34023
     2018.46132        -5.04330         6.20672
     2018.46406        -9.66163         6.26816
     2018.46680        -7.48096         6.41940
     2018.46954        -5.71829         6.35796
     2018.47227        -4.26862         6.42530
     2018.47501        -1.67895         6.30597
     2018.47775        -6.02328         6.24807
     2018.48049       -10.10561         6.43239
     2018.48323        -3.17394         6.24571
     2018.48596        -9.15327         6.20672
     2018.48870        -4.01259         6.41585
     2018.49144        -6.63892         6.24098
     2018.49418        -3.02425         6.30360
     2018.49692        -7.69458         6.34378
     2018.49965        -6.49091         6.26107
     2018.50239        -9.37024         6.30597
     2018.50513       -12.39757         6.31424
     2018.50787        -3.73390         6.39931
     2018.51060       -11.85923         6.36859
     2018.51334       -11.25355         6.31778
     2018.51608        -6.45088         6.31306
     2018.51882        -1.87421         6.45721
     2018.52156       -10.93554         6.40876
     2018.52429        -5.43787         6.22444
     2018.52703        -2.98620         6.27170
     2018.52977        -8.35653         6.23980
     2018.53251        -6.16586         6.34378
     2018.53525         0.65481         6.31187
     2018.53798        -8.33051         6.51865
     2018.54072         0.01516         6.35205
     2018.54620         0.20750         6.30597
     2018.54893        -3.39283         6.27525
     2018.55167       -10.35416         6.24098
     2018.55441        -2.21849         6.31187
     2018.55715        -5.52982         6.35677
     2018.55989        -4.10115         6.51983
     2018.56262        -6.03048         6.30715
     2018.56536        -0.23680         6.33314
     2018.56810        -4.11213         6.30124
     2018.57084        -1.44846         6.38513
     2018.57357         2.14021         6.43712
     2018.57631        -3.13412         6.47729
     2018.57905        -2.79745         6.64153
     2018.58179         3.97122         6.53046
     2018.58453         5.44889         6.50092
     2018.58726        -0.98144         6.27643
     2018.59000         6.23424         6.35559
     2018.59274         3.34391         6.38041
     2018.59548         0.31558         6.27643
     2018.59822         1.34125         6.27052
     2018.60095        -1.13408         6.31187
     2018.60643         0.05026         6.36150
     2018.60917         2.47793         6.23507
     2018.61190         6.41260         6.27288
     2018.61464        -0.24372         6.25870
     2018.61738         3.37895         6.29770
     2018.62012         4.26862         6.25989
     2018.62286        -2.82671         6.46784
     2018.62559         9.52796         6.56473
     2018.62833        -1.43837         6.21853
     2018.63107        -3.51070         6.28588
     2018.63381         2.07997         6.42176
     2018.63655        -1.46836         6.30715
     2018.63928        -2.21668         6.53401
     2018.64202         0.08299         6.53401
     2018.64476         5.21266         6.38041
     2018.64750        -2.02967         6.36386
     2018.65023         2.65500         6.28824
     2018.65297         1.91567         6.26225
     2018.65571         2.28634         6.19963
     2018.65845         1.42901         6.28824
     2018.66119         4.09268         6.33669
     2018.66392         2.94735         6.31424
     2018.66666         1.78603         6.28706
     2018.66940         0.64470         6.27288
     2018.67214        -2.68863         6.25043
     2018.67488        -1.23696         6.31542
     2018.67761         0.64771         6.39104
     2018.68035        -1.50662         6.41113
     2018.68309        -9.30395         6.43594
     2018.68583        -3.94528         6.25398
     2018.68856         1.72839         6.32487
     2018.69130         6.77807         6.40640
     2018.69404         8.63774         6.53164
     2018.69952        -4.84992         6.28943
     2018.73237        -5.85787         6.26225
     2018.73511        -5.87820         6.32842
     2018.73785        -2.15453         6.30124
     2018.74058         0.78014         6.27052
     2018.74332         2.83382         6.26343
     2018.74606         3.86549         6.20435
     2018.74880        -4.89784         6.25634
     2018.75427        -2.36850         6.38868
     2018.75975         0.52984         6.19726
     2018.76522         5.34318         6.37922
     2018.76796         1.89886         6.22798
     2018.77070         6.43953         6.26934
     2018.77344        10.54020         6.24925
     2018.77618         3.25687         6.29651
     2018.77891        -0.37146         6.19845
     2018.78165        -1.95679         6.29651
     2018.78439         1.05988         6.23980
     2018.78713        -2.81145         6.24571
     2018.78987        -6.95778         6.29533
     2018.79260        -5.13310         6.26225
     2018.79534         0.70957         6.23862
     2018.79808        -4.55876         6.22444
     2018.80082         0.65591         6.22444
     2018.80355         1.20958         6.25516
     2018.80629         5.30425         6.40758
     2018.80903         1.01092         6.29770
     2018.81177         2.00259         6.63208
     2018.81451        -3.49574         6.32251
     2018.81724        -1.73007         6.33078
     2018.81998         7.11461         6.25398
     2018.82272         5.25028         6.29888
     2018.82546        -2.83205         6.26107
     2018.82820         0.47762         6.28706
     2018.83093        -2.84071         6.30715
     2018.83367        -7.92604         6.17363
     2018.83641         0.51163         6.51392
     2018.83915        -3.29670         6.26461
     2018.84188       -16.55303         6.44539
     2018.84462        -0.09935         6.23389
     2018.84736        -8.19568         6.23626
     2018.85010        -0.53901         6.24216
     2018.85284        -4.96734         6.23035
     2018.85557        -7.05367         6.28943
     2018.85831        -5.29100         6.33314
     2018.86105        -5.77133         6.29888
     2018.86379        -4.71066         6.40640
     2018.86653        -1.86299         6.23744
     2018.86926       -11.39131         6.38395
     2018.87200        -0.57964         6.36150
     2018.87474        -1.24797         6.34496
     2018.87748         5.66370         6.33787
     2018.88021        -2.04463         6.35914
     2018.88295        -2.82296         6.40404
     2018.88569        -1.71829         6.43121
     2018.88843        -0.86462         6.60254
     2018.89117         3.00505         6.42530
     2018.89390        -7.03728         6.48675
     2018.89664        -2.21660         6.69470
     2018.89938        -3.75693         6.42649
     2018.90212         0.14874         6.34023
     2018.90485         7.40741         6.44185
     2018.90759         7.38308         6.36268
     2018.91033        11.80075         6.29770
     2018.91307        11.89142         6.47493
     2018.91581        10.78009         6.27525
     2018.91854        14.24976         6.37686
     2018.92128         4.21844         6.37332
     2018.92402        -0.42389         6.32015
     2018.92676         2.14778         6.19845
     2018.92950         3.02545         6.29179
     2018.93223        -3.85188         6.46075
     2018.93497         1.67679         6.29415
     2018.93771         1.64246         6.43476
     2018.94045        -2.10787         6.21262
     2018.94318        -0.25220         6.25162
     2018.94592        12.06548         6.20790
     2018.94866        -0.51585         6.34968
     2018.95140        -2.35318         6.45248
     2018.95414         6.70849         6.22326
     2018.95687         0.05816         6.28234
     2018.95961        15.51683         6.17836
     2018.96235         6.07850         6.25516
     2018.96509         5.24517         6.23626
     2018.96783        -1.35616         6.24334
     2018.97056         7.76752         6.24216
     2018.97330        -3.22981         6.15709
     2018.97604       -14.80914         6.31306
     2018.97878        -7.94447         6.25989
     2018.98151         0.09820         6.30124
     2018.98425        -2.93013         6.54110
     2018.98699        -7.08746         6.40167
     2018.98973        -8.29679         6.35796
     2018.99247        -9.21212         6.35914
     2018.99520        -1.84745         6.40167
     2018.99794         1.15123         6.37922
     2019.00068        -4.26610         6.40049
     2019.00342       -11.04743         6.31896
     2019.00616       -11.53876         6.28824
     2019.00889        -9.00009         6.29179
     2019.01163        -9.82442         6.32487
     2019.01437        -0.37775         6.31542
     2019.01711        -2.04808         6.23862
     2019.01984       -13.24741         6.29770
     2019.02258        -7.35773         6.33787
     2019.02532        -4.20206         6.46784
     2019.02806        -3.93639         6.39577
     2019.03080        -7.80472         6.47020
     2019.03353        -9.97505         6.29179
     2019.03627       -12.58338         6.35087
     2019.03901        -3.41171         6.31424
     2019.04175        -8.28404         6.27288
     2019.04449         0.09863         6.35677
     2019.04722        -8.36969         6.48320
     2019.04996        -5.21802         6.58481
     2019.05270        -5.40535         6.68997
     2019.05544         2.08232         6.41113
     2019.05817        -6.39601         6.49502
     2019.06091        -0.80234         6.66752
     2019.06365        -7.52267         6.40285
     2019.06639        -6.15100         6.42294
     2019.06913        -8.37333         6.49974
     2019.07186        -6.46166         6.46548
     2019.07460        -7.18298         6.36623
     2019.07734        -4.05131         6.33314
     2019.08008        -0.32364         6.31660
     2019.08282        -2.22497         6.50211
     2019.08555         1.24370         6.30715
     2019.08829         9.05137         6.38986
     2019.09103         7.39604         6.29888
     2019.09377         2.84371         6.29770
     2019.09650         3.63238         6.31187
     2019.09924        -1.20394         6.33551
     2019.10198        -8.16227         6.33196
     2019.10472        -3.81260         6.35914
     2019.10746        -7.22293         6.35323
     2019.11019        -2.63626         6.47729
     2019.11293       -14.68159         6.49974
     2019.11567        -8.78692         6.61672
     2019.11841         9.86375         6.31424
     2019.12115        16.62642         6.53046
     2019.12388         9.17710         6.41703
     2019.12662        -0.94623         6.27407
     2019.12936        -4.10056         6.35205
     2019.13210         0.33311         6.32015
     2019.13483        -5.34522         6.44894
     2019.13757        -4.47255         6.38631
     2019.14031         2.43612         6.27170
     2019.14305        -1.56721         6.31069
     2019.14579       -12.19054         6.35087
     2019.14852        -9.98287         6.43003
     2019.15126        -5.89719         6.36150
     2019.15400        -9.09052         6.36268
     2019.15674        -9.11685         6.33787
     2019.15948        -5.01518         6.43712
     2019.16221       -14.23551         6.52337
     2019.16495        -3.57084         6.41231
     2019.16769       -10.68517         6.38041
     2019.17043        -9.98150         6.40758
     2019.17316        -3.98183         6.39931
     2019.17590         1.31685         6.43121
     2019.17864        -1.84848         6.49029
     2019.18138        -3.17981         6.48675
     2019.18412       -11.47314         6.48202
     2019.18685       -10.89147         6.30006
     2019.18959        -4.55580         6.33551
     2019.19233        -8.44013         6.45366
     2019.19507       -10.71046         6.28234
     2019.19780       -14.53279         6.40404
     2019.20054       -15.79811         6.48202
     2019.20328       -16.64644         6.42767
     2019.20602       -15.65477         6.33314
     2019.20876       -18.06710         6.30597
     2019.21149       -18.99143         6.31424
     2019.21423        -9.17176         6.32369
     2019.21697        -2.54409         6.34141
     2019.21971       -10.53042         6.57300
     2019.22245        -5.08475         6.26343
     2019.22518        -8.15207         6.32487
     2019.22792        -7.91440         6.24571
     2019.23066        -7.75373         6.29179
     2019.23340        -6.60006         6.28234
     2019.23613        -5.57739         6.34378
     2019.23887        -9.13372         6.28588
     2019.24161        -7.60105         6.43712
     2019.24435       -11.62538         6.41231
     2019.24709        -4.16771         6.43476
     2019.24982        10.79796         6.28115
     2019.25256         1.80664         6.43712
     2019.25530        -1.25069         6.27052
     2019.25804         3.02198         6.30833
     2019.26078        -8.80935         6.33787
     2019.26351        -0.85968         6.42530
     2019.26625        -7.14101         6.37213
     2019.26899        -6.93234         6.35323
     2019.27173        -5.05767         6.59781
     2019.27446       -15.71000         6.26343
     2019.27720        -8.45532         6.42058
     2019.27994        -9.52265         6.28706
     2019.28268        -7.01398         6.30242
     2019.28542        -0.87231         6.23744
     2019.28815        -1.76264         6.25516
     2019.29089        -8.64397         6.30833
     2019.29363       -10.36730         6.29297
     2019.29637        -7.27963         6.40522
     2019.29911        11.18304         6.23507
     2019.30184        -5.50228         6.25870
     2019.30458       -14.78361         6.27879
     2019.30732       -15.85294         6.32960
     2019.31006        -8.73027         6.36859
     2019.31279        -7.88860         6.33314
     2019.31553        -2.33893         6.26934
     2019.31827        -7.53426         6.25043
     2019.32101       -11.55459         6.35205
     2019.32375       -17.36392         6.31069
     2019.32648       -10.48425         6.30360
     2019.32922       -12.21157         6.24807
     2019.33196       -10.75790         6.45957
     2019.33470        -4.96923         6.40994
     2019.33744        -6.84456         6.27997
     2019.34017        -9.34689         6.34614
     2019.34291        -6.68522         6.26225
     2019.34565       -10.37555         6.31660
     2019.34839       -14.61288         6.30715
     2019.35112        -8.28521         6.32369
     2019.35386        -8.17553         6.30006
     2019.35660        -5.48086         6.27288
     2019.35934        -5.98019         6.34378
     2019.36208        -8.89952         6.40522
     2019.36481        -4.27085         6.31778
     2019.36755         4.86382         6.27761
     2019.37029         3.27449         6.36741
     2019.37303        -4.37884         6.36741
     2019.37577        -4.85417         6.55882
     2019.37850         5.65551         6.30242
     2019.38124        15.20118         6.30597
     2019.38398         6.74385         6.35914
     2019.38672         7.75852         6.27879
     2019.38945         2.00519         6.30124
     2019.39219        -3.27014         6.38395
     2019.39493        -5.32447         6.29888
     2019.39767         7.57720         6.29179
     2019.40041         6.45387         6.30242
     2019.40314         2.38354         6.30242
     2019.40588         0.00422         6.42412
     2019.40862        -4.85811         6.31069
     2019.41136        -4.80944         6.22798
     2019.41410        -4.74077         6.24334
     2019.41683        -4.30910         6.31069
     2019.41957        -6.76443         6.43358
     2019.42231        -7.08876         6.32251
     2019.42505        -4.22009         6.28824
     2019.42778         0.01558         6.42885
     2019.43052        -2.54174         6.29651
     2019.43326       -11.30907         6.25516
     2019.43600       -13.54240         6.34023
     2019.43874       -13.62773         6.39458
     2019.44147       -16.88506         6.36977
     2019.44421        -6.57339         6.66752
     2019.44695       -15.72172         6.38513
     2019.44969        -2.98505         6.46784
     2019.45243        -6.33038         6.38041
     2019.45516        -8.31070         6.30360
     2019.45790       -11.79803         6.36623
     2019.46064       -10.93536         6.35559
     2019.46338        -9.51669         6.65689
     2019.46611        -4.87902         6.64153
     2019.46885        -2.48235         6.56591
     2019.47159        -4.62568         6.33314
     2019.47433        -7.39201         6.38159
     2019.47707        -2.44034         6.38277
     2019.47980        -3.39567         6.46902
     2019.48528        -2.25232         6.39340
     2019.48802        -4.19365         6.42176
     2019.49076        -8.22198         6.31306
     2019.49349        -6.48031         6.29297
     2019.49623        -3.29164         6.31778
     2019.49897        -1.65897         6.32960
     2019.63039         1.32124         6.38513
     2019.63312        -4.88408         6.37332
     2019.63586         5.04659         6.84948
     2019.63860        10.38026         6.51865
     2019.64134        -2.32507         6.38041
     2019.64407        -1.11940         6.35205
     2019.64681        -3.26273         6.38749
     2019.64955        -4.18206         6.33196
     2019.65229         2.18361         6.38749
     2019.65503        -1.58072         6.44185
     2019.65776        -3.00005         6.58481
     2019.66050         3.45463         6.50211
     2019.66324        -2.51170         6.43358
     2019.66598        -1.09903         6.43358
     2019.66872         0.43364         6.45484
     2019.67145         2.43631         6.45248
     2019.67419        -2.09702         6.39340
     2019.67693         8.14565         6.61790
     2019.67967         9.87032         6.70415
     2019.68240        -4.88301         6.40876
     2019.68514        -1.90333         6.39458
     2019.68788         0.63734         6.53519
     2019.69062        12.51001         6.46548
     2019.69336         0.07468         6.28470
     2019.69609        -3.01365         6.35323
     2019.69883        -4.39898         6.42412
     2019.70157        -1.08931         6.32251
     2019.70431        -1.44664         6.31187
     2019.70705         5.67003         6.33905
     2019.70978         4.76471         6.28234
     2019.71252         2.64538         6.42294
     2019.71526         9.36505         6.33905
     2019.71800         0.43572         6.50919
     2019.72073        -5.67461         6.51274
     2019.72347        -7.26694         6.33196
     2019.72621         4.13473         6.33669
     2019.72895         2.79840         6.33314
     2019.73169        -1.00493         6.32842
     2019.73716         6.46842         6.50211
     2019.73990         2.43809         6.55528
     2019.74264        -1.05224         6.56473
     2019.74538        -7.81757         6.32487
     2019.76475        -2.49174         6.82585
     2019.76728        -8.77220         6.37568
     2019.77002        -2.09953         6.26579
     2019.77275        -2.23286         6.44303
     2019.77549        -0.38319         6.28352
     2019.77823        -0.27452         6.29179
     2019.78097         3.29915         6.25989
     2019.78371         7.69382         6.26698
     2019.78644        -1.21250         6.29533
     2019.78918         3.57917         6.38277
     2019.79192        12.90284         6.32724
     2019.79466         2.96451         6.30242
     2019.79739         2.00918         6.27997
     2019.80013         2.23485         6.31424
     2019.80287        -3.97248         6.31542
     2019.80561         4.95519         6.52337
     2019.80835        -3.00014         6.24098
     2019.81108        -3.04446         6.24334
     2019.81382        -5.16179         6.28824
     2019.81656        -3.73212         6.32842
     2019.81930         0.20955         6.30951
     2019.82203        -3.68878         6.29061
     2019.82477        -3.27411         6.28943
     2019.82751        -5.61744         6.42412
     2019.83025        -3.80177         6.43358
     2019.83299        -2.56610         6.42885
     2019.83572        -2.08843         6.30360
     2019.83846         3.19825         6.26934
     2019.84120         0.58092         6.26816
     2019.84394         0.50559         6.47847
     2019.84668        -3.27574         6.31778
     2019.84941        -0.17907         6.29415
     2019.85215         0.40760         6.32724
     2019.85489         1.76027         6.32724
     2019.85763        -2.04106         6.31660
     2019.86036         4.18061         6.30360
     2019.86310        -3.19771         6.33432
     2019.86584         8.70396         6.47493
     2019.86858         5.33863         6.32487
     2019.87132         5.78330         6.44894
     2019.87405         4.76497         6.31069
     2019.87679       -10.51936         6.40876
     2019.87953         2.73431         6.28470
     2019.88227        14.08598         6.39222
     2019.88501        24.56865         6.26461
     2019.88774        20.62033         6.39813
     2019.89048         9.00800         6.25634
     2019.89322        10.94467         6.25162
     2019.89596        -3.00266         6.26579
     2019.89869         3.49801         6.25280
     2019.90143         5.55568         6.22798
     2019.90417         8.66635         6.25398
     2019.90691         7.64002         6.25870
     2019.90965         6.69569         6.21735
     2019.91238         4.58736         6.24689
     2019.91433         9.63455         9.88608
     2019.91786        16.68371         6.18427
     2019.92060        10.35138         6.25516
     2019.92607         7.10072         6.25989
     2019.92881         5.15139         6.27407
     2019.93155         3.45006         6.21735
     2019.93429        15.65273         6.23271
     2019.93702         1.28640         6.25634
     2019.93976        -0.23992         6.24098
     2019.94250        -0.40325         6.28824
     2019.94524        11.27342         6.27643
     2019.94798         1.18809         6.21381
     2019.95071         6.05876         6.59427
     2019.95345         2.88343         6.26461
     2019.95619         3.17610         6.25989
     2019.95893        -2.96923         6.26816
     2019.96167        -1.95256         6.23035
     2019.96440        -6.72488         6.43830
     2019.96714        -3.72621         6.44066
     2019.96988       -11.36654         6.25043
     2019.97262        -3.68287         6.22208
     2019.97535        -1.09620         6.25280
     2019.97809        -1.65753         6.21381
     2019.98083        -2.79486         6.25634
     2019.98357        -3.92819         6.24807
     2019.98631         4.61648         6.23271
     2019.98904        -1.64985         6.26816
     2019.99178         1.60883         6.22208
     2019.99452        -1.27350         6.26343
     2019.99726         0.92117         6.33196
     2020.00000        14.57584         6.35677
     2020.00273         4.18451         6.27643
     2020.00547        -2.57582         6.39222
     2020.00821        -6.54915         6.40167
     2020.01095        -8.89248         6.36504
     2020.01368        -8.44081         6.38868
     2020.01642        -6.55413         6.47493
     2020.01916        -5.06146         6.22917
     2020.02190        -1.00779         6.38868
     2020.02464        -7.50312         6.44066
     2020.02737        -6.28345         6.26816
     2020.03011       -12.88578         6.34732
     2020.03285       -20.13311         6.33196
     2020.03559        -6.11744         6.13110
     2020.03833        -5.80677         6.13582
     2020.04106        -5.32809         6.30715
     2020.04380        -3.57942         6.33432
     2020.04654        -9.12875         6.24098
     2020.04928        -6.25508         6.11337
     2020.05201        -5.02541         6.12046
     2020.05475        -5.60174         6.27643
     2020.05749        -1.88807         6.24334
     2020.06023         4.61760         6.24925
     2020.06297         2.52927         6.27288
     2020.06570         3.02794         6.25043
     2020.06844         6.04462         6.23271
     2020.07118        -0.44771         6.27525
     2020.07392        -0.49104         6.29533
     2020.07666        -2.34237         6.23744
     2020.07939         5.74430         6.22208
     2020.08213        -3.83403         6.21617
     2020.08487        -7.81636         6.23507
     2020.08761         5.11031         6.23153
     2020.09034         1.56198         6.23153
     2020.09308        -3.97134         6.22326
     2020.09582        -7.20167         6.23035
     2020.09856        -8.98600         6.25162
     2020.10130        -5.51233         6.23862
     2020.10403        -7.99566         6.26698
     2020.10677        -4.61699         6.22562
     2020.10951        -9.49632         6.23507
     2020.11225        -9.34765         6.20081
     2020.11498        -5.48598         6.19017
     2020.11772        -6.95530         6.32724
     2020.12046       -12.60763         6.40522
     2020.12320       -10.84396         6.20199
     2020.12594       -16.04329         6.19726
     2020.12867       -15.43362         6.19963
     2020.13141        -8.93495         6.19372
     2020.13415        -9.22328         6.19136
     2020.13689        -4.76561         6.35087
     2020.13963        -3.40694         6.35677
     2020.14236        -5.87926         6.21853
     2020.14510        -6.93759         6.27761
     2020.14784       -12.03992         6.21617
     2020.15058       -11.05825         6.23035
     2020.15331       -15.06858         6.27288
     2020.15605        -9.90291         6.25280
     2020.15879        -9.38924         6.24925
     2020.16153       -14.54457         6.20908
     2020.16427        -2.17090         6.21853
     2020.16700        -5.47823         6.22680
     2020.16974        -3.42955         6.23271
     2020.17248        -7.70688         6.22680
     2020.17522        -6.49521         6.22562
     2020.17796        -8.40054         6.16772
     2020.18069        -4.84487         6.18309
     2020.18343        -5.11620         6.16891
     2020.18617        -5.76953         6.19254
     2020.18891        -3.38086         6.36386
     2020.19164        -6.09019         6.28824
     2020.19438        -7.22451         6.29179
     2020.19712        -6.53884         6.33787
     2020.19986        -7.12117         6.30242
     2020.20260        -3.20950         6.31542
     2020.20533         2.34917         6.32369
     2020.20807         4.18384         6.27052
     2020.21081        -4.98349         6.29179
     2020.21355        -5.77682         6.85303
     2020.21629        -4.14415         6.62026
     2020.21902        -4.06847         6.45721
     2020.22176        -3.94880         6.26579
     2020.22450        -2.48213         6.28115
     2020.22724       -10.67846         6.29533
     2020.22997        -4.58579         6.28588
     2020.23271        -0.97712         6.27052
     2020.23545        -2.03345         6.28352
     2020.23819        -5.88778         6.25634
     2020.24093        -4.60011         6.29179
     2020.24366       -10.62944         6.39104
     2020.24640         0.10224         6.33432
     2020.24914        -6.85509         6.30124
     2020.25188        -7.75842         6.31187
     2020.25462        -7.71575         6.32487
     2020.25735        -2.48508         6.29651
     2020.26009         4.92459         6.28470
     2020.26283         2.20026         6.29415
     2020.26557        -5.48807         6.28352
     2020.26830        -3.88440         6.25752
     2020.27104        -3.87272         6.27052
     2020.27378        -5.98705         6.30360
     2020.27652        -4.71438         6.34023
     2020.27926        -2.91071         6.35087
     2020.28199        -3.21804         6.36150
     2020.28473        -9.81237         6.27643
     2020.28747        -6.62370         6.29061
     2020.29021        -4.20503         6.30951
     2020.29282        -6.63843         6.55055
     2020.29568        -1.81668         6.32487
     2020.29842         0.80899         6.31660
     2020.30116        -0.11934         6.26107
     2020.30390        -2.28267         6.27052
     2020.30663        -5.15400         6.31306
     2020.30937        -6.81833         6.59899
     2020.31211        -1.41666         6.45366
     2020.31485         0.40801         6.30833
     2020.31759         7.43268         6.20435
     2020.32032        -3.52665         6.33432
     2020.32306         3.13503         6.25752
     2020.32468        -5.51799        16.16842
     2020.32854         4.68237         6.28115
     2020.33128        -4.32996         6.21144
     2020.33401        -0.80329         6.26343
     2020.33675         4.30938         6.22798
     2020.33949        -5.55395         6.21735
     2020.34223        -7.19928         6.33196
     2020.34496        -5.65761         6.27761
     2020.34770        -8.72993         6.17836
     2020.35044        -6.14326         6.26698
     2020.35318        -8.24759         6.34496
     2020.35592        -4.34392         6.37450
     2020.35865        -2.23525         6.20199
     2020.36139         4.47442         6.22444
     2020.36413         2.65509         6.23035
     2020.36687         8.73376         6.31542
     2020.36961         6.60343         6.31778
     2020.37234        -1.28089         6.25752
     2020.37508         4.52878         6.27407
     2020.37782         4.09945         6.10156
     2020.38056         2.54612         6.12519
     2020.38329         3.74379         6.15000
     2020.38603        -7.92654         6.19726
     2020.38877        -7.56087         6.28824
     2020.39151        -6.46620         6.21144
     2020.39425        -6.08553         6.15236
     2020.39698        -8.73385         6.12873
     2020.39972        -1.27618         6.18427
     2020.40246        -4.56951         6.17481
     2020.40478        -5.85309         7.23822
     2020.40794        -6.50717         6.22444
     2020.41067        -7.35650         6.32133
     2020.41341        -3.06783         6.17009
     2020.41615        -5.14816         6.17127
     2020.41889        -8.65749         6.20317
     2020.42162        -5.65582         6.18190
     2020.42436        -3.94814         6.43003
     2020.42710        -5.47647         6.43594
     2020.42984         1.44920         6.32605
     2020.43258        -1.68113         6.26107
     2020.43531        -6.89646         6.26107
     2020.43805        -5.02079         6.25989
     2020.44079        -4.77012         6.36268
     2020.44353         3.36655         6.42649
     2020.44900        -0.69910         6.22208
     2020.45174        -0.97343         6.16536
     2020.45448         4.83424         6.17127
     2020.45722         6.65991         6.11928
     2020.45995         6.04558         6.13110
     2020.46269        -9.04875         6.14882
     2020.46543        -2.52608         6.14173
     2020.46817        -6.19741         6.19372
     2020.47091         0.93326         6.24807
     2020.47364        -5.67906         6.12164
     2020.47638         3.53561         6.16064
     2020.47912        -3.32672         6.22208
     2020.48186        -2.98805         6.15591
     2020.48459        -4.41838         6.27288
     2020.48733         2.99029         6.62262
     2020.49007         1.94496         6.32015
     2020.49281         1.15063         6.24098
     2020.49555         1.87330         6.24453
     2020.49828         6.78897         6.18072
     2020.53388        -0.42630         6.29888
     2020.53661        -4.89363         6.27997
     2020.53935        -6.43996         6.28115
     2020.54209         7.99671         6.37332
     2020.54483         0.53038         6.28352
     2020.54757        -0.39795         6.29061
     2020.55030         4.67173         6.28824
     2020.55304         4.67740         6.40640
     2020.55578         3.93707         6.42530
     2020.55852         2.95974         6.48438
     2020.56125         1.40741         6.27879
     2020.56399         1.78608         6.25989
     2020.56673        -1.78225         6.24807
     2020.56947         2.18342         6.26461
     2020.57221         1.70509         6.52219
     2020.57494         0.67476         6.35087
     2020.57768        -1.59756         6.34732
     2020.58042         0.41011         6.34968
     2020.58316        -7.57322         6.31187
     2020.58590        -4.22455         6.35914
     2020.58863         1.82312         6.36504
     2020.59137        -0.05921         6.30951
     2020.59411         8.84446         6.32015
     2020.59685        -2.49587         6.76205
     2020.59958        -1.10620         6.42767
     2020.60232         2.25448         6.32369
     2020.60506        -3.48185         6.28588
     2020.60780        -1.32718         6.22444
     2020.61054         4.67249         6.28824
     2020.61327         3.12716         6.37568
     2020.61601         0.32783         6.30951
     2020.61875        -3.62150         6.31424
     2020.62149        -3.87683         6.31306
     2020.62423        -1.28116         6.35205
     2020.62696        -6.14348         6.37568
     2020.62970        -1.87081         6.36623
     2020.63244         1.56986         6.38513
     2020.63518         5.12053         6.37922
     2020.63791         2.74820         6.46902
     2020.64065         4.83187         6.41585
     2020.64339         7.00854         6.34732
     2020.64613        -2.79279         6.38986
     2020.64887         3.55088         6.37213
     2020.65160         2.09355         6.30597
     2020.65434        -2.99077         6.31660
     2020.65708         0.02390         6.26225
     2020.65982         3.09757         6.33196
     2020.66256        -1.84876         6.34141
     2020.66529         2.66091         6.29179
     2020.66803         2.52558         6.28470
     2020.67077         3.60025         6.24807
     2020.67351         2.54592         6.29888
     2020.67624         1.22959         6.32605
     2020.67898        -4.13273         6.33432
     2020.68172        -0.67606         6.32251
     2020.68446        -5.40739         6.33196
     2020.68720        -2.04772         6.33078
     2020.68993         0.40295         6.35559
     2020.69267         0.08862         6.44775
     2020.69541         1.75929         6.62617
     2020.69815        -0.31104         6.42294
     2020.70089         0.55063         6.28824
     2020.70362        -3.01469         6.30951
     2020.70636        -0.16002         6.60845
     2020.70910        -2.38935         6.60372
     2020.71184         0.29632         6.44421
     2020.71457        -4.17301         6.50801
     2020.71731        10.29166         6.52219
     2020.72005         3.58033         6.51038
     2020.72279         1.66100         6.35796
     2020.72553         3.61567         6.46784
     2020.72826        -2.03965         6.47020
     2020.73100         1.22202         6.52337
     2020.73374        -1.92131         6.46311
     2020.73648         1.46736         6.37332
     2020.73921         2.65603         6.33787
     2020.74195         3.06170         6.30597
     2020.74469         3.26137         6.35087
     2020.74743         2.25204         6.38986
     2020.75017         1.17371         6.31424
     2020.75290        -0.81962         6.37450
     2020.75564        -1.62794         6.25162
     2020.75838         6.96173         6.24453
     2020.76112         3.47340         6.29533
     2020.76386         6.89007         6.27052
     2020.76659         6.45574         6.23271
     2020.76933         9.02041         6.38631
     2020.77207         9.77208         6.26343
     2020.77481         5.64775         6.38159
     2020.77754         2.15842         6.42294
     2020.78028         7.52410         6.30006
     2020.78302         0.35077         6.33196
     2020.78576         5.31344         6.37095
     2020.78850         1.64811         6.32015
     2020.79123         3.89878         6.32369
     2020.79397         4.12345         6.29651
     2020.79671         1.65412         6.33551
     2020.79945         7.13079         6.29297
     2020.80219         4.29546         6.44421
     2020.80492         7.63814         6.31187
     2020.80766         6.42981         6.37450
     2020.81040         3.32248         6.34378
     2020.81314         6.46115         6.35205
     2020.81587        12.64282         6.32605
     2020.81861         7.00849         6.29533
     2020.82135         5.78916         6.36741
     2020.82409         6.57083         6.31306
     2020.82683         6.45950         6.38631
     2020.82956         2.68317         6.47375
     2020.83230        15.15385         6.43121
     2020.83504         8.48752         6.42412
     2020.83778         5.47019         6.24216
     2020.84052        10.20786         6.29179
     2020.84325        -4.64247         6.49029
     2020.84599         0.14120         6.46075
     2020.84873        16.54587         6.38749
     2020.85147        16.51454         6.23862
     2020.85420        13.22721         6.19608
     2020.85694        19.53889         6.35205
     2020.85968         6.87656         6.36032
     2020.86242        10.92123         6.35441
     2020.86516        12.53590         6.48675
     2020.86789        15.23757         6.49738
     2020.87063        12.33924         6.28943
     2020.87337        19.02891         6.30479
     2020.87611        14.59658         6.50329
     2020.87885         9.24625         6.45130
     2020.88158        17.22893         6.47138
     2020.88432        16.08360         6.33669
     2020.88706         4.66627         6.56591
     2020.88980         5.20694         6.40994
     2020.89253         8.22161         6.29888
     2020.89527         9.23528         6.47729
     2020.89801         8.57195         6.54228
     2020.90075         9.03862         6.29888
     2020.90349         7.69829         6.30360
     2020.90622         2.78996         6.34496
     2020.90896         5.58264         6.58718
     2020.91170         3.20131         6.54582
     2020.91444         4.58898         6.44421
     2020.91718         0.97165         6.30006
     2020.91991        -1.29868         6.33314
     2020.92265        -0.33601         6.37332
     2020.92539        -4.21034         6.29888
     2020.92813        -2.66367         6.29297
     2020.93086        -3.50300         6.32605
     2020.93360        -2.02032         6.32015
     2020.93634        -2.43065         6.34378
     2020.93908         1.93602         6.34968
     2020.94182         0.11169         6.30006
     2020.94455        -3.78364         6.30715
     2020.94729        -2.89097         6.30006
     2020.95003        -0.36930         6.35677
     2020.95277       -10.14563         6.29415
     2020.95551        -3.53396         6.37213
     2020.95824        -3.85028         6.31306
     2020.96098        -9.22461         6.32015
     2020.96372        -5.18194         6.32487
     2020.96646        -1.06827         6.47729
     2020.96919         1.63640         6.42176
     2020.97193        -2.60093         6.27761
     2020.97467        -1.52426         6.38159
     2020.97741        -6.28059         6.39813
     2020.98015        -4.43192         6.51865
     2020.98288        -3.34424         6.39222
     2020.98562        -1.31657         6.25752
     2020.98836         5.77310         6.24925
     2020.99110         4.23377         6.24689
     2020.99384         0.04444         6.21735
     2020.99657         2.42811         6.22208
     2020.99931        -1.47422         6.22326
     2021.00205        -0.07455         6.25989
     2021.00479         4.75512         6.26461
     2021.00752         9.84079         6.25752
     2021.01026         6.66747         6.23271
     2021.01300         7.66614         6.23153
     2021.01574        -1.80019         6.29770
     2021.01848         2.34448         6.22798
     2021.02121        -0.69485         6.22680
     2021.02395         0.69082         6.23507
     2021.02669        -1.06051         6.20081
     2021.02943        -4.76484         6.23153
     2021.03216        -6.62517         6.38395
     2021.03490        15.01651         6.36977
     2021.03764         2.91018         6.24453
     2021.04038        -5.43415         6.31187
     2021.04312         3.22852         6.31424
     2021.04585        -3.82881         6.35677
     2021.04859        -1.76414         6.27170
     2021.05133        -0.95247         6.29297
     2021.05407         2.40120         6.55882
     2021.05681         0.49987         6.45248
     2021.05954        -0.02645         6.26461
     2021.06228         1.02822         6.27052
     2021.06502         1.10389         6.26579
     2021.06776         6.61756         6.24453
     2021.07049         3.35723         6.28352
     2021.07323         2.80990         6.21853
     2021.07597        -9.80643         6.23862
     2021.07871        -0.84576         6.26579
     2021.08145        -3.58709         6.22326
     2021.08418       -12.90242         6.23153
     2021.08692        -4.58174         6.23626
     2021.08966        -4.14407         6.24453
     2021.09240        -8.23140         6.25398
     2021.09514        -6.88173         6.39931
     2021.09787        -6.41906         6.45248
     2021.10061        -5.83239         6.28470
     2021.10335        -3.92172         6.26107
     2021.10609        -7.26305         6.24807
     2021.10882        -3.00238         6.25870
     2021.11156        -7.94970         6.27643
     2021.11430        -4.25403         6.27525
     2021.11704         4.74064         6.27052
     2021.11978         1.83431         6.25398
     2021.12251        -3.11902         6.26816
     2021.12525         3.81765         6.31069
     2021.12799        -8.45968         6.29415
     2021.13073        -4.74001         6.23507
     2021.13347        -4.88934         6.37332
     2021.13620        -8.19666         6.33669
     2021.13894        -4.24799         6.23507
     2021.14168        -6.49032         6.25162
     2021.14442        -4.11365         6.23507
     2021.14715        -7.05698         6.35087
     2021.14989        -8.12531         6.19963
     2021.15263        -8.61364         6.41585
     2021.15537        -5.36397         6.43121
     2021.15811        -4.07830         6.56236
     2021.16084        -1.49663         6.34141
     2021.16358        -5.04195         6.36859
     2021.16632        -2.92828         6.38868
     2021.16906         2.54039         6.22798
     2021.17180        -6.25794         6.22917
     2021.17453       -11.88627         6.39931
     2021.17727        -0.86460         6.38041
     2021.18001       -10.23993         6.34968
     2021.18275        -2.75626         6.56945
     2021.18548        -4.24059         6.23153
     2021.18822         1.45809         6.17481
     2021.19096        -0.98224         6.20199
     2021.19370        -6.54457         6.30715
     2021.19644        -7.60990         6.20672
     2021.19917       -10.14123         6.22798
     2021.20191        -2.22056         6.18781
     2021.20465         0.80111         6.19490
     2021.20739        -2.47122         6.23862
     2021.21013         0.39245         6.40522
     2021.21286        -7.86887         6.34496
     2021.21560        -3.66720         6.19017
     2021.21834        -4.66753         6.19963
     2021.22108        -9.50886         6.24216
     2021.22381        -4.83519         6.21971
     2021.22655        -0.96052         6.21853
     2021.22929         2.23115         6.17363
     2021.23203         1.55782         6.15709
     2021.23477        -7.78051         6.21144
     2021.23750        -9.80984         6.24453
     2021.24024        -7.90216         6.20672
     2021.24298        -2.47749         6.19372
     2021.24572        -5.75982         6.16654
     2021.24846        -4.41615         6.27761
     2021.25119        -2.74048         6.25870
     2021.25393        -4.08981         6.25043
     2021.25667        -5.19914         6.20435
     2021.25941        -4.54447         6.21026
     2021.26214         1.77920         6.26107
     2021.26488        -0.17412         6.28588
     2021.26762        -1.30945         6.30242
     2021.27036         0.66722         6.29533
     2021.27310        -4.78511         6.19254
     2021.27583        -1.30744         6.24098
     2021.27857        -1.28177         6.38041
     2021.28131         0.25590         6.38986
     2021.28405         0.74157         6.34496
     2021.28679        -0.07076         6.29179
     2021.28952         2.29592         6.36386
     2021.29226        -2.00241         6.37804
     2021.29500         1.90326         6.35914
     2021.29774         2.44493         6.54110
     2021.30047         3.43060         6.39577
     2021.30321         6.48927         6.37686
     2021.30595         6.97394         6.54110
     2021.30869        12.30161         6.53401
     2021.31143         9.12428         6.25516
     2021.31416         7.92496         6.28824
     2021.31690        10.59863         6.24571
     2021.31964         6.23930         6.40758
     2021.32238         1.87497         6.41940
     2021.32512        -3.70536         6.26934
     2021.32785         0.16031         6.29770
     2021.33059         6.49998         6.32724
     2021.33333        12.80565         6.30479
     2021.33607         2.03732         6.28706
     2021.33880         5.87699         6.27761
     2021.34154        -1.17533         6.27170
     2021.34428        -0.19966         6.50329
     2021.34702        -5.88599         6.31542
     2021.34976        -0.84732         6.31306
     2021.35249        -0.82765         6.29888
     2021.35523        -1.22298         6.30833
     2021.35797        -2.77131         6.30124
     2021.36071         0.14636         6.31778
     2021.36344        -0.78397         6.32842
     2021.36618        -4.90929         6.29179
     2021.36892        -6.58462         6.31187
     2021.37166        -1.49695         6.29297
     2021.37440        -0.66728         6.32251
     2021.37713         3.99039         6.33787
     2021.37987         3.53706         6.47729
     2021.38261        -1.48627         6.66870
     2021.38535         1.59240         6.51510
     2021.38809         5.43207         6.42530
     2021.39082        10.82975         6.34260
     2021.39356        -7.13558         6.32724
     2021.39630         7.79009         6.37095
     2021.39904         9.61776         6.35914
     2021.40177        -1.51757         6.47847
     2021.40451        -1.00590         6.47138
     2021.40725        -0.29023         6.32724
     2021.40999         3.65144         6.33787
     2021.41273        -2.46389         6.32487
     2021.41546         1.29978         6.37804
     2021.41820        -2.90054         6.40285
     2021.42094         5.85313         6.42058
     2021.42368         6.54180         6.40049
     2021.42642         1.69247         6.48084
     2021.42915         2.74614         6.42058
     2021.43189        -2.81319         6.41585
     2021.43463         7.77148         6.34141
     2021.43737        -1.05785         6.31896
     2021.44010         4.83282         6.42885
     2021.44284        -1.02150         6.40404
     2021.44558         5.67517         6.56709
     2021.44832        -2.83116         6.50092
     2021.45106         0.50451         6.75023
     2021.45379         9.50318         6.58600
     2021.45653         6.60485         6.44421
     2021.45927         5.15052         6.35441
     2021.46201         0.62019         6.37804
     2021.46475        -0.39714         6.35559
     2021.46748         0.74054         6.39458
     2021.47296        15.82588         6.67343
     2021.47570         0.32755         6.57654
     2021.48117        -4.58211         6.39340
     2021.48391        -3.72544         6.34732
     2021.48665         1.19423         6.34496
     2021.48939         6.07990         6.33314
     2021.49212         5.25057         6.39458
     2021.49486         1.20325         6.44775
     2021.49760         6.88292         6.67816
     2021.50034        -2.61041         6.56118
     2021.50308         3.07626         6.50092
     2021.50581        -0.12607         6.43358
     2021.50855        -0.45940         6.37804
     2021.51129         0.09027         6.41585
     2021.51403         2.33794         6.53164
     2021.51676         5.58961         6.38513
     2021.51950         2.41629         6.54700
     2021.52224        -3.15004         6.37922
     2021.52498         6.45863         6.39104
     2021.52772         3.52430         6.39222
     2021.53045         2.67497         6.38513
     2021.53319         3.06464         6.39931
     2021.53593         5.16631         6.53283
     2021.53867         5.56298         6.81285
     2021.54141         3.84565         6.55882
     2021.54414        -0.09467         6.56827
     2021.54688        -3.27000         6.55291
     2021.54962        -7.86033         6.52219
     2021.55236         1.94734         6.46193
     2021.55509         0.28201         6.53046
     2021.55783        -3.57832         6.49620
     2021.56057         2.87535         6.37568
     2021.56331         2.01602         6.39222
     2021.56605        -3.44031         6.48793
     2021.56878         3.50536         6.40522
     2021.57152         3.24304         6.43830
     2021.57426        -1.21729         6.39458
     2021.57700         5.26338         6.54110
     2021.57974         5.24505         6.39695
     2021.58247        -9.79228         6.48793
     2021.58521         1.30339         6.66752
     2021.58795        -0.31894         6.44775
     2021.59069         3.46573         6.48084
     2021.59616         1.44708         6.57418
     2021.59890         0.84475         6.45484
     2021.60164        12.58542         6.49974
     2021.60438         3.70309         6.37213
     2021.60711         5.94076         6.39931
     2021.60985         1.30643         6.41231
     2021.61259         3.44610         6.33196
     2021.61533         2.81777         6.37450
     2021.61807         2.62644         6.30479
     2021.62080        -0.75088         6.41113
     2021.62354        10.92779         6.40285
     2021.62628         1.21746         6.46784
     2021.62902         2.58513         6.30242
     2021.63175         1.27680         6.31896
     2021.63449         6.55047         6.32724
     2021.63723         9.03414         6.63444
     2021.63997         7.36581         6.43003
     2021.64271         5.31148         6.43948
     2021.64544         5.90716         6.31542
     2021.64818         5.35383         6.29770
     2021.65092         7.60550         6.29770
     2021.65366         5.51317         6.32724
     2021.65639         2.76084         6.31069
     2021.65913         2.15751         6.31542
     2021.66187         6.70018         6.27407
     2021.66461         7.80085         6.28115
     2021.66735         8.17952         6.26107
     2021.67008         4.50819         6.39813
     2021.67282         7.87487         6.50683
     2021.67556         5.57954         6.66162
     2021.67830         0.37321         6.46666
     2021.68104        13.27188         6.29533
     2021.68377         7.77755         6.30124
     2021.68651         8.20922         6.63090
     2021.68925         6.42089         6.35441
     2021.69199        10.95656         6.38631
     2021.69472        13.65323         6.33196
     2021.69746         6.97291         6.35677
     2021.70020        13.27258         6.37213
     2021.70294         5.37025         6.29297
     2021.70568        12.46392         6.28824
     2021.70841        10.82359         6.36859
     2021.71115         5.78526         6.34260
     2021.71389         7.12393         6.51747
     2021.71663        17.34860         6.54228
     2021.71937        13.77827         6.31069
     2021.72210         2.63095         6.29533
     2021.72484         1.66062         6.34614
     2021.72758         6.43829         6.31306
     2021.73032        -0.10204         6.67934
     2021.73305         8.92463         6.32133
     2021.73579        12.09230         6.35323
     2021.73853        18.00797         6.41940
     2021.74127        20.70764         6.32605
     2021.74401         8.91031         6.32251
     2021.74674        10.94098         6.37095
     2021.74948        14.30466         6.42767
     2021.75222         6.67133         6.35559
     2021.75496         9.60000         6.38159
     2021.75770         6.18067         6.34968
     2021.76043         7.25134         6.36386
     2021.76317         9.33201         6.47138
     2021.76591         9.07768         6.34850
     2021.76865         6.22535         6.34850
     2021.77138         8.91402         6.30951
     2021.77412         9.66370         6.48202
     2021.77686        11.56837         6.38513
     2021.77960        10.82404         6.38749
     2021.78234        15.00471         6.32487
     2021.78507        15.46438         6.29415
     2021.78781         9.65105         6.31778
     2021.79055        13.09472         6.35559
     2021.79329         7.91939         6.35914
     2021.79603        19.12706         6.29651
     2021.79876         8.04274         6.31424
     2021.80150        13.09741         6.46430
     2021.80424        18.25608         6.64035
     2021.80698        22.01475         6.37922
     2021.80971        16.97942         6.37213
     2021.81519        15.31276         6.30597
     2021.81793         6.91443         6.38868
     2021.82067         6.30810         6.51747
     2021.82340        17.72477         6.45130
     2021.82614         6.35245         6.53283
     2021.82888        27.05012         6.41467
     2021.83162        23.17479         6.38749
     2021.83436        24.90146         6.44303
     2021.83709        21.31813         6.44539
     2021.83983         4.08180         6.48556
     2021.84257        10.63847         6.56473
     2021.84531         6.28114         6.42767
     2021.84804         7.11681         6.40285
     2021.85078        -2.14151         6.40285
     2021.85352         8.62416         6.33787
     2021.85626         2.45983         6.41940
     2021.85900         5.79550         6.31187
     2021.86173         6.73517         6.40876
     2021.86447         4.50684         6.55764
     2021.86721        11.32951         6.64389
     2021.86995        -1.68582         6.61199
     2021.87269        -0.82215         6.46784
     2021.87542         4.49653         6.58600
     2021.87816        -0.49880         6.29415
     2021.88090         2.18587         6.30124
     2021.88364        11.08854         6.47847
     2021.88637         2.38321         6.29888
     2021.88911        -1.30412         6.31896
     2021.89185        -0.73445         6.30360
     2021.89459         3.89822         6.44303
     2021.89733        -0.68911         6.30124
     2021.90006         2.48157         6.31660
     2021.90280        -2.00676         6.35914
     2021.90554        14.11591         6.34023
     2021.90828         8.48258         6.34496
     2021.91102         2.16025         6.35914
     2021.91375         3.90492         6.33669
     2021.91649         0.85159         6.33787
     2021.91923        14.05126         6.55764
     2021.92197        -0.46007         6.71360
     2021.92470        -5.78040         6.51628
     2021.92744         2.79128         6.51392
     2021.93018        -2.13105         6.49383
     2021.93292        16.16562         6.62853
     2021.93566        17.17429         6.72187
     2021.93839         6.11896         6.56000
     2021.94113        12.03263         6.71242
     2021.94387        12.02530         6.51274
     2021.94661         5.81297         6.48202
     2021.94935         8.85064         6.43712
     2021.95208        10.00032         6.40758
     2021.95482         6.86199         6.64035
     2021.96030        14.08133         6.62262
     2021.96303         3.64100         6.63090
     2021.96577        -0.99633         6.64507
     2021.96851        -7.71366         6.74787
     2021.97125         7.05401         6.61553
     2021.97399         6.70568         6.70888
     2021.97672        11.23036         6.59781
     2021.97946        17.04503         6.58718
     2021.98220        12.87570         6.53637
     2021.98494        13.50737         6.58363
     2021.98767        12.25704         6.57773
     2021.99041        12.68971         6.47729
     2021.99315        13.97038         6.45130
     2021.99589        12.35905         6.44894
     2021.99863         1.09972         6.45012
     2022.00136         7.76339         6.50211
     2022.00410         0.05007         6.52337
     2022.00684        -0.49026         6.49856
     2022.00958        -2.55359         6.49974
     2022.01232       -11.68992         6.53283
     2022.01505         7.67375         6.64626
     2022.01779        -0.06158         6.58363
     2022.02053         2.30109         6.51274
     2022.02327        -0.98624         6.87902
     2022.02600        -8.88557         6.52456
     2022.02874        -7.34689         6.50801
     2022.03148        -9.94822         6.57064
     2022.03422        -6.50655         6.51747
     2022.03696         0.93312         6.41703
     2022.03969        -8.64821         6.43358
     2022.04243        -0.88454         6.42530
     2022.04517        -1.06087         6.43358
     2022.04791        -4.59820         6.46666
     2022.05065        -2.14353         6.43121
     2022.05338         7.17015         6.45839
     2022.05612        -9.95218         6.47847
     2022.05886       -12.74451         6.45130
     2022.06160       -10.69384         6.47493
     2022.06433        -3.94717         6.47493
     2022.06707        -7.23550         6.44421
     2022.06981        -0.47783         6.42058
     2022.07255       -11.16116         6.34378
     2022.07529        -5.10449         6.36741
     2022.07802        -1.64782         6.37332
     2022.08076         2.70986         6.35441
     2022.08350        -2.91747         6.33432
     2022.08624        -0.30680         6.33432
     2022.08898         3.01987         6.36977
     2022.09171        -3.49946         6.36977
     2022.09445        -5.52279         6.33432
     2022.09719        -6.46612         6.30006
     2022.09993        -5.18545         6.45130
     2022.10266        -8.29478         6.50092
     2022.10540        -3.78910         6.44421
     2022.10814         1.14357         6.46311
     2022.11088        -1.14476         6.30833
     2022.11362         1.10391         6.28352
     2022.11635         3.01658         6.32842
     2022.11909        -1.31275         6.34614
     2022.12183        -3.27408         6.44657
     2022.12457         6.17359         6.51510
     2022.12731        -0.83774         6.32842
     2022.13004        -7.50406         6.30242
     2022.13278        -2.89139         6.32487
     2022.13552        -3.47872         6.32724
     2022.13826        -5.25305         6.33314
     2022.14099         0.65962         6.30479
     2022.14373        -3.17571         6.29179
     2022.14647         3.44696         6.29888
     2022.14921         3.57863         6.62381
     2022.15195        -0.89270         6.63917
     2022.15468         2.49397         6.31306
     2022.15742        -0.44635         6.41585
     2022.16016        -7.49568         6.47729
     2022.16290       -10.79601         6.47966
     2022.16564         4.32966         6.36504
     2022.16837         6.99833         6.32015
     2022.17111         3.45300         6.30715
     2022.17385         6.32367         6.33787
     2022.17659         1.43234         6.30124
     2022.17932        -1.71399         6.33905
     2022.18206        -3.31831         6.34732
     2022.18480        -3.92064         6.31660
     2022.18754         2.91303         6.41113
     2022.19028        -3.31130         6.40522
     2022.19301         3.19437         6.34614
     2022.19575         1.73504         6.36741
     2022.19849         5.75371         6.34378
     2022.20123         6.36138         6.40640
     2022.20397         8.85105         6.34378
     2022.20670         2.57773         6.46902
     2022.20944         3.16940         6.47729
     2022.21218         7.76907         6.36386
     2022.21492         0.72374         6.34378
     2022.21765        -1.60759         6.34260
     2022.22039         0.43808         6.32724
     2022.22313        -1.15925         6.32251
     2022.22587        -5.53758         6.44421
     2022.22861         4.47209         6.47847
     2022.23134         4.90677         6.36268
     2022.23408         8.08744         6.33551
     2022.23956        18.89978         6.36032
     2022.24230        11.65845         6.37686
     2022.24503         6.73312         6.34732
     2022.24777         8.04079         6.34732
     2022.25051        -7.26954         6.40640
     2022.25325         4.60913         6.34496
     2022.25598         2.28380         6.43594
     2022.25872         2.85548         6.44775
     2022.26146        -1.58785         6.38041
     2022.26420         3.31282         6.35914
     2022.26694        -5.21251         6.62971
     2022.26967         1.78516         6.39813
     2022.27241         1.95683         6.42058
     2022.27515         5.94950         6.51983
     2022.27789         2.13417         6.36504
     2022.28062        -2.84216         6.40758
     2022.28336        -1.13848         6.41703
     2022.28610         4.11819         6.56236
     2022.28884        -1.66114         6.42885
     2022.29158        -3.46647         6.30360
     2022.29431        -1.91880         6.30833
     2022.29705         0.95687         6.35205
     2022.29979         7.42854         6.33669
     2022.30253         6.01421         6.45484
     2022.30527         2.15788         6.43594
     2022.30800        -1.23544         6.36977
     2022.31074         0.06623         6.34732
     2022.31348        -1.57010         6.38041
     2022.31622        -3.54343         6.35205
     2022.31895       -13.26976         6.51510
     2022.32169         3.02691         6.53992
     2022.32443        -0.49142         6.33196
     2022.32717         1.35225         6.42649
     2022.32991         3.50792         6.32015
     2022.33264        -5.25341         6.53283
     2022.33538        -3.90873         6.54582
     2022.33812        -1.95806         6.57064
     2022.34086         5.96461         6.45602
     2022.34360        11.41328         6.45839
     2022.34633        13.49995         6.43239
     2022.34907         0.99462         6.34496
     2022.35181         3.69829         6.32251
     2022.35455         2.08896         6.31187
     2022.35728        -0.50437         6.31424
     2022.36002         0.63831         6.36268
     2022.36276        10.27898         6.42176
     2022.36550        -3.01935         6.38749
     2022.36824        -1.60768         6.36032
     2022.37097        -1.93501         6.35323
     2022.37371        -3.25234         6.30951
     2022.37645        -5.22867         6.37450
     2022.37919        -5.27500         6.51865
     2022.38193        -6.56133         6.44539
     2022.38466        -2.50665         6.36623
     2022.38740       -15.79198         6.34260
     2022.39014        -0.33131         6.33432
     2022.39288        -0.88464         6.42412
     2022.39561        -4.10497         6.37213
     2022.39835        -2.35330         6.35796
     2022.40109         4.57537         6.39577
     2022.40383        12.59304         6.33078
     2022.40657         5.16871         6.34614
     2022.40930        -5.74862         6.42412
     2022.41204         5.29906         6.38749
     2022.41478        -4.77027         6.28588
     2022.41752         5.58440         6.51392
     2022.42026        15.56007         6.52101
     2022.42299        14.51774         6.29888
     2022.42573        11.61441         6.62026
     2022.42847         5.39008         6.37568
     2022.43121         6.29875         6.42767
     2022.43394         5.92842         6.66989
     2022.43668        -5.51990         6.36150
     2022.43942         2.08477         6.35087
     2022.44216        -0.15656         6.63090
     2022.44490        15.64311         6.61081
     2022.44763         5.99378         6.25870
     2022.45037        -4.44855         6.24334
     2022.45311        -7.08788         6.33432
     2022.45585        -6.27121         6.29770
     2022.45859        -9.19854         6.32369
     2022.46132        10.90014         6.23389
     2022.46406         3.51381         6.24098
     2022.46680        -2.41252         6.28352
     2022.46954        -1.68585         6.25989
     2022.47227       -12.10018         6.30833
     2022.47501         6.78549         6.54582
     2022.47775        -1.21184         6.51274
     2022.48049        -3.77417         6.26225
     2022.48323         6.73350         6.29651
     2022.48596         9.24318         6.31306
     2022.48870        -5.59515         6.34850
     2022.49144        -1.54948         6.33551
     2022.49418        -2.48581         6.53637
     2022.49692        -2.05014         6.32960
     2022.50787        14.21354         6.72306
     2022.51060        -1.51679         6.57418
     2022.51334         1.92589         6.36268
     2022.51608         2.82256         6.37332
     2022.51882        -5.46777         6.39340
     2022.52156        -5.30510         6.45957
     2022.52429         0.29957         6.35087
     2022.52703         2.74224         6.44185
     2022.52977         7.74591         6.47493
     2022.53251        -4.13542         6.47966
     2022.53525        -8.60575         6.53873
     2022.53798         1.98693         6.41821
     2022.54072        -7.54640         6.52456
     2022.54346        -0.01973         6.38159
     2022.54620         1.26794         6.38395
     2022.54893        -5.01139         6.39458
     2022.55167        -0.96872         6.49383
     2022.55441         5.11995         6.40404
     2022.55715         6.24062         6.37213
     2022.55989        -2.69771         6.36504
     2022.56262         0.15097         6.40640
     2022.56536       -10.41836         6.36150
     2022.56810         0.62631         6.37213
     2022.57084        -2.91302         6.31778
     2022.57357         7.60865         6.62971
     2022.57631        -6.82168         6.40167
     2022.57905        -4.53801         6.39222
     2022.58179         4.72966         6.39931
     2022.58453         4.51133         6.67816
     2022.58726        -2.84600         6.53519
     2022.59000         1.73468         6.63444
     2022.59274       -15.68465         6.35087
     2022.59548        -0.14998         6.37332
     2022.59822       -12.96931         6.32369
     2022.60095        -8.51564         6.39695
     2022.60369         4.56103         6.66162
     2022.60643         6.79970         6.55055
     2022.60917         2.66037         6.40049
     2022.61190         8.28004         6.38041
     2022.61464         7.96672         6.30479
     2022.61738        10.24639         6.37568
     2022.62012        -3.79394         6.27761
     2022.62286        -1.14627         6.29770
     2022.62559         2.44940         6.27643
     2022.62833         0.76407         6.27407
     2022.63107         3.37674         6.35087
     2022.63381         9.64441         6.39931
     2022.63655         2.59008         6.27997
     2022.63928        -0.30324         6.38631
     2022.64202         2.55343         6.73605
     2022.64476         4.16810         6.78332
     2022.64750        11.07177         6.42530
     2022.65023        10.31544         6.50447
     2022.65297        11.50211         6.47611
     2022.65571        10.51578         6.38395
     2022.65845         8.64745         6.28234
     2022.66119         8.41112         6.26698
     2022.66392         4.56679         6.29415
     2022.66666        10.40947         6.29061
     2022.66940         5.76414         6.25634
     2022.67214         1.40481         6.32605
     2022.67488         2.35248         6.26107
     2022.67761        18.90515         6.38395
     2022.68035         7.16482         6.29651
     2022.68309         8.70849         6.35205
     2022.68583         6.21416         6.51038
     2022.68856         9.43483         6.36150
     2022.69130        10.52451         6.36859
     2022.69404         9.39018         6.32015
     2022.69678        13.90785         6.35087
     2022.69952         5.91952         6.44303
     2022.70225         7.11619         6.50092
     2022.70499        14.26586         6.55055
     2022.70773        18.72853         6.33314
     2022.71047        10.99820         6.20672
     2022.71321        30.98187         6.22326
     2022.71594        15.07655         6.29651
     2022.71868        12.59422         6.25516
     2022.72142        19.71789         6.17836
     2022.72416        10.08956         6.31187
     2022.72689        11.29223         6.29415
     2022.72963        10.70790         6.19136
     2022.73237         8.17457         6.21381
     2022.73511         6.12124         6.27407
     2022.73785         6.62091         6.33314
     2022.74058         8.28258         6.49974
     2022.74332        21.16026         6.51392
     2022.74606        17.76893         6.31187
     2022.74880        13.52760         6.22680
