# ================= DQRFIT RESULTS ================
# INPUT FILE: series/CLCV.rad
# OUTPUT: LDETRENDED
# FILTER FUNCTION: f(t)
# f(t)=+line(t)+annual(t)
# line(t)=+P 1+P 2*t
# annual(t)=+P 3*sin(2*pi*t+P 4)
# heav(t)=(t<0?0:1)
# TOTAL OBSERVATIONS MTOT= 4119
# INITIAL TIME INTERVAL= 2022.7488 - 2010.6502 = 12.0986
# TOTAL OBSERVATIONS AFTER PREFILTER M= 4094
# TIME-SPAN= 2022.7488 - 2010.6502 = 12.0986
# OBSERVATIONS: USED M=  4094 REJECTED MTOT-M=    25 %USED=   99.3931
# N=  4 PARAMETERS
# MAXSIG= 175.00000
# MAXRES=  85.29518
# SCALE FACTOR FOR LENGTHS: SCL=  10.00000
# SCALE FACTOR FOR SIGMAS: SCLSIG=   1.00000
# CHI^2=   5719.829 DOF=  4090 CHI^2/DOF=   1.39849
# RMS=      9.323 SDEV=      9.282 MEAN=    0.88767
#  P #       PARAMETER +-    SIGMA %error PARAMETER NAME
# P 1 =      5490.18117 +-   74.128   1.35 YZERO                              
# P 2 =        -2.72514 +-    0.037   1.35 SLOPE                              
# P 3 =         4.07367 +-    0.175   4.28 ANNUAL AMPLITUDE                   
# P 4 =         2.74540 +-    0.056   2.04 ANNUAL PHASE                       
#       T            LDETRENDED       SIG_OBS
     2010.65023        19.83615        11.02045
     2010.65297        16.13361        12.06821
     2010.65468        21.96926        15.20204
     2010.65938        10.06307        15.06132
     2010.66119        12.11399        11.85889
     2010.66392        20.49845        13.02019
     2010.66667         7.89593        10.80640
     2010.66940        17.59638        11.91684
     2010.67214        15.78084        10.58881
     2010.67488        14.26930        10.41733
     2010.67761        19.79276        10.57816
     2010.68035        22.82722         9.51621
     2010.68309        25.69768         9.72198
     2010.68583        10.42414        12.92085
     2010.68856         9.90860        13.46838
     2010.69221        10.23253        14.40972
     2010.69404        23.29753        10.03536
     2010.69678         8.18899         9.82013
     2010.69952        24.07545         9.91237
     2010.70225        28.37191        11.23331
     2010.70499        19.42437         9.80830
     2010.70773         9.59883        10.74609
     2010.71047        32.85129        11.74182
     2010.71193        19.43228        42.24288
     2010.71701        30.64412        37.60954
     2010.71963        20.41227        15.10389
     2010.72142        29.78514         9.51384
     2010.72416        22.68960        13.03793
     2010.72689        13.11206         9.06446
     2010.72963        19.35052        10.26596
     2010.73237        23.20598         8.60326
     2010.73511        20.80044         8.51693
     2010.73785        20.30990         9.23594
     2010.74058        20.50436         8.88589
     2010.74332        22.60182         8.58197
     2010.74606        23.29229         8.70969
     2010.74880        17.52476         8.66830
     2010.75154        33.29421         8.36438
     2010.75427        37.26367         9.39085
     2010.75701        18.16713        11.42134
     2010.75975        24.91759         9.15197
     2010.76249        23.88405         8.19290
     2010.76522        25.05951         9.77519
     2010.76796        19.05197        12.53060
     2010.77066        24.25632        10.79576
     2010.77431         5.88727        14.35413
     2010.77618        25.08036         9.81185
     2010.77891        24.38482         7.97649
     2010.78165        25.91628         7.89962
     2010.78439        31.08974         8.19645
     2010.78713        32.71020         8.10066
     2010.78987        22.59866         8.57961
     2010.79260        27.61812         8.98996
     2010.79534        21.64958         8.04035
     2010.79808        29.98905         7.84286
     2010.80082        29.89251         8.12195
     2010.80355        28.44997         7.90908
     2010.80629        31.02943         8.22365
     2010.80892        26.13159        13.39152
     2010.81535        27.62112        17.61569
     2010.81819        25.99585        14.96553
     2010.81998        30.20873        12.45018
     2010.82155         9.52002        24.85425
     2010.82639        27.20121        13.98990
     2010.82710        15.46914        20.79446
     2010.83186        -0.35790        84.77430
     2010.83463        16.96164        14.28673
     2010.83641        17.10450         8.96513
     2010.83915        29.98296         8.10894
     2010.84188        20.52242         8.04744
     2010.84462        29.76388        11.35275
     2010.84736        31.10234        11.59873
     2010.85002        21.97260         9.01479
     2010.85381        39.30592        16.24508
     2010.85516        30.07559        31.13492
     2010.85929        37.64884        15.30848
     2010.86105        21.34065         9.21583
     2010.86379        18.46511         8.40813
     2010.86643        21.11131         9.78347
     2010.87294        17.52406        16.31603
     2010.87563        22.44338        13.88347
     2010.87748        28.40842         8.56423
     2010.88018        27.80577        21.22846
     2010.88390        49.99392        56.87137
     2010.88668        37.15049        16.41773
     2010.88925        35.05750        21.59743
     2010.89471        65.45538       114.77395
     2010.89753        21.66708        14.47831
     2010.89938        29.39110        13.13844
     2010.90200        39.10625        11.88255
     2010.90593       -12.47605        41.87273
     2010.90851        23.89800        16.25217
     2010.91123        27.82141        13.79123
     2010.91208        26.55971        16.02275
     2010.91682        20.54163        15.45748
     2010.92219        14.03425        14.31747
     2010.92402        23.25525         9.71015
     2010.92654        12.73012        22.40513
     2010.93057        19.40409        21.47089
     2010.93332        35.01459        18.60314
     2010.93487        44.32283        20.11684
     2010.94685        17.47748        14.23706
     2010.94784        11.64216        12.82624
     2010.95242        -4.72335        30.42892
     2010.95513        29.09904        16.66016
     2010.95687        23.29079        11.11624
     2010.95961        17.39625         9.71606
     2010.96223        33.33138        12.60037
     2010.97436         8.27044        18.64098
     2010.97604        18.73901        13.54407
     2010.97981        11.82228        19.26420
     2010.98151        22.48193        15.37825
     2010.98295        15.27186        59.38435
     2010.99620        -1.36104        15.20796
     2010.99794        27.04970        10.52022
     2011.00342        26.23962        10.65148
     2011.00616        26.71308         9.04081
     2011.00889        23.77454         8.34900
     2011.01163        29.32601         9.20992
     2011.01437        23.83947        10.61364
     2011.01711        21.26193         8.95330
     2011.01984        19.48539         8.76409
     2011.02258        15.55585         8.34545
     2011.02532        15.71631        11.72999
     2011.02741        24.80301        11.23804
     2011.03178       -14.48510       101.46640
     2011.04543        18.59312        14.33403
     2011.04717        30.18484        12.56371
     2011.05088         4.37596        14.29146
     2011.05270        17.29492         8.38448
     2011.05544        16.81838         8.98641
     2011.05817        15.22384        10.77565
     2011.06091        28.73330         8.22365
     2011.06365        34.66377        11.58454
     2011.06639        14.05523         8.67421
     2011.06913        17.78669         9.21820
     2011.07186        23.91115         9.63328
     2011.07460        16.45361         7.88543
     2011.07734        20.47707         7.80620
     2011.08008        21.57853         9.79175
     2011.08282        12.45899         8.82440
     2011.08556        15.12047         9.21228
     2011.08829        19.89391         7.91854
     2011.09103        13.47138         8.28041
     2011.09377        21.82984         8.39985
     2011.09639        -5.82503        10.92702
     2011.10015        13.69223        14.64741
     2011.10198        16.18322         8.07583
     2011.10469        27.61360        11.22740
     2011.10836        18.42362        14.34113
     2011.11019        19.26160         8.14560
     2011.11293        20.91906         8.02261
     2011.11567        13.63653        10.52022
     2011.11841        32.94199        10.21156
     2011.12110        37.89233        18.57121
     2011.12758        23.14699        15.47167
     2011.12924        26.87849        36.44943
     2011.13300        14.79375        14.18148
     2011.13460        38.31012        13.54643
     2011.13856        15.19591        15.21860
     2011.14031        23.87367        12.24678
     2011.14302        19.05306        11.00980
     2011.14680         1.67236        17.37089
     2011.15220        31.04708        14.79287
     2011.15400        19.44998        12.62521
     2011.15674        19.80444        10.58762
     2011.15941        20.63373         9.63683
     2011.16323        26.21415        21.65301
     2011.16495         9.08982        11.71817
     2011.16769         3.83628        12.79550
     2011.17043        21.77575        13.27799
     2011.17296        -2.68235        13.73446
     2011.17685         0.75625        15.18430
     2011.17864        16.97713        10.29434
     2011.18134        12.99247        11.84943
     2011.18500        11.50646        15.17603
     2011.18671         2.05511        12.85817
     2011.19060        19.71572        17.12373
     2011.19233        21.87743        11.03582
     2011.19487        32.07035        14.08451
     2011.19875        18.07193        15.32858
     2011.19934        25.44353        22.71496
     2011.20430         8.07005        32.94308
     2011.20697        10.69834        17.75405
     2011.20876         7.32220        21.49927
     2011.21149        17.48166        13.41280
     2011.21423         7.63912        12.56844
     2011.21697        23.98058        14.13654
     2011.21971        25.98404        11.04173
     2011.22245        20.49651        10.91283
     2011.22509         6.08471        23.17499
     2011.22795        17.81951        16.59512
     2011.23066        19.39189        16.32549
     2011.23707         8.32436        14.95843
     2011.23883         9.51314        10.85607
     2011.24254        14.63626        15.32740
     2011.24435        14.50919        11.83170
     2011.24709        10.24667         9.16025
     2011.24982         8.68612         9.11295
     2011.25256        12.21958        11.17655
     2011.25530         9.91004         9.51029
     2011.25804        16.69450        13.07577
     2011.26072        19.57382        11.11032
     2011.26442        17.69188        13.93550
     2011.26625        16.56588        12.94450
     2011.26899        14.86134         9.66994
     2011.27173        15.32480        13.98635
     2011.27544        35.52092        17.01139
     2011.27720        21.94573        12.01499
     2011.27994        11.37419        10.65858
     2011.28268        18.73965        13.59847
     2011.28534         4.64789        13.17629
     2011.28901         1.55490        16.68027
     2011.29178        23.65844        14.07386
     2011.29363        25.45249        13.33712
     2011.29637        17.12495        10.07911
     2011.29911        18.52841        10.11577
     2011.30184        17.66688        14.80115
     2011.30458        10.26034        10.20683
     2011.30732        22.48580         9.87689
     2011.31006        15.12126        12.07767
     2011.31271         3.50149        24.34929
     2011.31644        19.02465        14.06440
     2011.31827        12.36164        12.32483
     2011.32101         1.40710        10.35111
     2011.32375        24.68256        14.10816
     2011.32648         2.92202        11.82460
     2011.32923        -4.01250        10.16781
     2011.33196        10.86895        10.16071
     2011.33470        -0.90659        11.37995
     2011.33744         8.72987        10.79221
     2011.34017        19.32433        10.80877
     2011.34289        10.17973        13.99936
     2011.34660        27.68984        16.73821
     2011.34839         6.97671        13.21176
     2011.35112        27.54317        14.57409
     2011.35386        20.27464        11.88964
     2011.35660        12.58810        11.77611
     2011.35934        10.36956        13.98044
     2011.36208        10.03502        11.91093
     2011.36481        -1.10452        11.61055
     2011.36755        15.55694        12.84871
     2011.37029        17.02240        13.52988
     2011.37303        29.31186        18.31932
     2011.37577         9.89132        13.45538
     2011.37850        10.31478        13.47075
     2011.38124        13.50425        13.29454
     2011.38398        19.70971        12.23850
     2011.38672        16.08617        13.80187
     2011.38945        19.89863        12.53060
     2011.39219        25.67509        13.38206
     2011.39480        -6.57280        21.11966
     2011.39865        19.95468        18.68592
     2011.40133        23.42200        14.54926
     2011.40314        19.70093        13.14909
     2011.40588        11.80739        11.82460
     2011.40858        28.20974        15.59348
     2011.41136        38.30632        20.30250
     2011.41410        17.83479        14.99746
     2011.41683        25.99424        13.10060
     2011.41957        16.46870        12.54124
     2011.42223         6.50794        14.83781
     2011.42601        30.81424        52.66139
     2011.42873        35.24866        15.43856
     2011.43052        25.68554        14.80943
     2011.43326        17.79001        14.29855
     2011.43600        12.29247        14.09515
     2011.43874        11.08593        13.85627
     2011.44147        19.31939        12.92676
     2011.44515        19.61840        15.46221
     2011.44695        15.24531        13.89884
     2011.44969        14.58377        14.38252
     2011.45243         3.77823        14.86501
     2011.45516         3.75769        13.00127
     2011.45790        14.34215        14.39907
     2011.46061       -10.97745        17.07998
     2011.46434         2.31769        14.87329
     2011.46611         6.19054        14.93005
     2011.46885         3.34000        14.96435
     2011.47159        -4.48754        15.60412
     2011.47433         7.61392        13.92368
     2011.47707        13.42738        13.88938
     2011.47980        19.61284        13.73210
     2011.48254        -0.49970        13.61502
     2011.48528        13.34976        14.56227
     2011.48776        33.87553        22.46071
     2011.49164        28.14711        17.52581
     2011.49445        13.66876        14.56818
     2011.49624        10.74562        14.41090
     2011.49897        11.62207        14.81298
     2011.50171         9.95853        14.52679
     2011.50444       -13.27201        14.48422
     2011.50718         9.02545        14.10343
     2011.50992         2.36691        15.23043
     2011.51266         9.64538        14.72546
     2011.51540        -1.29516        14.06795
     2011.51813        16.60430        13.65996
     2011.52087        15.55676        13.12071
     2011.52361        11.17722        13.09942
     2011.52634        29.40167        16.22616
     2011.53003         7.65371        13.62685
     2011.53182        13.59660        13.04739
     2011.53456        17.66206        12.99299
     2011.53730         8.33252        12.40761
     2011.54004         7.52999        18.04141
     2011.54644         4.48845        14.27372
     2011.54825         6.49737        13.20467
     2011.55099        -4.31917        12.58027
     2011.55373         7.90629        12.91848
     2011.55646        -0.48125        12.97998
     2011.55920        10.77721        13.06985
     2011.56194         9.96767        13.09351
     2011.56468         5.93713        12.56253
     2011.56741        24.98860        12.09186
     2011.57015        -0.03394        13.04857
     2011.57289        27.83152        12.81915
     2011.57563        30.68398        12.15454
     2011.57837        31.49044        12.47502
     2011.58111        29.84491        12.30354
     2011.58384         2.53436        12.35913
     2011.58658        14.20882        12.38041
     2011.58932       -23.10372        13.04620
     2011.59206        14.39375        12.34493
     2011.59479        13.46021        12.00672
     2011.59753        19.14067        11.84470
     2011.60027        37.74813        12.28226
     2011.60301        16.42359        11.76784
     2011.60563        27.47574        30.23380
     2011.60941         0.00104        38.67977
     2011.61210        21.06137        44.82326
     2011.61482       -30.06122        62.48034
     2011.61764        12.65146        59.86093
     2011.62037        -7.86309        88.63424
     2011.62305         9.31821        79.74480
     2011.62582        39.72275       102.80507
     2011.62850        73.11007       112.00553
     2011.63130        34.09869        75.83874
     2011.63402       -12.78790        77.89525
     2011.63683       -14.69324        73.63678
     2011.63951        48.43906        92.78627
     2011.64219        22.22636       136.94020
     2011.64493        30.61282        97.46100
     2011.64768       -47.41566       114.25125
     2011.65040        23.20775       127.63094
     2011.65589        -4.96829        94.16398
     2011.65863       -21.40682       123.47418
     2011.66142        87.65677        97.23631
     2011.68859       -18.09418       116.80917
     2011.69127        -4.00888       169.52732
     2011.70240        28.00545       575.13204
     2011.76560       -41.57133        17.60622
     2011.76728        -0.40075         7.78491
     2011.76993        10.25949         8.19763
     2011.77275        13.34717         8.13496
     2011.77549         3.21363         7.94338
     2011.77823         0.11510         7.94693
     2011.78097         0.93856         7.93628
     2011.78371         1.60902         7.96230
     2011.78644        12.97648         8.00132
     2011.78918        -8.33806         7.85705
     2011.79192         3.59140         7.94811
     2011.79466         2.50586         7.84995
     2011.79739        13.43832         7.80502
     2011.80013         8.89778         7.81921
     2011.80287         2.81424         7.95520
     2011.80561         2.59671         7.68439
     2011.80835         0.80417         7.70331
     2011.81108         3.50863         7.71159
     2011.81382         2.78909         7.69149
     2011.81656         1.53755         7.95520
     2011.81930         2.41601         7.67493
     2011.82203         1.77447         7.69385
     2011.82477        -6.27307         7.82630
     2011.82751        -5.38261         7.68912
     2011.83025        -1.89214         7.73524
     2011.83299        -6.89568         7.67020
     2011.83572        -3.68522         7.67730
     2011.83846         8.04524         7.64419
     2011.84120         6.19870         7.45852
     2011.84394         7.80816         7.62881
     2011.84668         4.39362         7.81093
     2011.84941        -1.61892         7.66429
     2011.85215        -2.20246         7.61817
     2011.85489         1.77100         7.74116
     2011.85763         1.62547         7.82867
     2011.86036        11.97793         7.80383
     2011.86310         6.25839         7.84995
     2011.86584         4.03485         7.76126
     2011.86858         0.70131         7.70450
     2011.87132         0.01777         7.68912
     2011.87405         2.14423         7.62408
     2011.87679        -1.93331         7.82394
     2011.88227        10.11961         7.62408
     2011.88501         7.61908         7.56732
     2011.88774        -3.60146         7.77309
     2011.89048         2.19300         7.80265
     2011.89322         8.52846         7.77190
     2011.89596         4.79992         7.62526
     2011.89869         6.47738         7.64419
     2011.90143        -2.26116         7.59688
     2011.90417        -6.75670         7.66784
     2011.90691         3.80976         7.63473
     2011.90965        -2.73778         7.58860
     2011.91238         3.34069         7.85468
     2011.91512        -0.38185         7.61580
     2011.91786         7.87361         7.86888
     2011.92060        -7.35593         7.62763
     2011.92334         0.06953         7.63827
     2011.92607        -3.34401         7.62881
     2011.92881         4.68645         7.79437
     2011.93155         7.25591         7.75771
     2011.93429         7.52937         7.78491
     2011.93702         9.06984         7.63946
     2011.93976        10.54530         7.66902
     2011.94250        18.58476         7.63827
     2011.94524         3.75922         7.61226
     2011.94798         5.37968         7.60753
     2011.95071        11.98714         7.64300
     2011.95345         9.36260         7.68558
     2011.95619         5.42306         7.74944
     2011.95893         6.38552         7.61226
     2011.96167        13.29698         7.57678
     2011.96440         5.34945         7.54367
     2011.96714         7.25891         7.63473
     2011.96988        11.55137         7.62053
     2011.97262         4.31683         7.54485
     2011.97535         1.93629         7.54130
     2011.97809        -5.37925         7.66547
     2011.98083         3.81821         7.73879
     2011.98357         8.88667         7.56259
     2011.98631         6.98413         7.52238
     2011.98904         4.53159         7.60871
     2011.99178         6.83406         7.59925
     2011.99452        10.72052         7.69385
     2011.99726        11.35298         7.56732
     2012.00273         9.01090         7.65010
     2012.00547        10.67936         7.59925
     2012.00821         5.73982         7.55431
     2012.01095         9.89728         7.56259
     2012.01368        11.44974         7.54012
     2012.01642        11.08721         7.48099
     2012.01916        11.57267         7.50109
     2012.02190        10.10313         7.55431
     2012.02464         5.30759         7.65719
     2012.02737         4.30105         7.45852
     2012.03011        11.71651         7.47153
     2012.03285         8.91097         7.53775
     2012.03559         4.77443         7.64064
     2012.03833         5.87589         7.66429
     2012.04106         1.62635         7.43842
     2012.04380         3.21382         7.43723
     2012.04654        15.47628         7.73997
     2012.04928        16.88774         7.72697
     2012.05201         6.00720         7.76126
     2012.05475         9.27766         7.86769
     2012.05749         7.79012         7.58979
     2012.06023         7.38858         7.70331
     2012.06297         3.83304         7.73997
     2012.06570         9.05250         7.73524
     2012.06844        -0.83604         7.73761
     2012.07118        -1.62957         7.57914
     2012.07392         5.53189         7.65128
     2012.07666         0.23035         7.79910
     2012.07939        11.45781         7.67139
     2012.08213        10.28327         7.83340
     2012.08487         1.70273         7.63118
     2012.08761        11.60019         7.66192
     2012.09034        13.76265         7.77309
     2012.09308        11.19511         7.67730
     2012.09582         5.80058         7.62526
     2012.09856         8.28504         7.68912
     2012.10130         5.23250         7.93865
     2012.10403        11.13496         7.65483
     2012.10677         6.51842         7.85705
     2012.10951        14.89488         7.85587
     2012.11225         6.53534         7.73051
     2012.11498         1.41580         7.61226
     2012.11772         5.36526         7.55667
     2012.12046        10.92672         7.55786
     2012.12320         7.66819         7.56259
     2012.12594         3.66365         7.61699
     2012.12867        -4.67189         7.60280
     2012.13141        -1.65543         7.57205
     2012.13415         8.03403         7.53657
     2012.13689         4.07049         7.48809
     2012.13963         6.04695         7.69149
     2012.14236        -3.43959         7.96703
     2012.14510         0.77287         7.56968
     2012.14784        -1.05567         7.54721
     2012.15058         2.64180         7.60753
     2012.15331        -7.60274         7.52829
     2012.15605         2.45972         7.63946
     2012.15879        -5.38682         7.66429
     2012.16153         2.51364         7.54248
     2012.16427        -4.30090         7.67730
     2012.16700        -2.20344         7.67730
     2012.16974        -0.71698         7.68676
     2012.17248         4.69348         7.48217
     2012.17792         3.65430         7.69740
     2012.18069        -2.50813         7.71987
     2012.18343        -2.53267         7.62645
     2012.18617         2.05679         7.61580
     2012.18891        -5.22375         7.62526
     2012.19164         4.72871         7.51647
     2012.19438         0.66317         7.49873
     2012.19712         1.93963         7.54012
     2012.19986        -3.83391         7.64892
     2012.20260         0.70156         7.66665
     2012.20533         4.83202         7.50701
     2012.20807        14.32348         7.50937
     2012.21081         2.04894         7.23265
     2012.21355        -0.03860         7.22201
     2012.21629         2.10686         7.24329
     2012.21902         0.93132         7.44788
     2012.22176         3.62678         7.64300
     2012.22450        -8.61676         7.60398
     2012.22724        -4.68730         7.62053
     2012.22997         0.76217         7.58506
     2012.23271         3.62863         7.60753
     2012.23545         6.11209         7.42068
     2012.23819        -0.55245         7.61935
     2012.24093        -2.07199         7.52829
     2012.24366        13.04647         7.61817
     2012.24640         6.22693         7.70213
     2012.24914        -6.24661         7.52593
     2012.25188        -4.41315         7.61580
     2012.25462        -7.01768         7.70568
     2012.25735        -3.56922         7.75298
     2012.26009       -12.81576         7.60634
     2012.26283        -1.65230         7.55313
     2012.26557        -6.48684         7.55786
     2012.26830       -11.16138         7.96230
     2012.27104        -4.79092         7.80975
     2012.27378        -2.19546         7.57441
     2012.27652         0.83300         7.61462
     2012.27926         4.21346         7.84404
     2012.28199        -4.50807         7.60161
     2012.28473        -6.93661         7.56495
     2012.28747        -0.28315         7.69267
     2012.29021        -4.85069         7.74234
     2012.29295        -9.12723         7.55667
     2012.29568        -5.92177         7.68794
     2012.29842        -9.29031         7.52711
     2012.30116        -9.84185         7.74589
     2012.30390       -11.20339         7.31188
     2012.30663        -1.13193         7.45616
     2012.30937         1.93054         7.50109
     2012.31211        12.06300         7.87834
     2012.31485         3.58346         7.95166
     2012.31759        -5.03608         7.57441
     2012.32032        -1.27962         7.79910
     2012.32306        -2.95616         7.58269
     2012.32580        -7.98370         7.53775
     2012.32854         1.81676         7.95166
     2012.33128        -6.17178         7.66311
     2012.33401        -2.32631         7.64300
     2012.33675        -5.07085         7.58151
     2012.33949        -1.15739         7.64537
     2012.34223        -7.25893         7.41713
     2012.34496        -8.63747         7.53421
     2012.34770        -5.70401         7.69031
     2012.35044        -1.70655         7.40530
     2012.35318        -6.02709         7.54012
     2012.35592        -2.61563         7.39111
     2012.35865       -11.33017         7.38993
     2012.36139        -2.56370         7.45379
     2012.36413        -3.05024         7.49636
     2012.36687        -1.83378         7.43960
     2012.36961        -4.38732         7.51528
     2012.37234         6.86714         7.54367
     2012.37508         4.09160         7.56614
     2012.37782        -3.83294         7.65246
     2012.38056        -7.79748         7.47035
     2012.38329        -2.91602         7.64300
     2012.38603        -4.10656         7.72342
     2012.38877        -2.68809         7.95639
     2012.39151        -3.81763         7.73051
     2012.39425        -1.18217         7.63118
     2012.39698       -11.15471         7.66902
     2012.39972        -2.70925         7.64300
     2012.40246         1.47621         7.57678
     2012.40520        -9.57833         7.58979
     2012.40794        -5.32787         7.47271
     2012.41067        -4.68941         7.67257
     2012.41275        -7.30375        11.10441
     2012.41615         4.03352         7.72105
     2012.41889        -6.47102         7.89726
     2012.42162       -10.07356         7.62408
     2012.42436         0.80590         7.72815
     2012.42710         7.27136         7.78491
     2012.42984         2.78682         7.74944
     2012.43258        -1.72172         7.83103
     2012.43531        -6.04126         7.74944
     2012.43805        -2.13780         7.64892
     2012.44079       -11.22333         7.65128
     2012.44353       -13.13687         7.58033
     2012.44626         8.07359         7.63946
     2012.44900        -4.12495         7.87361
     2012.45174        -3.25949         7.60161
     2012.45448        -5.86303         7.60634
     2012.45722        -3.88757         7.65246
     2012.45995        12.52689         8.06991
     2012.46269        -4.29765         7.70568
     2012.46543        -8.63519         7.81093
     2012.46817        -5.56472         7.60398
     2012.47091        -9.15626         7.57678
     2012.47364        -6.93880         7.70213
     2012.47638        -7.07334         7.62881
     2012.48186        -9.95442         7.74944
     2012.48459        -7.20996         7.60516
     2012.48733       -10.48250         7.62645
     2012.49007         2.93296         7.57796
     2012.49281         3.34043         7.80975
     2012.49555        -6.20811         7.76244
     2012.49828        -2.36765         7.89962
     2012.50102        -6.38719         7.67612
     2012.50376        -4.58573         7.52238
     2012.50650        -1.45627         7.73406
     2012.50924         0.26219         7.74116
     2012.51197        -1.08335         7.86888
     2012.51471        -0.13489         7.96466
     2012.51745         3.42157         7.74352
     2012.52019        10.94104         7.80738
     2012.52292        -0.83450         7.62290
     2012.52566        -0.51404         7.62763
     2012.52840        -0.98858         7.84404
     2012.53114         1.76188         7.70450
     2012.53388         7.97634         7.77427
     2012.53661         0.96980         7.71041
     2012.53935        -6.47874         7.75062
     2012.54209         6.48472         7.71278
     2012.54483         2.06418         7.75298
     2012.54757         6.56765         7.99778
     2012.55030         2.56711         7.66074
     2012.55304        -0.66943         7.79201
     2012.55578         3.91803         7.70804
     2012.55852        -5.22051         7.91381
     2012.56125        -4.65205         7.71278
     2012.56399         4.25641         7.84641
     2012.56673         6.67787         7.80738
     2012.56947        -2.98467         7.75062
     2012.57221         4.33980         7.65365
     2012.57494        -3.42974         7.73524
     2012.57768         0.12272         7.60753
     2012.58042         7.65918         7.64773
     2012.58316        -4.56936         7.65128
     2012.58863         4.36856         7.65601
     2012.59137        -4.04198         7.70686
     2012.59411         3.25448         7.77900
     2012.59685        -0.27906         7.76717
     2012.60232        -8.81913         7.80502
     2012.60506         7.90633         7.71987
     2012.60780         9.80279         7.80502
     2012.61054         8.27625         7.80738
     2012.61327        -3.56329         7.70686
     2012.61601         2.04517         7.78491
     2012.61875         4.65563         7.67020
     2012.62149         3.05409         7.67375
     2012.62423         7.41455         7.75653
     2012.62696         6.33102         7.69267
     2012.62970         8.30848         8.34900
     2012.63244        -1.75306         7.59452
     2012.63518         0.49640         7.61580
     2012.63791         2.04386         7.68321
     2012.64065        10.52932         7.67139
     2012.64339        12.32478         7.70804
     2012.64613         1.07224         7.58033
     2012.64827        -2.37692        10.21275
     2012.65160        10.49117         7.61226
     2012.65434        -0.22937         7.62881
     2012.65708        12.66209         7.70213
     2012.65982         6.09855         7.81093
     2012.66256         5.25701         7.58151
     2012.66529         2.81447         7.61462
     2012.66803         9.14093         7.55904
     2012.67077        -0.36361         7.66665
     2012.67351         2.23485         7.65719
     2012.67624         0.75031         7.69149
     2012.67898         7.39778         7.61817
     2012.68089       -11.42203        12.87709
     2012.68446         3.07770         7.93628
     2012.68720         3.63516         7.83458
     2012.68993        10.40162         7.93155
     2012.69267         6.52008         7.78373
     2012.69541         4.34654         7.82157
     2012.69815        -2.88400         7.76599
     2012.70089        -3.21254         7.59333
     2012.70362        -1.80908         7.72578
     2012.70636         1.72139         7.82039
     2012.70910         4.43885         7.66784
     2012.71184        -1.14169         7.68321
     2012.71457        -2.06123         7.63118
     2012.71731         1.04123         7.73643
     2012.72005        10.45169         7.74707
     2012.72279         9.42915         7.86888
     2012.72553         6.67161         7.83931
     2012.72826         9.27607         7.93037
     2012.73100         4.92254         7.82039
     2012.73374         6.62200         7.89016
     2012.73648         4.11646         7.65365
     2012.73921         5.57092         7.93510
     2012.74195        12.48638         7.82630
     2012.74469         4.73284         7.71514
     2012.74743         8.38030         7.61344
     2012.75017        -3.83024         7.57087
     2012.75290         5.89122         7.64655
     2012.75564         6.49368         7.57678
     2012.75838         0.44615         7.64892
     2012.76112         8.48961         7.71159
     2012.76386         1.29107         7.53302
     2012.76659         8.94653         7.68321
     2012.76933         7.24099         7.68912
     2012.77207         6.18145         7.69858
     2012.77481         4.24291         7.58506
     2012.77754         3.19237         7.49636
     2012.78028         7.94283         7.64419
     2012.78302         6.55829         7.64182
     2012.78576         3.23276         7.48572
     2012.78850         3.75222         7.64537
     2012.79123         5.10268         7.67375
     2012.79397         4.81514         7.69504
     2012.79671         1.58660         7.49282
     2012.79945         5.23606         7.74825
     2012.80219        12.95952         7.87597
     2012.80492         6.00898         7.55667
     2012.80766         0.55744         7.63473
     2012.81040        -0.37910         7.65838
     2012.81314        -4.81963         7.56141
     2012.81587        -5.70317         7.54603
     2012.81861         1.07229         7.77072
     2012.82135        -3.73225         7.69385
     2012.82409         0.86821         7.71869
     2012.82683        -3.23833         7.75417
     2012.82956         0.79713         7.67493
     2012.83230        -8.39541         7.44670
     2012.83504         1.92605         7.66429
     2012.83778         1.68152         7.66192
     2012.84052         7.08498         7.66074
     2012.84325        -0.06956         7.84049
     2012.84599         5.51990         7.78964
     2012.84873        -4.42164         7.72578
     2012.85147        11.12182         7.85587
     2012.85420        11.59928         7.68321
     2012.85694        -1.54826         7.75417
     2012.85968        -3.12980         7.73524
     2012.86242        -4.68234         7.48927
     2012.86516         8.74813         7.58742
     2012.86789         9.20359         7.84995
     2012.87063        -0.51795         7.61462
     2012.87337        -3.47249         7.87834
     2012.87611         6.94597         7.63236
     2012.87885         1.56743         7.63946
     2012.88158         4.76289         7.66311
     2012.88432         2.77435         7.81566
     2012.88706         6.69481         8.12431
     2012.88980         5.41927         8.06164
     2012.89253         1.20874         7.82749
     2012.89527         5.02720         7.87006
     2012.89801        -3.18434         7.94811
     2012.90075         9.76312         7.78255
     2012.90349         2.07658         7.81921
     2012.90622         8.25304         7.88425
     2012.90896         8.18150         7.94811
     2012.91170        -7.76904         7.72342
     2012.91444        -0.10358         7.60634
     2012.91718        10.49889         7.57560
     2012.91991        12.03135         7.56022
     2012.92265         7.94381         7.52829
     2012.92539         1.96227         7.44078
     2012.92813         5.68273         7.56141
     2012.93086        -5.33981         7.81093
     2012.93360        -4.54035         7.73524
     2012.93634        -6.67889         7.54485
     2012.93908        -4.85643         7.49636
     2012.94182        -1.00497         7.54603
     2012.94455         0.84650         7.57441
     2012.94729         3.71296         7.75062
     2012.95003         2.67442         7.72460
     2012.95277         6.03888         7.60871
     2012.95551         9.20534         7.47153
     2012.95824         6.51780         7.70804
     2012.96098         7.22926         7.76363
     2012.96372        -0.29528         7.70804
     2012.96646         4.61018         7.55786
     2012.96919         7.55164         7.61462
     2012.97193       -11.70689         7.58387
     2012.97467        10.45957         7.60398
     2012.97741         1.80003         7.61107
     2012.98015         0.92249         7.62881
     2012.98288        -0.80205         7.47153
     2012.98562         2.87641         7.43842
     2012.98836        -3.03713         7.38757
     2012.99110        -1.90567         7.46443
     2012.99384        -6.17521         7.55076
     2012.99657        -1.13374         7.53066
     2012.99931        -3.41228         7.56141
     2013.00205         1.12618         7.42896
     2013.00479         3.26564         7.50819
     2013.00752        -4.73890         7.54012
     2013.01026         1.09356         7.54130
     2013.01300         4.11802         7.61580
     2013.01574        -7.38952         7.56022
     2013.02121        -3.41960         7.61580
     2013.02395        -8.09313         7.75535
     2013.02669        -0.46167         7.85232
     2013.02943       -13.76621         7.64419
     2013.03216        -5.20575         7.57205
     2013.03490        -6.16329         7.69622
     2013.04585         2.42955         7.78255
     2013.04859        -1.09599         7.73761
     2013.05133        -6.64452         7.54248
     2013.05407        -2.70506         7.58624
     2013.05681        -2.05260         7.66311
     2013.05954        -4.72614         7.69149
     2013.06228        -9.32868         7.80738
     2013.06502         3.49978         7.77427
     2013.06776        -0.77876         7.73524
     2013.07049         0.34570         7.90790
     2013.07323         5.62916         7.58506
     2013.07597        -7.47937         7.57205
     2013.07871        -6.33991         7.55313
     2013.08145         0.92055         7.55194
     2013.08418        -6.19699         7.59925
     2013.08692        -3.61053         7.45616
     2013.08966        -8.48107         7.43723
     2013.09240        -4.90461         7.53775
     2013.09514         1.31485         7.53657
     2013.09787         6.24931         7.88425
     2013.10061        -3.53123         8.10657
     2013.10335        -4.99276         7.49755
     2013.10609       -10.67630         7.41595
     2013.10882        -7.16184         7.36628
     2013.11156       -14.33338         7.56495
     2013.11430        -8.24492         7.54958
     2013.11704        -7.75846         7.61580
     2013.11978        -4.88200         7.70095
     2013.12251       -12.42654         7.42777
     2013.12525       -12.31408         7.52002
     2013.12799        -9.09362         7.52948
     2013.13073        -7.61915         7.49400
     2013.13347         1.54631         7.74825
     2013.13620        -1.95123         7.50701
     2013.13894        -2.68377         7.42659
     2013.14168        -9.31631         7.61226
     2013.14442        -2.18385         7.95639
     2013.14715        -9.49839         7.80856
     2013.14989       -12.67593         7.50464
     2013.15263        -6.62247         7.49873
     2013.15537       -18.00800         7.56614
     2013.15811       -12.67554         7.50346
     2013.16084       -20.47108         7.47862
     2013.16632        -9.13916         7.53421
     2013.16906        -3.49370         7.76244
     2013.17180        -1.65324         7.53657
     2013.17453        -7.98578         7.62172
     2013.17727       -13.50232         7.74707
     2013.18001       -15.29986         7.64064
     2013.18275       -10.49339         7.41358
     2013.18548        -6.49293         7.47862
     2013.18822        -8.42047         7.55549
     2013.19096        -9.21401         7.55431
     2013.19370        -9.26355         7.63236
     2013.19644        -7.35209         7.55431
     2013.19917        -4.13663         7.56377
     2013.20191         0.28783         7.65483
     2013.20465        -1.45671         7.67375
     2013.20739        -4.84025         7.53657
     2013.21013        -0.53178         7.56614
     2013.21286        -9.82132         7.54248
     2013.21560        -3.54286         7.79792
     2013.21834        -0.48540         7.60161
     2013.22108       -11.06294         7.58979
     2013.22381        -7.92448         7.65838
     2013.22655        -5.31202         7.64892
     2013.22929       -11.17956         7.55313
     2013.23203        -5.45110         7.53775
     2013.23477         0.39837         7.73051
     2013.23750        -3.29117         7.59333
     2013.24024        -9.16671         7.57914
     2013.24298        -8.95525         7.54721
     2013.24572        -0.47779         7.64892
     2013.24846       -16.22033         7.74116
     2013.25119        -4.52587         7.48217
     2013.25393        -3.54141         7.42304
     2013.25667        -8.87895         7.67257
     2013.25941        12.54951         7.54721
     2013.26214        -2.65302         7.59097
     2013.26488        -7.37956         7.43369
     2013.26762        -8.09210         7.52593
     2013.27036        -3.78764         7.33080
     2013.27310        -5.94818         7.98595
     2013.27583         3.02828         7.66902
     2013.27857        -0.96826         7.87952
     2013.28131         5.89720         7.53066
     2013.28405         4.76166         7.53539
     2013.28679        -0.04288         7.58151
     2013.28952        -3.99941         7.55076
     2013.29226        -9.63695         7.56968
     2013.29500        -8.85549         7.46798
     2013.29774       -10.06703         7.71041
     2013.30047       -10.55557         7.53302
     2013.30321        -7.90011         7.63236
     2013.30595       -16.11865         7.56968
     2013.30869        -9.47819         7.48927
     2013.31143        -4.93373         7.54958
     2013.31416        -4.44726         7.55194
     2013.31690         1.02720         7.65956
     2013.31964        -7.81234         7.46798
     2013.32238        -5.32388         7.50109
     2013.32512        -0.85342         7.68321
     2013.32785        -6.60696         7.44551
     2013.33059        -8.59150         7.42304
     2013.33333        -9.55904         7.40767
     2013.33607        -5.92658         7.46207
     2013.33880        -5.52212         7.44906
     2013.34154         1.48535         7.51174
     2013.34428        -4.62319         7.61935
     2013.34702         7.80927         7.71396
     2013.34976        -2.97827         7.62645
     2013.35249         4.15319         7.63827
     2013.35523        -9.97835         7.71041
     2013.35797        -2.28189         7.65956
     2013.36071       -11.15643         7.51647
     2013.36344        -2.50297         7.67730
     2013.36618        -6.46851         7.69740
     2013.36892        -0.98404         7.50346
     2013.37166        -7.44058         7.56377
     2013.37440        -3.16812         7.50346
     2013.37713         0.33934         7.67375
     2013.37987        -5.61420         7.52120
     2013.38261       -13.21774         7.49282
     2013.38535         7.03072         7.89253
     2013.38809        -6.54182         7.57441
     2013.39082        -2.54836         7.50937
     2013.39356        -5.67989         7.44670
     2013.39630        -4.79843         7.53066
     2013.39904         0.01103         7.52948
     2013.40177       -11.71351         7.70331
     2013.40451        -6.00405         7.56022
     2013.40725         3.85641         7.80975
     2013.40999         0.74487         7.48217
     2013.41273        -5.92767         7.54721
     2013.41546         3.93879         7.68676
     2013.41820        -2.34975         7.55431
     2013.42094        -0.07028         7.53657
     2013.42368        -6.20782         7.51174
     2013.42642        -2.09936         7.55431
     2013.42915         4.42610         7.52120
     2013.43189        -0.55944         7.64182
     2013.43463        -4.90098         7.50701
     2013.43737         0.65948         7.44315
     2013.44010        -4.42106         7.64419
     2013.44284        -2.88260         7.60161
     2013.44558         1.31786         7.89489
     2013.44832        -9.77467         7.42304
     2013.45106        -7.81721         7.50346
     2013.45379        -1.60775         7.55904
     2013.45653        -8.47829         7.59333
     2013.45927         1.29217         7.74352
     2013.46201        -5.17637         7.57205
     2013.46475         3.13709         7.47035
     2013.46748        -3.64145         8.73925
     2013.47570       -18.67006         7.49400
     2013.47843       -16.80760         8.71087
     2013.48117         0.08186         7.64300
     2013.48391        -2.24568         7.60043
     2013.48665       -12.76622         7.48454
     2013.48939        -5.60976         7.55431
     2013.49212        -5.33130         7.59333
     2013.49486        -6.78284         7.73524
     2013.49760         5.77362         7.84404
     2013.50034        -6.88991         7.61226
     2013.50308        -3.05245         7.62881
     2013.50581        -0.98999         7.46325
     2013.50855        -8.07653         7.55667
     2013.51129        -2.36507         7.42777
     2013.51403        -5.63061         7.62408
     2013.51676        -1.34515         7.56614
     2013.51950        -2.01569         7.52948
     2013.52224        -0.20923         7.45852
     2013.52498         9.77023         7.88425
     2013.52772        -3.19930         7.75771
     2013.53045        -1.84884         7.65601
     2013.53319       -11.13138         7.68912
     2013.53708         4.33821        26.26270
     2013.53867         2.18554         7.87597
     2013.54141        -2.41700         7.83576
     2013.54414        -2.76654         7.91145
     2013.54688        -0.87208         7.70804
     2013.54962         2.15138         7.72105
     2013.55236         2.81885         7.75417
     2013.55509         2.85731         7.65601
     2013.55783         1.63577         7.60280
     2013.56057         0.67623         7.96703
     2013.56331        -8.22231         7.93983
     2013.56605         5.60515         7.83931
     2013.56878         1.07761         7.82512
     2013.57152         8.63707         7.96466
     2013.57426        10.06053         7.75417
     2013.57700         5.22099         7.85823
     2013.57974         9.42546         7.91263
     2013.58247         8.11092         7.76836
     2013.58521         8.52738         7.79792
     2013.58795         7.10684         7.80147
     2013.59069        11.79530         7.67020
     2013.60164         5.96114         7.69149
     2013.60438         7.16060         7.82867
     2013.60711         6.82707         8.23666
     2013.60985         3.02253         7.68912
     2013.61259         3.68699         7.72578
     2013.61533         8.44245         7.92446
     2013.61807        11.43791         7.78964
     2013.62080        17.19337         7.74116
     2013.62354         2.49583         7.67730
     2013.62628         2.22129         7.60280
     2013.62902        -3.44125         7.97649
     2013.63449        11.66268         7.99541
     2013.63723         7.04114         7.74470
     2013.63997        20.30260         8.17871
     2013.64271         5.68106         7.84759
     2013.64544        13.46752         7.78136
     2013.64818         2.10098         7.87834
     2013.65092        10.89744         7.73997
     2013.65366        11.93890         7.90317
     2013.65639        11.22636         7.78373
     2013.65913         0.64683         8.04508
     2013.66187         0.94729         7.81211
     2013.66461         6.16875         7.69504
     2013.66735        15.75121         7.72697
     2013.67008        11.04867         7.97886
     2013.67282        12.35313         8.13614
     2013.67556        16.77259         8.00842
     2013.67830         0.28905         7.68912
     2013.68104        15.24351         7.89253
     2013.68377         5.40397         7.68203
     2013.68651         2.19644         7.89607
     2013.68925         6.54490         7.71396
     2013.69199         6.01836         7.64892
     2013.73701       -25.40995        41.74146
     2013.73853         4.02420         7.46798
     2013.74127         6.06466         7.61226
     2013.74401         9.26813         7.63354
     2013.74674         6.07358         7.55076
     2013.74948        15.42104         7.56141
     2013.75222        -1.65150         7.62053
     2013.75496       -13.54804         7.52002
     2013.75770       -17.23058         7.37219
     2013.76043         0.19488         7.62999
     2013.76318         4.60136         7.44078
     2013.76591         6.84281         7.69031
     2013.76865        -2.10073         7.70686
     2013.77138        -4.22727         7.65956
     2013.77412         4.20719         7.78136
     2013.77686        -3.37435         7.91973
     2013.77960         3.33311         7.89607
     2013.78234        -8.04142         7.75653
     2013.78507       -12.41997         7.64537
     2013.78781       -13.24651         7.66902
     2013.79055        -0.36305         7.73761
     2013.79329        -1.86158         7.95047
     2013.79603        -8.67212         7.70213
     2013.79876        -7.62066         7.67375
     2013.80151         7.24681         7.88188
     2013.80424        -2.63274         7.73406
     2013.80698        -0.03628         7.66902
     2013.80971         1.59618         7.78255
     2013.81245         2.97464         7.68321
     2013.81519        -0.20190         7.67020
     2013.81793         1.25957         7.73997
     2013.82067        -1.98696         7.65483
     2013.82340        -7.07951         7.78255
     2013.82614         1.73895         7.84995
     2013.82888         3.21541         7.56850
     2013.83162         1.09887         7.75180
     2013.83436        -0.95167         7.92919
     2013.83709        -4.46421         8.02025
     2013.83984         4.19927         7.85823
     2013.84257        -2.58329         7.59097
     2013.84531        -1.61982         7.98477
     2013.84804         3.65964         7.94220
     2013.85078        -5.72190         7.88661
     2013.85352        -0.52344         8.04271
     2013.85626        -5.68798         7.82039
     2013.85900         2.81649         7.92327
     2013.86173         1.26394         7.91263
     2013.86447        -0.95760         7.98832
     2013.86721         1.24986         7.86415
     2013.86995         1.38732         7.74944
     2013.87269         4.32679         7.77072
     2013.87542        14.53925         7.85823
     2013.87817        14.84172         7.69385
     2013.88090        13.16217         7.76717
     2013.88364        12.67263         8.13023
     2013.88637       -19.91291         7.64892
     2013.88911       -23.38345         7.68794
     2013.89185       -10.03999         7.60871
     2013.89459       -12.94053         7.63354
     2013.89733        -1.02205         7.66547
     2013.90006        -5.90860         7.83576
     2013.90280        -9.46814         7.92800
     2013.90554         3.79032         7.77190
     2013.90828         6.99678         7.67612
     2013.91102        -3.30976         7.71278
     2013.91375         1.71270         8.11958
     2013.91650         2.78118         7.79319
     2013.91923        14.26062         7.98122
     2013.92197        -1.28592         7.91500
     2013.92470        -2.05145         7.66192
     2013.92744        -0.50699         7.86060
     2013.93018        -1.24353         7.63591
     2013.93292         0.10893         7.62881
     2013.93566        -0.77860         7.54603
     2013.93839         0.09685         7.51528
     2013.94113         1.09231         7.57796
     2013.94387        -1.23823         7.51055
     2013.94661         1.42123         7.72933
     2013.94935        -2.31631         7.51765
     2013.95208         4.04716         7.49991
     2013.95483        -0.84437         7.53775
     2013.95756        -0.27492         7.56259
     2013.96030         0.95154         7.63827
     2013.96303        -2.16500         7.61580
     2013.96577        -6.47354         7.58269
     2013.96851         4.11092         7.73879
     2013.97125        14.58938         7.72342
     2013.97399         8.48086         7.90790
     2013.97672        -3.49769         7.98359
     2013.97946        -4.34623         7.70331
     2013.98220         0.12123         7.76008
     2013.98494        -3.63731         7.62408
     2013.98767        -4.67485         7.89489
     2013.99041        -4.44539         7.63118
     2013.99316       -12.19292         7.73288
     2013.99589        -5.26347         7.70450
     2013.99863       -14.21001         7.69740
     2014.00410        -7.68208         7.77427
     2014.00684        -8.61462         7.82394
     2014.00958       -11.19716         7.67612
     2014.01232        -8.77969         7.83931
     2014.01505        -7.52124         7.91263
     2014.01779         6.15922         7.89844
     2014.02053         5.35368         7.77072
     2014.02327        -9.31486         7.96585
     2014.02600         3.79160         7.84522
     2014.02874        -5.98694         7.68439
     2014.03149         2.74254         7.62172
     2014.03422        -2.88701         7.77309
     2014.03696        -5.24055         7.65719
     2014.03969        -4.02209         7.60398
     2014.04243        -6.70963         7.84995
     2014.04517         1.33383         7.79201
     2014.04791         4.04629         7.79792
     2014.05065         0.33277         7.63236
     2014.05338        -2.42679         7.83695
     2014.05612        -8.06832         7.60043
     2014.05886       -13.79086         7.66547
     2014.06160       -13.46740         7.60634
     2014.06433        -9.74594         7.91500
     2014.06707        -3.60648         8.00960
     2014.06982         0.10699         7.68794
     2014.07255       -10.18756         7.65719
     2014.07529         0.35790         7.78373
     2014.07802        -1.77364         7.91736
     2014.08076         0.66582         7.63827
     2014.08350        -6.82271         7.66429
     2014.08624        -4.48725         7.81448
     2014.08898        -2.12678         7.96939
     2014.09171        -0.09333         7.98240
     2014.09445       -15.33687         7.54485
     2014.09719        -1.66841         7.74589
     2014.09993         3.26505         7.59688
     2014.10266        -6.97449         8.03325
     2014.10540         2.94297         7.65128
     2014.10815         3.31345         7.72578
     2014.11088        -4.39410         7.82985
     2014.11362         4.97936         7.74825
     2014.11635         9.99282         8.03917
     2014.11909         6.07528         7.77309
     2014.12183        12.25174         8.04508
     2014.12457         3.58620         7.69858
     2014.12731        16.95867         7.97294
     2014.13004         1.58712         7.79910
     2014.13278         4.95958         8.19408
     2014.13552        14.03005         7.92327
     2014.13826         4.29951         7.69031
     2014.14099         2.43297         7.53066
     2014.14373        -1.88157         7.55904
     2014.14648         5.99990         7.54840
     2014.14921         6.37135         7.85114
     2014.15195        -1.34519         7.66902
     2014.15468         0.63727         7.83931
     2014.15742         0.52873         7.84995
     2014.16016         1.86819         8.06518
     2014.16290        -2.26734         7.78610
     2014.16564         0.50013         8.12550
     2014.16837        -2.38042         8.28160
     2014.17111        -3.39196         8.09475
     2014.17385         3.49850         8.24021
     2014.17659         2.87096         7.80383
     2014.17932        12.18442         8.34900
     2014.18206         0.64288         8.06164
     2014.18480        -1.31964         7.75180
     2014.18754        -8.44120         7.82512
     2014.19028        -3.32573         7.89962
     2014.19301        -1.91627         7.98950
     2014.19575         1.36619         8.01552
     2014.19849         2.40765         7.85705
     2014.20123        -1.32689         7.95402
     2014.20397        -6.67742         7.67139
     2014.20670        -4.65697         7.73170
     2014.20944        -6.72551         7.66074
     2014.21218         0.88195         7.76008
     2014.21492        -2.09758         8.04626
     2014.21765        -0.97312         7.65365
     2014.22039        -4.37566         7.68321
     2014.22313         1.81381         7.72342
     2014.22587         2.61726         7.63118
     2014.22861        -0.08228         7.89371
     2014.23134        -8.26882         7.59215
     2014.23408        -8.05636         8.12550
     2014.23682         4.54510         7.90199
     2014.23956         7.24856         8.32180
     2014.24230         5.26704         7.82630
     2014.24503       -11.34051         7.77663
     2014.24777         0.47995         8.16807
     2014.25051        -7.19459         7.71041
     2014.25325        -3.46313         7.86769
     2014.25598         4.27633         7.92446
     2014.25872        -6.23621         7.84404
     2014.26146        -5.54773         8.20000
     2014.26420       -14.72429         7.95993
     2014.26694       -15.47683         7.89371
     2014.26967       -10.29536         7.83695
     2014.27241        -4.61690         8.05099
     2014.27515        -5.87244         8.02261
     2014.27789        -6.84098         7.91263
     2014.28063        -3.51751         7.90081
     2014.28336       -12.56406         7.75535
     2014.28610       -12.95460         7.95757
     2014.28884        -3.11114         8.34309
     2014.29158       -14.98768         7.82394
     2014.29431        -1.32521         7.91263
     2014.29705        -5.60075         8.15979
     2014.29979        -7.04428         8.02971
     2014.30253        -5.94783         7.95166
     2014.30527        -6.32837         7.88188
     2014.30800        -7.14991         7.79319
     2014.31074        -4.44945         8.17280
     2014.31348        -2.73999         8.05927
     2014.31622        -8.11653         7.70095
     2014.31896       -11.73505         7.87834
     2014.32169       -12.60260         7.92327
     2014.32443       -17.20714         7.93037
     2014.32717       -24.36968         7.96348
     2014.32991        -8.42222         7.95166
     2014.33264        -3.80276         8.07346
     2014.33538        -9.68230         7.85587
     2014.33812        -8.27983         7.88188
     2014.34086        -5.16438         7.86769
     2014.34360        -6.55492         7.87124
     2014.34633       -10.27346         8.13850
     2014.34907        -9.11299         8.45189
     2014.35181         2.85247         8.07228
     2014.35455        -2.83307         7.94456
     2014.35729       -10.81060         7.73879
     2014.36002       -17.82515         7.96703
     2014.36276       -16.19969         7.79792
     2014.36550        -8.37323         7.87006
     2014.36824       -12.10477         7.90435
     2014.37097         2.25569         8.15506
     2014.37371        -8.37984         7.77663
     2014.37645        -2.94437         8.10184
     2014.37919         3.94208         8.06991
     2014.38193        -3.34846         8.18226
     2014.38466       -10.21800         8.00960
     2014.38740       -14.24254         7.91736
     2014.39014        -9.65408         7.79319
     2014.39288        -4.56962         7.89962
     2014.39562        -0.43414         7.96939
     2014.39835        -6.54770         7.86651
     2014.40109       -18.72323         7.76954
     2014.40383       -16.67477         8.02261
     2014.40657       -15.94631         7.98713
     2014.40930       -12.80285         7.98477
     2014.41204        -9.42039         8.05218
     2014.41478       -15.07892         8.12904
     2014.41752        -9.74447         8.13377
     2014.42026        -6.54801         7.90317
     2014.42299        -4.94555         7.98004
     2014.42573        -9.09009         8.14205
     2014.42847        -9.30962         7.94101
     2014.43121        -9.82716         8.05691
     2014.43395       -14.49769         7.88661
     2014.43668         8.97376         8.16097
     2014.43942         1.46522         7.94811
     2014.44216        -4.97932         7.92091
     2014.44490        -8.53986         7.99541
     2014.44763        -9.64840         8.16216
     2014.45037       -10.29794         7.75298
     2014.45311        -7.39046         7.94220
     2014.45585        -6.24501         7.70331
     2014.45859       -10.20155         7.87597
     2014.46132       -12.67209         8.00251
     2014.46406        -0.13663         7.77309
     2014.46680        -2.82117         8.00605
     2014.46954        -5.91071         8.04863
     2014.47228        -2.89923         7.76599
     2014.47501        -2.28979         7.88898
     2014.47775         5.21767         7.88307
     2014.48049        -6.42486         7.86533
     2014.48323         4.75460         7.90554
     2014.48596        -5.58494         8.03917
     2014.48870         3.64752         7.97767
     2014.49144         1.32499         7.61817
     2014.49418        -8.47656         7.79319
     2014.49692        -4.68610         7.64537
     2014.49965        -2.72364         8.19527
     2014.50239        -4.56318         7.79201
     2014.50513         2.76728         7.82157
     2014.50787        -5.90725         7.66074
     2014.51061         1.78922         7.58269
     2014.51334        -1.04933         7.72224
     2014.51608        -1.10187         7.84286
     2014.51882         6.34959         7.99896
     2014.52156         0.67305         7.85941
     2014.52429        -5.99949         7.75298
     2014.52703         7.52797         7.92919
     2014.52977        -9.04255         7.80029
     2014.53251         6.26289         8.03917
     2014.53525        -3.18564         7.69622
     2014.53798         3.99882         7.80147
     2014.54072         7.23828         8.13377
     2014.54346         4.48774         7.80383
     2014.54620        -3.38580         7.80975
     2014.54894        10.00267         7.85232
     2014.55167         2.89212         7.85232
     2014.55441       -11.85042         7.91263
     2014.55715         0.81804         7.99068
     2014.55989         8.25151         7.89371
     2014.56262       -10.85203         7.73288
     2014.56536        -9.79357         7.82157
     2014.56810       -11.09310         7.71514
     2014.57084        -4.85665         7.81566
     2014.57357         3.87781         8.03798
     2014.57631         5.00327         8.02261
     2014.57905         0.50873         7.75653
     2014.58179        -4.22881         8.05336
     2014.58453         1.33465         8.24612
     2014.58727         3.88113         8.14323
     2014.59000         1.54658         7.95402
     2014.59274         6.01304         7.98950
     2014.59548         0.70950         7.84877
     2014.59822        -7.81204         7.93155
     2014.60095        -5.61858         8.05572
     2014.60369         7.76488         8.19054
     2014.60643        -1.28264         7.84168
     2014.60917        -2.07220         8.05691
     2014.61190         4.16726         8.27095
     2014.61464         2.31573         7.91027
     2014.61738        -3.54281         8.08410
     2014.62012         9.36565         8.39749
     2014.62286         5.46611         8.17871
     2014.62560         0.18758         8.03680
     2014.62833        -0.68297         8.52284
     2014.63107        19.80049         8.17280
     2014.63381         0.18995         8.58197
     2014.63655         5.36241         8.06991
     2014.63928         6.57988         7.98713
     2014.64202       -10.30566         7.95520
     2014.64476         1.23181         7.94456
     2014.64750        -3.31674         7.89726
     2014.65023        -5.12728         7.95875
     2014.65297         3.95518         7.80975
     2014.65571         7.89564         7.97176
     2014.65845        18.76210         8.27213
     2014.66119        -5.64244         7.81093
     2014.66393         3.28704         8.11249
     2014.66666         9.04149         7.96112
     2014.66940         2.87395         7.91263
     2014.67214        -1.42659         7.95047
     2014.67488        -4.66813         7.86769
     2014.67761        -7.54567         7.82512
     2014.68035        -0.08021         7.76008
     2014.68309        -2.93174         7.95284
     2014.68583        -0.06429         7.93865
     2014.68856        -6.30083         8.00605
     2014.69130         3.84363         8.24494
     2014.69404        -3.95690         7.85705
     2014.69678         0.92856         7.96466
     2014.69949        -0.69705         7.90317
     2014.70226        -4.64051         7.87715
     2014.70499        -5.58606         7.71632
     2014.70773         3.39640         7.80265
     2014.71047        -0.04214         7.95166
     2014.71321         6.05832         8.18699
     2014.71594        -0.87722         8.17280
     2014.71863        -3.89588         7.70568
     2014.72142        -1.69928         7.74707
     2014.72416        -3.91083         7.95284
     2014.72689         5.26863         7.83813
     2014.72963         2.36809         7.76481
     2014.73237        -2.05945         7.78491
     2014.73511        -0.47999         7.94693
     2014.73777       -10.74072         8.10894
     2014.74059        -8.76305         7.90908
     2014.74332        -0.01361         7.86769
     2014.74606         2.14386         7.88661
     2014.74880        -8.44468         7.67730
     2014.75154        -5.74722         7.91381
     2014.75427        -4.62276         7.94101
     2014.75693       -11.87552         7.97649
     2014.75975         2.83217         7.75298
     2014.76249         3.30562         7.87242
     2014.76522         2.26908         7.77545
     2014.76796         1.19754         7.71869
     2014.77070        -8.06500         7.69504
     2014.77344        -3.03153         7.88070
     2014.77618        -1.79407         7.92564
     2014.77892        -0.22960         7.68085
     2014.78165        -3.12315         7.67966
     2014.78439         6.05031         7.73643
     2014.78713         7.07277         7.86769
     2014.78987        -2.19377         7.64300
     2014.79260         6.51369         7.99541
     2014.79527         5.62496         8.00605
     2014.79808         6.14563         7.94574
     2014.80082         6.86908         7.96821
     2014.80355         2.97754         7.87952
     2014.80629        -2.14100         7.84168
     2014.80903        11.26646         7.84641
     2014.81177        12.63592         7.81802
     2014.81447         5.13929         7.98240
     2014.81725        -1.48314         7.85823
     2014.81998         1.16030         8.00014
     2014.82272         7.31776         8.20355
     2014.82546         0.02523         8.14915
     2014.82820        -2.29131         7.98240
     2014.83093        -2.50885         7.86533
     2014.83364        -0.71348         8.01079
     2014.83641        -3.02192         7.62763
     2014.83915        -1.46047         7.83103
     2014.84188         3.14899         7.92327
     2014.84462        -1.49355         7.94574
     2014.84736         6.20891         8.23547
     2014.85010       -11.91363         7.88188
     2014.85283        -5.09418         7.87006
     2014.85558        -2.96369         8.15388
     2014.85831         1.43276         7.71278
     2014.86105        -0.85778         7.76008
     2014.86379         1.89468         8.03207
     2014.86653         8.31314         8.00605
     2014.86926         4.49360         8.24848
     2014.87195        15.66092         8.07937
     2014.87474        -0.33446         7.84168
     2014.87748        -2.83701         7.80620
     2014.88021        -0.28255         8.17989
     2014.88295         8.40591         7.73288
     2014.88569         0.12637         8.63637
     2014.88843        14.49283         8.44243
     2014.89111        18.79315         8.57961
     2014.89391         8.33576         8.13377
     2014.89664         2.42221         8.17162
     2014.89938        -5.72133         8.19527
     2014.90212       -13.10387         8.27687
     2014.90485         2.11560         8.45780
     2014.90759         2.05006         8.09948
     2014.91027         8.43536         8.44361
     2014.91307        11.04999         8.12904
     2014.91581         2.58644         8.14796
     2014.91854        -0.70210         7.83695
     2014.92128         9.50536         8.10303
     2014.92402         4.92282         8.00014
     2014.92676         6.31428         7.85468
     2014.92949         0.40173         7.92800
     2014.93224        -3.34478         8.02379
     2014.93497        -2.34233         7.70331
     2014.93771         0.91513         7.75062
     2014.94045        -6.17841         7.76836
     2014.94318        30.88505         8.37029
     2014.94592         1.86451         7.86415
     2014.94865         2.04493         8.36083
     2014.95140        -3.87955         7.87479
     2014.95414         2.57589         7.74234
     2014.95687        13.99436         7.99778
     2014.95961        13.41582         7.74589
     2014.96235        -3.73372         7.69267
     2014.96509        -2.91926         8.02734
     2014.96780        -8.95188         7.66665
     2014.97057        -0.90733         7.74352
     2014.97330        -6.66788         7.51883
     2014.97604       -13.39142         7.85823
     2014.97878        -1.55596         7.82630
     2014.98151        -9.50650         7.80502
     2014.98425        -9.95003         7.53066
     2014.98694        -8.63770         7.86060
     2014.98973         7.31490         7.55313
     2014.99247        -7.76765         7.55786
     2014.99520       -14.05519         7.72578
     2014.99794        -4.22573         7.72697
     2015.00068        -0.16727         7.65365
     2015.00342        -1.49081         7.76954
     2015.00609       -16.55351         8.01670
     2015.00890        -9.37187         7.90317
     2015.01163       -10.76942         7.98240
     2015.01437        -1.98096         7.82394
     2015.01711        -7.31650         7.74470
     2015.01984        -4.46204         8.03562
     2015.02258        -3.60258         7.82867
     2015.02532         2.64387         7.97294
     2015.02806         7.19135         7.94811
     2015.03080         1.28680         7.93392
     2015.03353        -5.81774         7.87361
     2015.03627        -3.44227         8.16807
     2015.03901         0.40919         8.06164
     2015.04175         5.49265         7.96585
     2015.04446        -1.94096         8.53112
     2015.04723        13.33558         8.20236
     2015.04996        -3.08497         8.01788
     2015.05270        -6.60051         7.90199
     2015.05544        -4.24405         7.94338
     2015.05817        -3.14759         7.80383
     2015.06091         0.60087         8.22483
     2015.06364        -1.45569         8.28751
     2015.06639         1.50381         7.87715
     2015.06913        -2.73674         7.82867
     2015.07186        -7.73028         7.82512
     2015.07460        -2.51882         8.13614
     2015.07734        -5.30036         7.85941
     2015.08008       -19.46990         7.82749
     2015.08282        -7.16544         7.78373
     2015.08556         0.38804         7.57087
     2015.08829        -0.85652         8.06755
     2015.09103         3.83295         8.21064
     2015.09377         0.82541         7.97176
     2015.09650         2.99287         8.06755
     2015.09924         5.68633         8.26977
     2015.10197        15.16876         7.86651
     2015.10472        10.68126         7.87006
     2015.10746        -2.48529         8.21301
     2015.11019       -10.58083         8.13259
     2015.11293        -0.80137         8.00369
     2015.11567       -12.02790         7.95520
     2015.11841       -10.32744         7.83813
     2015.12114        -0.82200         7.98950
     2015.12389        -3.59751         7.73288
     2015.12662        -8.68606         7.65246
     2015.12936        -4.42360         7.49282
     2015.13210        -9.41714         7.65956
     2015.13483        -8.47268         7.66192
     2015.13757         1.89178         7.89607
     2015.14030        -0.59078         7.86533
     2015.14305        -1.77228         7.75653
     2015.14579       -10.00783         7.63709
     2015.14852        -7.54937         7.76008
     2015.15126        -0.92391         7.61935
     2015.15400        -7.94845         7.78964
     2015.15674        -3.34899         7.94338
     2015.15948         1.25347         7.82039
     2015.16222        -0.93105         7.71278
     2015.16495        -0.73761         7.77545
     2015.16769         0.18885         7.88780
     2015.17043         0.31632         7.74116
     2015.17316        -5.35722         7.86296
     2015.17590       -10.05076         7.88780
     2015.17864        -3.84531         7.88307
     2015.18138         1.55317         7.82157
     2015.18412        -0.94738         7.98950
     2015.18685         2.34908         7.87006
     2015.18959         7.78954         8.14560
     2015.19233       -11.25400         8.13259
     2015.19507        -0.60353         7.72578
     2015.19777         2.04684         8.47909
     2015.20055        -2.34260         8.08884
     2015.20328        -1.81215         8.03917
     2015.20602         3.05231         8.30998
     2015.20876        -3.30523         7.90790
     2015.21149       -13.87277         7.83576
     2015.21423       -16.86631         8.20355
     2015.21695       -12.22390         7.91263
     2015.21971        -5.53537         7.91500
     2015.22245        -9.01792         8.18699
     2015.22518        -7.61346         8.21774
     2015.22792        -4.99000         8.00842
     2015.23066        -8.54054         7.74825
     2015.23340        -1.06408         8.14560
     2015.23611         9.84230         8.29815
     2015.23888        -1.75115         8.44361
     2015.24161        -3.20770         8.36319
     2015.24435        -5.40624         7.90672
     2015.24709        -3.97878         8.16097
     2015.24982       -12.80931         7.76954
     2015.25256        -7.39585         7.63591
     2015.25526        -1.89350         7.92800
     2015.25804        -6.05892         7.64892
     2015.26078         3.06953         7.72578
     2015.26351        -2.80001         7.75890
     2015.26625        -4.76755         8.02734
     2015.26899        -7.05709         7.91027
     2015.27173        -3.12263         7.89962
     2015.27445        -3.85422         8.03917
     2015.27721        -4.56569         7.84995
     2015.27994        -7.58224         8.13141
     2015.28268        -9.77178         7.73761
     2015.28542       -11.95732         8.12668
     2015.28815        -8.18286         8.06164
     2015.29089       -11.87540         7.99896
     2015.29358        -0.89208         8.24967
     2015.29637        -7.76346         8.14087
     2015.29911        -4.90202         7.98713
     2015.30184        -8.28555         7.96348
     2015.30458        -2.19609         7.93155
     2015.30732        -9.35663         7.89371
     2015.31006        -3.09717         7.96703
     2015.31274        -4.42485         7.97531
     2015.31554        -8.60424         7.95402
     2015.31827        -8.02779         8.00842
     2015.32101        -4.69633         8.09711
     2015.32375       -11.99687         7.77900
     2015.32648        -3.67241         7.94456
     2015.32922        -9.36694         8.09238
     2015.33188        -3.90370         7.95166
     2015.33470        -6.73301         7.63236
     2015.33744        -7.00256         7.62881
     2015.34017        -7.99910         7.67375
     2015.34291       -12.56964         7.92564
     2015.34565        -2.37918         7.66192
     2015.34839        -8.95872         7.59688
     2015.35112       -10.42126         7.56377
     2015.35387        -0.61678         8.04981
     2015.35660         2.44067         8.00369
     2015.35934       -12.44187         7.92209
     2015.36208       -10.23241         7.85468
     2015.36481        -2.87495         7.67375
     2015.36755        -5.22349         7.87006
     2015.37029        -1.88703         8.20709
     2015.37303       -17.90955         7.77309
     2015.37577        -4.03311         8.22956
     2015.37850        -4.36765         8.03562
     2015.38124        -4.64218         7.82749
     2015.38398       -10.93372         7.77545
     2015.38672        -7.46926         7.73761
     2015.38944        -6.17285         7.70095
     2015.39220        -8.30233         7.79674
     2015.39493        -8.20088         7.94220
     2015.39767        -8.81842         7.91973
     2015.40041        -2.01696         8.07228
     2015.40314        -6.87950         8.01433
     2015.40588       -12.87904         7.84877
     2015.40860        -5.47064         7.98240
     2015.41136        -4.47110         7.68558
     2015.41410        -7.11165         7.95284
     2015.41683        -5.32019         8.11249
     2015.41957        -8.84473         7.86178
     2015.42231        -4.78627         8.00251
     2015.42505       -18.85481         8.05336
     2015.42773        -9.59250         8.06755
     2015.43053        -5.98087         7.80738
     2015.43326        -3.52343         7.88780
     2015.43600         5.20504         8.08529
     2015.43874        -0.29550         7.88425
     2015.44147        -8.79804         8.22720
     2015.44421       -10.82558         7.84049
     2015.44688        -6.82931         7.97294
     2015.44969        -0.35065         7.76363
     2015.45243        -8.90220         7.95520
     2015.45516        -2.20674         7.80383
     2015.45790        -5.63928         8.03562
     2015.46064        -3.03681         7.94456
     2015.46338         2.68565         7.89489
     2015.46608         0.83400         7.98359
     2015.46886         5.77958         7.74234
     2015.47159         5.06703         7.72105
     2015.47433        -6.11951         8.01315
     2015.47707         1.87995         7.88543
     2015.47980         2.09841         7.87952
     2015.48254        -7.62813         7.95993
     2015.48527        -1.67569         8.09238
     2015.48802         2.70581         7.89489
     2015.49076        -8.78374         7.95402
     2015.49349        -0.73528         8.14323
     2015.49623         0.80618         8.37384
     2015.49897         1.52964         8.07583
     2015.50171        -6.03290         7.81684
     2015.50441         7.02946         8.18581
     2015.50719         7.09404         7.93983
     2015.50992        -4.50452         8.02379
     2015.51266         0.59094         7.75771
     2015.51540        -5.23559         8.04508
     2015.51813         1.83187         7.95757
     2015.52087         8.18133         7.71278
     2015.52359         6.30272         8.09475
     2015.52635         5.82526         7.88898
     2015.52908        -1.88629         7.72460
     2015.53182         4.73317         7.70686
     2015.53456        -5.75237         7.76836
     2015.53730         2.57809         7.76008
     2015.54004        -2.04344         7.80856
     2015.54274        -9.22009         7.92446
     2015.54552         0.31749         7.57560
     2015.54825         6.22194         7.63591
     2015.55099         6.25340         7.79319
     2015.55373        13.35886         7.94811
     2015.55646         0.74432         7.71751
     2015.55920         6.31278         7.73288
     2015.56188        -0.74492         8.04863
     2015.56468         6.98072         7.82039
     2015.56741         5.56017         7.99896
     2015.57015         0.58063         8.01788
     2015.57289        -4.23991         7.83103
     2015.57563        -2.13045         7.68203
     2015.57837        -0.08999         7.80502
     2015.58104         4.79329         8.26622
     2015.58385         7.90394         7.81802
     2015.58658         9.98439         7.98004
     2015.58932         2.38685         8.43297
     2015.59206         4.75231         7.96466
     2015.59479        -0.26622         7.76244
     2015.59753         2.47924         7.92564
     2015.60021        11.37653         8.01079
     2015.60301         4.11117         8.26859
     2015.60574        -5.41838         7.81921
     2015.60848         3.43708         7.99423
     2015.61122         3.27854         7.88661
     2015.61396         4.32900         7.84049
     2015.61670        10.39046         7.81448
     2015.61941        -0.93113         7.83340
     2015.62218         5.58240         7.70568
     2015.62491        10.58685         7.78018
     2015.62765         7.75531         7.94338
     2015.63039         3.66977         7.67139
     2015.63312        -9.62777         7.71041
     2015.63586        -2.91731         7.67257
     2015.63857         0.27006         7.77545
     2015.64134        11.10563         7.91500
     2015.64407         6.57907         7.85232
     2015.64681        -1.66446         8.09002
     2015.64955         9.19100         8.09593
     2015.65229         1.22246         7.88070
     2015.65503         8.36692         7.69858
     2015.65775         7.92934         8.11722
     2015.66051         1.29185         7.99541
     2015.66324         7.15530         7.73761
     2015.66598         7.18376         8.31707
     2015.66872         0.93122         7.90908
     2015.67145         8.94568         7.92682
     2015.67419         0.56815         7.80029
     2015.67692        -4.21641         7.71278
     2015.67967        -1.92393         7.62408
     2015.68240        -0.41647         7.54721
     2015.68514        -0.75501         7.73879
     2015.68788         5.50545         7.69977
     2015.69062         3.27591         7.89016
     2015.69336        -0.40363         7.98950
     2015.69601        -0.15140         7.91500
     2015.69883        12.44030         8.08529
     2015.70157        12.36176         7.98477
     2015.70431         5.44722         7.71159
     2015.70705         5.40268         7.80975
     2015.70978         6.35614         7.78728
     2015.71252       -11.48740         7.78610
     2015.71524         1.95001         7.77900
     2015.71800         6.99652         7.66665
     2015.72073        -0.09302         7.67848
     2015.72347         0.16244         7.58742
     2015.72621        -8.00109         7.78610
     2015.72895        -4.51463         7.75417
     2015.73169        -0.73517         7.73997
     2015.73442         2.19729         7.78018
     2015.73716         0.84375         7.57205
     2015.73990         8.70921         7.80738
     2015.74264        -1.01633         7.63591
     2015.74538         5.62013         7.87361
     2015.74811        -6.31441         7.97767
     2015.75085         3.12005         7.54958
     2015.75354        -2.37763         7.61817
     2015.75633         2.17198         7.44196
     2015.75906        -1.97956         7.46207
     2015.76180         0.17190         7.56259
     2015.76454         5.44336         7.55431
     2015.76728         3.90482         7.53657
     2015.77002        -8.55872         7.76008
     2015.77272         8.53564         7.65601
     2015.77549         1.71120         7.78846
     2015.77823         5.45367         7.76599
     2015.78097         2.62113         7.55904
     2015.78371         9.91859         7.58979
     2015.78644         7.83605         7.62053
     2015.78918         4.49451         7.52002
     2015.79187         7.40883         7.72224
     2015.79466         8.28443         7.77309
     2015.79739         0.79889         7.68794
     2015.80013         3.75135         7.72224
     2015.80287         2.36981         7.54012
     2015.80561         2.90228         7.64419
     2015.80835        -0.11926         7.47271
     2015.81102        -2.06298         7.76481
     2015.81382        -0.61534         7.79556
     2015.81656        -3.64888         7.89371
     2015.81930         5.83858         7.65956
     2015.82203         9.19904         7.59688
     2015.82477        -2.80650         7.69031
     2015.82751         4.85896         7.98477
     2015.83020        -4.87172         8.02143
     2015.83299         9.93689         7.95402
     2015.83572        -3.58565         7.76481
     2015.83846        -4.67319         7.66784
     2015.84120         0.47327         7.59807
     2015.84394        -1.53527         7.74944
     2015.84668        -5.39681         7.70923
     2015.84940         6.26563         7.89489
     2015.85215         8.47911         7.69977
     2015.85489         3.46357         7.71751
     2015.85763        -3.99996         7.62172
     2015.86036        -2.84050         7.88780
     2015.86310         5.11396         7.88070
     2015.86584         8.45242         7.85114
     2015.86857         6.06385         7.66784
     2015.87132         7.20934         7.81566
     2015.87405        -3.13320         7.63118
     2015.87679       -12.14874         7.84286
     2015.87953        10.75272         8.15506
     2015.88227         3.92518         7.79674
     2015.88501         3.66065         7.79437
     2015.88774        -1.09691         7.98595
     2015.89048        11.34757         8.03798
     2015.89322         8.12103         7.75653
     2015.89596         7.49249         7.72933
     2015.89869        -2.25705         7.67493
     2015.90143        -7.43859         7.77190
     2015.90417         2.65387         7.90317
     2015.90689         2.25128         7.90554
     2015.90965        12.94479         7.98832
     2015.91238         9.24326         7.96230
     2015.91512         3.85972         7.79556
     2015.91786         3.23018         7.79556
     2015.92060         6.71264         8.03798
     2015.92334        -3.75190         7.77309
     2015.92605        -3.07449         7.60634
     2015.92881        -1.45498         7.86533
     2015.93155        -7.54152         7.92919
     2015.93429         2.73694         8.00132
     2015.93702        13.27341         8.33126
     2015.93976         6.28887         8.04390
     2015.94250         3.16433         7.89253
     2015.94523        -1.15122         7.80502
     2015.94798        14.56625         7.93392
     2015.95071         0.05871         7.89844
     2015.95345         4.58417         7.73170
     2015.95619        -0.38637         7.67612
     2015.95893        -3.50091         8.39867
     2015.96167         3.66155         7.88188
     2015.96434         4.89885         7.89726
     2015.96714        12.05148         7.65956
     2015.96988         8.84494         8.22838
     2015.97262         2.02040         7.68439
     2015.97535         2.46786         7.79319
     2015.97809         7.73632         7.80147
     2015.98083        -3.09522         7.54012
     2015.98352        -6.52890         7.82276
     2015.98631         1.44570         7.92091
     2015.98904        -6.82184         7.61935
     2015.99178        -6.91537         7.63709
     2015.99452       -12.25691         7.62999
     2015.99726        -7.90345         7.63118
     2016.00000         1.96101         7.84049
     2016.00268        -4.97567         7.86296
     2016.00547        -6.21207         7.78136
     2016.00821         7.03139         7.99778
     2016.01095        -2.05815         7.71751
     2016.01368         5.70631         7.90554
     2016.01642         1.29278         7.64537
     2016.01916        -7.68476         8.01552
     2016.02185        -1.12745         8.09830
     2016.02464        -1.07984         7.61935
     2016.02737        -2.50238         7.59807
     2016.03011         2.08508         7.83695
     2016.03285        -8.80146         7.72224
     2016.03559        -5.49500         7.63473
     2016.03833         0.74146         8.05336
     2016.04101         0.03178         7.92446
     2016.04380         7.60039         8.02261
     2016.04654        -6.20915         7.85232
     2016.04928        -3.16869         7.72342
     2016.05201       -12.77423         7.65601
     2016.05475       -10.65677         7.71041
     2016.05749         4.01469         7.69977
     2016.06016        -7.55903         7.88661
     2016.06297         1.31261         7.67020
     2016.06570       -10.31993         7.75890
     2016.06844        -6.86447         7.77309
     2016.07118        -8.99600         8.04626
     2016.07392       -12.36354         8.22483
     2016.07666         4.33392         8.24139
     2016.07932        -9.35083         8.03207
     2016.08213        -3.75916         7.99896
     2016.08487        -6.93170         7.63827
     2016.08761        -9.34224         7.88307
     2016.09034       -12.42478         7.68203
     2016.09308        -6.48032         7.86533
     2016.09582       -17.96585         7.85114
     2016.09848       -18.88860         8.15979
     2016.10130       -13.41093         7.78018
     2016.10403       -15.72147         7.74589
     2016.10677       -10.99401         8.09357
     2016.10951       -16.52455         7.96348
     2016.11225        -7.60809         7.80029
     2016.11498        -7.47963         7.96585
     2016.11762       -20.38344         8.15269
     2016.12046       -13.41771         8.01197
     2016.12320       -17.15524         7.74944
     2016.12594       -10.87678         7.67375
     2016.12867         6.72368         7.89016
     2016.13141         4.11614         7.79556
     2016.13415        -2.31940         7.63118
     2016.13680        -8.50417         7.77663
     2016.13963         1.06852         7.65365
     2016.14236        -8.58102         7.84404
     2016.14510        -8.86456         7.98359
     2016.14784       -12.26210         7.71396
     2016.15058        -7.84463         7.83695
     2016.15331        -4.88317         8.24139
     2016.15602        -1.41079         7.84995
     2016.15879        -2.75925         7.95166
     2016.16153        -4.92579         7.96821
     2016.16427       -11.23333         8.14205
     2016.16700        -4.65887         7.81448
     2016.16974        -9.56541         7.99068
     2016.17248        -6.85795         7.93273
     2016.17518       -14.01559         7.94101
     2016.17796         4.31798         7.91145
     2016.18069        -3.97756         7.79437
     2016.18343       -10.17010         7.93392
     2016.18617        -7.51764         7.92327
     2016.18891        -5.36718         7.85705
     2016.19164         4.47928         7.77900
     2016.19434        -1.21637         7.51647
     2016.19712        -7.03180         7.40767
     2016.19986       -10.69634         7.46798
     2016.20260       -13.66187         7.63591
     2016.20533        -9.73141         7.86533
     2016.20807        -8.07695         7.67730
     2016.21081        -9.89849         7.95757
     2016.21352        -7.98910         7.84404
     2016.21629         3.81643         7.75180
     2016.21902        -5.44111         7.44551
     2016.22176       -11.16265         7.44433
     2016.22450        -4.10919         7.47508
     2016.22724        -8.88373         7.54958
     2016.22997        -3.09226         7.52120
     2016.23265       -11.15397         7.76954
     2016.23545       -12.97134         7.47389
     2016.23819        -6.57888         7.41713
     2016.24093        -0.88642         7.43369
     2016.24366        -5.74196         7.47981
     2016.24640        -2.67450         7.67020
     2016.24914       -12.22704         7.78255
     2016.25182       -11.57074         7.69149
     2016.25462        -6.68911         7.55076
     2016.25735        -0.01065         7.82276
     2016.26009       -10.40819         7.63946
     2016.26283        -9.54673         7.60753
     2016.26557        -6.86427         7.58860
     2016.26830       -15.22881         7.49282
     2016.27097        -4.49054         7.71869
     2016.27378         9.48911         7.56732
     2016.27652        -5.11543         7.54840
     2016.27926        -1.41997         7.67020
     2016.28199        -8.67050         7.57205
     2016.28473         0.42696         7.57796
     2016.28747        -7.03758         7.54130
     2016.29015        -7.56629         7.83103
     2016.29295        -5.28166         7.57678
     2016.29568        -8.22120         7.57205
     2016.29842        -5.02574         7.77545
     2016.30116        -2.02728         7.93037
     2016.30390        -7.76182         7.64655
     2016.30663         2.20164         7.65365
     2016.30929         4.57989         7.87361
     2016.31211        -5.13143         7.48809
     2016.31485        -1.18797         7.48336
     2016.31759        -2.86351         7.59215
     2016.32032        -4.07305         7.61462
     2016.32306        -8.08459         7.64300
     2016.32853        -8.14268         7.71041
     2016.33128        -7.82021         7.49282
     2016.33401        -4.86875         7.87952
     2016.33675        -7.85528         7.86060
     2016.33949         4.10918         7.95402
     2016.34223        -8.03836         7.64773
     2016.34496        -4.69790         7.95402
     2016.34770        -3.82445         8.21419
     2016.35044        -0.50498         7.89844
     2016.35318        -4.49452         7.62645
     2016.35592       -12.82206         7.40530
     2016.35865        -9.95160         7.47153
     2016.36139       -10.26913         7.57678
     2016.36413         4.59733         7.94811
     2016.36680         1.61859         8.39276
     2016.36961         0.80725         7.43369
     2016.37234         2.55271         7.43605
     2016.37508        -8.89283         7.78964
     2016.37782        -7.93037         7.67966
     2016.38056        -4.67291         7.69977
     2016.38329        -1.43945         7.50937
     2016.38599        -4.64209         7.45497
     2016.38877         3.17848         7.63709
     2016.39151        -2.13306         7.52356
     2016.39425        -8.87460         7.55904
     2016.39698         2.78786         7.80975
     2016.39972         3.67532         7.54603
     2016.40246        -1.37122         7.64419
     2016.40513       -10.51694         7.69149
     2016.40794        -6.98030         7.56732
     2016.41067       -12.50284         7.40649
     2016.41341        -7.62138         7.70686
     2016.41615        -8.80791         7.59570
     2016.41889       -18.58345         7.62881
     2016.42162        -2.77399         7.57323
     2016.42430       -12.29970         7.47981
     2016.42710         3.01293         7.57678
     2016.42984        -7.29761         7.54721
     2016.43258         1.06485         7.80620
     2016.43531        -5.73669         7.75535
     2016.43805        -3.56123         7.51410
     2016.44079         3.16324         7.69149
     2016.44347        -9.93147         7.66902
     2016.44626        -4.30784         7.66074
     2016.44900        -8.67338         7.62408
     2016.45174        -5.21892         7.64773
     2016.45448        -1.43446         7.64655
     2016.45722        -0.93900         7.75180
     2016.45995         1.85746         7.72342
     2016.46262         0.80372         7.85468
     2016.46543        -9.33462         7.60753
     2016.46817        -5.39415         7.60043
     2016.47091        -5.45169         7.48572
     2016.47364        -9.79323         7.50464
     2016.47638         3.77723         7.45261
     2016.47912        -3.01131         7.82394
     2016.48181         3.67103         8.12904
     2016.48459        -3.05139         7.69267
     2016.48733        -3.74993         7.55313
     2016.49007        -1.05847         7.50582
     2016.49281       -13.19001         7.68794
     2016.49555        -5.22954         7.46916
     2016.49828       -10.12308         7.38165
     2016.50376         8.72484         7.64182
     2016.50650        -5.83270         7.57796
     2016.50924         0.54776         7.35564
     2016.51197       -10.47778         7.34026
     2016.51471         0.20068         7.50819
     2016.51745        -5.99486         7.70095
     2016.52292        -0.80393         7.86888
     2016.52566         2.38153         7.64300
     2016.52840         2.45899         7.46443
     2016.53114       -13.04655         7.54721
     2016.53388        -1.80209         7.58860
     2016.53661        -6.96563         7.52356
     2016.54209        -0.25371         7.66192
     2016.54483         4.66675         7.83695
     2016.54757        -0.44478         7.81329
     2016.55030        -3.32232         7.84995
     2016.55304        -0.37386         7.62526
     2016.55578         3.84960         7.60398
     2016.56125        -1.24748         7.58387
     2016.56399        -4.13602         7.45852
     2016.56673        -2.53656         7.69149
     2016.56947         7.33690         7.80975
     2016.57221        -0.00164         7.52120
     2016.57494         5.85983         8.03798
     2016.58042         0.87175         7.44670
     2016.58316        -0.17779         7.42304
     2016.58590         4.90167         7.39821
     2016.58863        -3.31287         7.62763
     2016.59137        -6.88941         7.56732
     2016.59411        -1.61695         7.63354
     2016.59958         3.64098         7.59570
     2016.60232        -6.55256         7.65838
     2016.60506        -7.54410         7.51174
     2016.60780         4.80736         7.42541
     2016.61054        -8.35318         7.35682
     2016.61327       -16.18672         7.36628
     2016.61875       -18.55180         7.87361
     2016.62149         5.00366         7.52711
     2016.62423         7.70012         7.54840
     2016.62696        -0.68541         7.48809
     2016.62970        -5.76295         7.41831
     2016.63244        -5.81649         7.48336
     2016.63791         4.45543         7.51883
     2016.64065         3.41189         7.55194
     2016.64339        -5.70665         7.62881
     2016.64613        -6.83919         7.35918
     2016.64887        -7.50573         7.51292
     2016.65160         1.96873         7.66665
     2016.65708         5.13866         7.44906
     2016.65982        -7.77588         7.52593
     2016.66256       -10.18642         7.59925
     2016.66529        -2.05196         7.45497
     2016.66803         3.08650         7.41477
     2016.67077        -4.13104         7.71159
     2016.67624         2.49688         7.51765
     2016.67898        -0.34565         7.67257
     2016.68172         6.89981         7.61462
     2016.68446         3.53227         7.82157
     2016.68720         4.14873         8.09357
     2016.68993         1.04619         7.79674
     2016.69541        -2.81889         7.40412
     2016.69815        -2.26043         7.38638
     2016.70089         5.09303         7.51883
     2016.70362         4.29749         7.65365
     2016.70636        -2.79704         7.69977
     2016.70910         1.20542         7.82276
     2016.71457         7.10934         7.41004
     2016.71731        18.51880         7.53775
     2016.72005         5.49026         7.22319
     2016.72279        12.39972         7.30715
     2016.72553         7.56218         7.57205
     2016.72826        10.08864         7.59452
     2016.73374        -5.39343         7.20308
     2016.73648         1.66603         7.25985
     2016.73921         1.04849         7.46680
     2016.74195         8.99295         7.38757
     2016.74469         0.44941         7.63118
     2016.74743         0.23887         7.27877
     2016.75290         7.75379         7.23738
     2016.75564         5.71325         7.37929
     2016.75838        20.25372         7.39939
     2016.76112         2.53418         7.49282
     2016.76386         4.00364         7.36865
     2016.76659         1.36310         7.33790
     2016.77207         7.94502         7.43487
     2016.77481        -0.63952         7.37574
     2016.77754        -0.28806         7.22555
     2016.78028        -0.11460         7.33672
     2016.78302        -2.76414         7.35327
     2016.78576         8.51033         7.52948
     2016.79123         2.31925         7.30242
     2016.79397         9.88571         7.50346
     2016.79671         0.56917         7.38047
     2016.79945         3.71463         7.73524
     2016.80219         1.32309         7.31779
     2016.80492        17.00055         7.49045
     2016.81040         4.31647         7.48217
     2016.81314        -4.70006         7.34618
     2016.81587         1.74940         7.44670
     2016.81861         5.81986         7.78255
     2016.82135        -0.88268         7.46443
     2016.82409         6.47378         7.52475
     2016.82956         2.14770         7.70568
     2016.83230         9.39716         7.54485
     2016.83504         5.73462         7.42541
     2016.83778         5.30009         7.33790
     2016.84052        -0.52045         7.57914
     2016.84325        -5.14099         7.22674
     2016.84873         8.70793         7.33908
     2016.85147         7.81539         7.45379
     2016.85420         2.80685         7.54840
     2016.85694         4.09031         7.51292
     2016.85968         7.34877         7.51883
     2016.86242        11.47223         7.40885
     2016.86789         1.17816         7.54248
     2016.87063         1.73762         7.71632
     2016.87337         1.02608         7.58979
     2016.87611         4.96954         7.42068
     2016.87885         0.61000         7.33672
     2016.88158        -3.75954         7.39821
     2016.88706        15.88738         7.59925
     2016.88980        14.84284         7.48572
     2016.89253        -0.39569         7.23738
     2016.89527        -6.83223         7.41950
     2016.89801        -2.05677         7.43960
     2016.90075        -1.07631         7.54840
     2016.90622        10.86761         7.43132
     2016.90896        -1.32493         7.31779
     2016.91170        -0.08547         7.45379
     2016.91444        -3.84801         7.37692
     2016.91718         0.78446         7.37456
     2016.91991        -1.27308         7.39939
     2016.92539        12.31584         7.67257
     2016.92813        -5.37670         7.47035
     2016.93086        -3.87124         7.57441
     2016.93360        -4.75878         7.38520
     2016.93634        -7.60932         7.60516
     2016.93908        -3.53786         8.06045
     2016.94455         2.28707         7.38165
     2016.94729         6.88353         7.38638
     2016.95003         0.73599         7.47626
     2016.95277       -15.44255         7.93628
     2016.95551         3.69191         7.80502
     2016.95824        -0.07263         7.47744
     2016.96372        -0.07471         7.29414
     2016.96646        -7.30925         7.47153
     2016.96919         4.32621         7.45852
     2016.97193        -2.56532         7.36983
     2016.97467        -0.54286         7.44078
     2016.97741         4.22660         7.29178
     2016.98288         3.76352         7.25867
     2016.98562        -5.56102         7.46798
     2016.98836         4.06244         7.56377
     2016.99110         7.96890         7.56141
     2016.99384         3.18136         7.44315
     2016.99657         4.00783         7.64892
     2016.99925         0.69513         7.51410
     2017.00205         7.67675         7.41004
     2017.00479         7.36521         7.42423
     2017.00752        -5.11733         7.37338
     2017.01026        -0.10187         7.31306
     2017.01300        -2.77341         7.37811
     2017.01574        -2.37195         7.32962
     2017.02121         0.50397         7.61935
     2017.02395         2.27944         7.55904
     2017.02669        -2.24810         7.59333
     2017.02943        -4.04964         7.48217
     2017.03216       -12.62318         7.39111
     2017.04585        -0.46088         8.06637
     2017.04859       -10.17342         7.78610
     2017.05133         0.75405         7.59925
     2017.05407         2.25251         7.51410
     2017.05954        -1.84557         7.53894
     2017.06228        -0.35211         7.53184
     2017.06502        -8.48165         7.56850
     2017.06776        -6.40419         7.56850
     2017.06929       -25.51402        27.67470
     2017.07871        -6.11034         7.55667
     2017.08145       -10.60288         7.41595
     2017.08418       -11.87442         7.59215
     2017.08692       -20.11696         7.52356
     2017.08966        -7.40650         7.41477
     2017.09240        -7.07104         7.48099
     2017.09787         1.03588         7.39821
     2017.10061         0.48834         7.51883
     2017.10335       -14.89419         7.73879
     2017.10609        -6.47773         7.54485
     2017.10882        -2.32327         7.63946
     2017.11156         5.54519         7.69740
     2017.11429       -17.64939         7.57087
     2017.11704       -14.54489         7.81329
     2017.11978       -16.44843         7.60161
     2017.12251        -6.88697         7.69740
     2017.12525       -13.46051         7.85350
     2017.12799       -14.39205         7.82157
     2017.13073       -10.66758         7.55904
     2017.13338        -5.58534         7.70450
     2017.13620        -5.81766         7.62763
     2017.13894        -6.48120         7.60398
     2017.14168       -11.30874         7.60516
     2017.14442       -13.85328         7.61462
     2017.14715       -15.95982         7.64773
     2017.14989       -11.17136         7.50464
     2017.15537        -9.88143         7.63827
     2017.15811        -6.79597         7.69622
     2017.16084       -11.65351         7.47744
     2017.16358       -12.71605         7.55431
     2017.17453        -9.33321         7.47271
     2017.17727       -21.31075         7.50228
     2017.18001       -14.42029         7.57796
     2017.18275       -10.77682         7.65601
     2017.18548       -27.62036         7.76717
     2017.18822       -16.80990         7.96703
     2017.19094       -15.61651         7.93273
     2017.19370        -9.95798         7.64182
     2017.19644        -7.68752         7.74116
     2017.20191       -20.65860         7.45616
     2017.20465       -17.61214         7.53302
     2017.20739       -20.46168         7.52238
     2017.21010        -4.99429         7.73997
     2017.21286        -6.66375         7.53421
     2017.21560        -1.64229         7.84049
     2017.21834        -8.95283         7.53894
     2017.22108        -0.60837         7.81566
     2017.22381       -10.66291         7.84522
     2017.22655        -4.81945         7.85941
     2017.22926        -5.66908         7.87715
     2017.23203        -6.15253         7.56377
     2017.23477       -16.77207         7.61580
     2017.23750        -9.50760         7.77072
     2017.24024       -16.73214         7.56850
     2017.24298       -10.05268         7.58742
     2017.24572       -13.55522         7.51765
     2017.24842       -14.04885         7.67375
     2017.25119       -12.98630         7.60043
     2017.25667       -10.89938         7.50937
     2017.25941       -20.42792         7.44906
     2017.26214       -12.89445         7.88307
     2017.26488        -2.48599         7.61462
     2017.26760        -2.99260         7.55904
     2017.27036        -4.56807         7.76717
     2017.27310        -6.11761         7.56022
     2017.27583       -15.56015         7.43369
     2017.27857        -1.09569         7.63473
     2017.28131       -13.32523         7.52002
     2017.28405       -16.38677         7.61699
     2017.28678       -12.97932         7.56377
     2017.28952       -11.60884         7.54248
     2017.29226        -9.88238         7.54603
     2017.29500       -29.28492         7.77190
     2017.29774       -17.54846         7.64537
     2017.30047       -16.23600         7.67612
     2017.30321        -8.72654         7.68203
     2017.30587       -16.60230         8.02025
     2017.30869       -15.45062         7.56141
     2017.31143       -16.74816         7.67848
     2017.31416       -16.44870         7.75890
     2017.31690       -11.09223         7.82630
     2017.31964       -14.98877         7.67730
     2017.32238       -15.39831         7.72933
     2017.32785       -14.58339         7.69149
     2017.33059       -19.12893         7.62408
     2017.33333       -17.07647         7.43842
     2017.33607       -22.44401         7.41831
     2017.33880       -24.54455         7.54012
     2017.34154        -3.72708         8.10539
     2017.34427       -11.81865         7.53302
     2017.34702       -11.19516         7.47862
     2017.34976       -19.01270         7.47981
     2017.35249       -18.67424         7.49518
     2017.35797       -13.51232         7.63591
     2017.36071        -6.44786         7.52593
     2017.36335        -5.28764         7.88425
     2017.36618       -15.18894         7.48690
     2017.36892       -10.41547         7.54248
     2017.37166       -12.59601         7.59097
     2017.37440        -8.07455         7.54485
     2017.37987       -25.60263         7.62999
     2017.38259       -11.06622         7.73406
     2017.38535       -12.30171         7.42186
     2017.38809       -12.88925         7.38875
     2017.39082       -19.32279         7.46798
     2017.39356        -6.63133         7.61107
     2017.39630       -13.48286         7.45379
     2017.39904       -12.89240         7.46798
     2017.40173        -5.83806         7.51883
     2017.40451        -7.83048         7.51883
     2017.40999        -5.77656         7.73997
     2017.41273       -11.24710         7.47035
     2017.41820       -11.08118         7.73288
     2017.42090       -17.86983         7.64064
     2017.42368        -6.48025         7.52948
     2017.42642       -23.55979         7.43369
     2017.42915        -2.33733         7.66547
     2017.43463       -16.26941         7.43842
     2017.43737        -4.40795         7.58033
     2017.44005       -14.22163         7.72224
     2017.44284        -5.56003         7.69267
     2017.44558         0.82443         7.75417
     2017.44832       -12.29810         7.41477
     2017.45106        -5.88064         7.36746
     2017.45379       -13.31418         7.53657
     2017.45653       -18.40672         7.60753
     2017.45922        -8.48939         7.57205
     2017.46201       -14.64580         7.39703
     2017.46475        -9.65234         7.37101
     2017.46748       -14.42988         7.50819
     2017.47022       -20.77542         7.41004
     2017.47296       -15.80396         7.47271
     2017.47570       -16.43249         7.35918
     2017.47840       -16.12012         7.37574
     2017.48117       -11.97857         7.56495
     2017.48665       -12.39865         7.54840
     2017.48939        -3.68319         7.53894
     2017.49212        -8.84873         7.37692
     2017.49486        -8.81127         7.67730
     2017.49759       -15.46883         7.57678
     2017.50034       -14.87134         7.36746
     2017.50308       -10.47888         7.47153
     2017.50581       -19.76442         7.63709
     2017.50855        -9.62796         7.57796
     2017.51129       -16.65250         7.45970
     2017.51403       -12.62404         7.51055
     2017.51670       -17.14375         7.47626
     2017.51950       -19.49912         7.41713
     2017.52224        -2.58766         7.58387
     2017.52498       -16.18920         7.45379
     2017.52772        -9.26773         7.66429
     2017.53045         3.08273         7.49873
     2017.53319       -10.77081         7.66902
     2017.53590       -15.25143         7.81329
     2017.53867       -10.82189         7.45852
     2017.54141       -11.98243         7.47626
     2017.54414       -10.64697         7.85232
     2017.54688        -2.92151         7.57796
     2017.54962       -11.36505         7.46089
     2017.55236       -18.91859         7.58269
     2017.55783       -13.95066         7.41004
     2017.56057        -7.64020         7.40530
     2017.56331        -5.60974         7.58033
     2017.56605        -3.28528         7.58742
     2017.56878       -14.42082         7.54721
     2017.57152        -4.71236         7.53302
     2017.57421       -13.47504         7.54367
     2017.57700       -12.79544         7.40057
     2017.57974       -11.18697         7.43132
     2017.58373         4.80791        34.13867
     2017.58521       -14.66005         7.40057
     2017.58795       -16.13959         7.62526
     2017.59069       -16.00713         7.59097
     2017.59336       -15.09284         7.50109
     2017.59616       -10.26421         7.48217
     2017.59890        -5.80375         7.41122
     2017.60164        -7.40529         7.59925
     2017.60438       -13.75283         7.44196
     2017.60711        -5.02336         7.68203
     2017.60985       -11.69790         7.75653
     2017.61258        -2.02848         7.59925
     2017.61533        -4.67298         7.52948
     2017.61807         0.75148         7.66074
     2017.62080        -8.44206         7.38757
     2017.62354        -6.50860         7.37101
     2017.62628        -9.94014         7.78255
     2017.62902        -5.54368         7.90435
     2017.63173        -8.12029         7.44315
     2017.63449        -6.36875         7.43487
     2017.63723        -6.21429         7.49873
     2017.63997       -12.14183         7.56495
     2017.64271        -3.68137         7.53302
     2017.64544        -7.35791         7.49991
     2017.64818        -0.79345         7.69622
     2017.65089        -6.68407         7.47744
     2017.65366        -9.35053         7.49163
     2017.65639         5.41393         7.77782
     2017.65913        -6.10460         7.35800
     2017.66187        -1.77914         7.38638
     2017.66461        -3.72668         7.62881
     2017.66735         1.96278         7.69622
     2017.67004        -5.65288         7.53066
     2017.67282        -4.40430         7.50228
     2017.67556        -5.28984         7.25393
     2017.67830        -2.59038         7.58860
     2017.68104        -1.87992         7.44670
     2017.68377         6.60254         7.75653
     2017.68651         3.91701         7.62645
     2017.68922        -4.72761         7.42659
     2017.69199        -3.83807         7.24329
     2017.69472        -4.44061         7.32371
     2017.69746         8.49885         7.78846
     2017.70020         8.02631         7.45024
     2017.70294        10.37677         7.72815
     2017.70568        -9.92477         7.46207
     2017.70840        -0.96036         7.44906
     2017.71115        -1.49785         7.56968
     2017.71389        -0.35838         7.79083
     2017.71663         2.59308         7.60398
     2017.71937         4.26154         7.68912
     2017.72210         3.41700         7.48336
     2017.72484         1.77746         7.42068
     2017.72758         5.52592         7.47508
     2017.73032        -3.93062         7.45616
     2017.73305        -4.86416         7.41358
     2017.73579        -8.28070         7.30715
     2017.73853        -5.29623         7.19717
     2017.74127         4.87723         7.47508
     2017.74401         1.10469         7.36628
     2017.74669         1.45299         7.68439
     2017.74948        -5.52739         7.34145
     2017.75222         2.02407         7.28232
     2017.75496        -3.27747         7.25393
     2017.75770        -3.18401         7.57441
     2017.76043        -4.97955         7.37692
     2017.76317         4.26591         7.35209
     2017.76588        -3.46072         7.93037
     2017.76865         0.81584         7.45852
     2017.77138        -4.82970         7.47035
     2017.77412        -0.59024         7.46798
     2017.77686         5.77922         7.48217
     2017.77960        -4.92132         7.47508
     2017.78234        -0.75486         7.54248
     2017.78506       -12.28444         7.44315
     2017.78781        -5.73694         7.35918
     2017.79055        -8.14748         7.52120
     2017.79329         0.21599         7.50346
     2017.79603        -2.00455         7.55786
     2017.79876        -2.53709         7.73051
     2017.80150        -3.76863         7.70213
     2017.80419        -0.18431         7.74116
     2017.80698       -11.10571         7.58506
     2017.80971        -1.15425         7.58979
     2017.81245         0.69521         7.77072
     2017.81519        -7.92833         7.32725
     2017.81793        -5.62786         7.41122
     2017.82067        -5.69740         7.62172
     2017.82332       -10.30018         7.77900
     2017.82614        -9.27548         7.37101
     2017.82888        -4.00902         7.62645
     2017.83162        -7.86356         7.46916
     2017.83436        -1.36210         7.42777
     2017.83709         0.58636         7.67848
     2017.83983        -7.33618         7.49163
     2017.84531        -7.41025         7.42659
     2017.84804        -8.26379         7.40176
     2017.85078         4.17667         7.46916
     2017.85352         2.59513         7.80029
     2017.85626        -2.02041         7.66074
     2017.85900        -1.69595         7.88425
     2017.86171         4.36145         7.84168
     2017.86447        11.30597         7.43842
     2017.86721        14.75743         7.67966
     2017.86995       -18.16011         7.38520
     2017.87269         4.02036         7.54603
     2017.87542        -4.12518         7.59333
     2017.87816        -3.13572         7.34381
     2017.88086         5.20264         7.67730
     2017.88364         3.41920         7.45143
     2017.88637         5.00666         7.76717
     2017.88911         1.08512         7.55786
     2017.89185        -8.18542         7.39821
     2017.89459        12.87804         7.66902
     2017.89733         8.02851         7.77663
     2017.90001         0.45182         8.20828
     2017.90280         4.88343         7.72697
     2017.90554         7.22689         7.49518
     2017.90828         1.36435         7.78018
     2017.91102        -4.63119         7.65010
     2017.91375         2.03627         7.77663
     2017.91649        -2.21827         7.54721
     2017.92197         3.63265         7.43014
     2017.92470        -4.16588         7.44315
     2017.92744        -6.95442         7.71278
     2017.93018        -9.79596         7.66311
     2017.93292        -7.50050         7.49163
     2017.93566        -6.72104         7.39821
     2017.93837        -1.08566         7.49400
     2017.94113         3.15588         7.49282
     2017.94387        -4.04466         7.54248
     2017.94661        -5.98020         7.35445
     2017.94935         3.11026         7.63709
     2017.95208        -0.32727         7.66784
     2017.95482        -0.84781         7.63118
     2017.95754        -1.79540         7.46562
     2017.96030        12.43711         7.58742
     2017.96303        -2.38643         7.51055
     2017.96577         0.00303         7.63946
     2017.96851         2.24249         7.51765
     2017.97125        -4.86605         7.31543
     2017.97399        -2.33259         7.73879
     2017.97672        -7.62714         7.62408
     2017.97946         2.45934         7.56614
     2017.98220        -4.96420         7.52593
     2017.98494        -6.51074         7.53184
     2017.98767        -8.85628         7.69149
     2017.99041        -8.06582         7.52120
     2017.99315       -14.37136         7.52593
     2017.99863        -1.33144         7.53539
     2018.00136       -10.35998         7.46798
     2018.00410       -11.55551         7.62053
     2018.00684        -8.67605         7.39348
     2018.00958        -5.18659         7.65719
     2018.01232        -7.43113         7.45616
     2018.01497        -4.15089         7.65838
     2018.01779         4.10279         7.45970
     2018.02053        -2.85075         7.77900
     2018.02327        -3.00529         7.49873
     2018.02600        -4.48283         7.50937
     2018.02874         1.84063         7.67848
     2018.03148        -6.15990         7.49518
     2018.03413       -11.84669         7.69031
     2018.03696        -7.77998         7.53421
     2018.03969       -13.48852         7.50464
     2018.04243       -11.62906         7.51055
     2018.04517        -4.05660         7.44670
     2018.04791        -2.60114         7.64655
     2018.05065        -5.62568         7.40176
     2018.05338        -4.07723         7.46562
     2018.05612       -10.22876         7.25039
     2018.05886       -16.28329         7.53894
     2018.06160        -5.58883         7.55904
     2018.06433       -10.63537         7.74234
     2018.06707        -0.29191         7.73524
     2018.06981        -7.68545         7.60634
     2018.07246       -19.42622         7.86060
     2018.07529       -11.69053         7.80502
     2018.07802       -15.65107         7.68085
     2018.08076       -14.22061         7.80620
     2018.08350       -12.51714         7.82749
     2018.08624       -15.84368         7.78373
     2018.08898        -7.08322         8.05691
     2018.09171        -9.34877         7.82985
     2018.09445        -8.10230         7.76599
     2018.09719        -5.53584         8.19763
     2018.09993        -3.29238         7.77545
     2018.10266       -11.16192         7.93155
     2018.10540       -12.65846         7.90790
     2018.10814        -6.04200         7.89489
     2018.11086        -6.55259         7.73288
     2018.11362        -1.60607         8.11249
     2018.11635       -11.45061         7.73997
     2018.11909       -10.33415         7.92327
     2018.12183       -10.84669         7.83931
     2018.12457        -8.47423         7.51647
     2018.12731        -4.01377         7.69031
     2018.13003        -3.42735         7.82749
     2018.13278        -3.27585         7.68912
     2018.13552        -3.77539         7.66192
     2018.13826        -7.88592         7.57678
     2018.14099        -8.27846         7.52711
     2018.14373        -5.32500         7.66665
     2018.14647        -7.37454         7.89607
     2018.14920        -5.36209         7.71751
     2018.15195       -10.58362         7.72933
     2018.15468        -4.23616         7.72578
     2018.15742        -7.76870         7.57205
     2018.16016        -5.34724         7.76836
     2018.16290        -4.07477         7.76954
     2018.16564       -10.77431         7.76126
     2018.16830       -10.57805         7.79792
     2018.17111        -1.75839         7.70450
     2018.17385        -4.72193         7.66902
     2018.17659        -3.40847         7.68794
     2018.17932         0.01599         7.84404
     2018.18206         1.05645         7.97531
     2018.18480        -9.63009         7.85114
     2018.18747         2.64118         7.58269
     2018.19028        -2.81716         7.45734
     2018.19301        -0.85270         7.74234
     2018.19575         4.97076         7.89253
     2018.19849         0.46022         7.71751
     2018.21765        -1.77855         7.55313
     2018.23134       -10.29125         7.50464
     2018.23682        -5.09533         7.76481
     2018.23956        -8.49987         7.67730
     2018.24230        -5.32840         7.43487
     2018.24777        -2.18348         7.62645
     2018.25051        -2.94802         7.71751
     2018.25325        -3.96056         7.59333
     2018.25598        -7.85910         7.52948
     2018.25872        -4.87764         7.70568
     2018.26146         7.44382         7.87952
     2018.26419       -11.80873         8.04863
     2018.26694       -18.69226         7.66311
     2018.26967        -9.78379         7.53894
     2018.27241        -3.91533         8.06045
     2018.27515        -2.94087         7.53657
     2018.27789         0.74859         7.76481
     2018.28062        -6.64995         7.96585
     2018.28327        -8.44375         8.10657
     2018.28884         0.20143         7.53775
     2018.29705        -6.34018         7.44196
     2018.29979       -12.18672         7.53421
     2018.30252       -17.53029         7.65719
     2018.30527        -7.78180         7.55549
     2018.30800        -7.41534         7.58624
     2018.31074       -11.72388         7.59925
     2018.31348        -8.24942         7.62408
     2018.31895         0.46250         8.13259
     2018.32443        -5.29757         7.51410
     2018.32717        -1.90111         7.76599
     2018.32991        -9.65665         7.91027
     2018.34360        -4.60035         7.78491
     2018.34633       -16.07289         7.68912
     2018.34907        -7.45342         7.60871
     2018.35181       -10.90296         7.57796
     2018.35993        -6.86583         7.73879
     2018.36550        -4.59766         7.76717
     2018.37097        -1.51974         7.62526
     2018.37913        -3.59452         7.81802
     2018.38193        -2.00589         7.70213
     2018.38466         2.49157         7.89134
     2018.38740        -5.26097         7.55076
     2018.39014         0.70849         7.62763
     2018.39288        -8.68605         7.47389
     2018.39561        -4.65959         7.88425
     2018.40109        -8.32366         7.45143
     2018.40383        -7.44720         7.46798
     2018.40657        -2.99674         7.52593
     2018.40930         3.91572         7.77190
     2018.41204         5.90518         7.67020
     2018.41478        -9.20136         7.43842
     2018.41746       -12.80407         7.83103
     2018.42026        -6.85244         7.63946
     2018.42299        -6.96098         7.63709
     2018.42573        -1.77352         7.57205
     2018.42847        -9.22805         7.72224
     2018.43121       -10.27159         7.47153
     2018.43499         5.53172        16.98064
     2018.43662        -5.41684         7.68321
     2018.43942         7.30179         7.61699
     2018.44216        -3.80375         7.98359
     2018.44490        -9.54629         7.67375
     2018.44763       -10.61683         7.70686
     2018.45037        -2.63737         7.59215
     2018.45311        -7.14791         7.81921
     2018.45577        -6.31165         7.88661
     2018.45859        -3.43498         7.67139
     2018.46132        -7.55852         7.60989
     2018.46406       -11.12806         7.67020
     2018.46680        -1.05560         7.76836
     2018.46954         0.93986         7.74234
     2018.47227        -1.66368         7.89016
     2018.47493        -1.93544         7.82394
     2018.47775         1.44124         7.98122
     2018.48049        -1.10329         7.84049
     2018.48323       -13.37183         7.82985
     2018.48596        -4.24937         7.60043
     2018.48870         1.16109         7.48572
     2018.49144        -0.24945         7.70804
     2018.49692        -5.73253         7.71041
     2018.49965         1.71393         7.64419
     2018.50239        -3.99661         7.69149
     2018.50513        -1.54015         7.88661
     2018.50787         0.26532         7.64419
     2018.51060        -9.06522         8.04035
     2018.51331        -5.43685         7.71751
     2018.51608        -3.86230         7.43014
     2018.51882       -12.27984         7.57914
     2018.52156        -4.60838         7.59097
     2018.52429        -8.92592         7.47744
     2018.52703        -3.77646         7.51292
     2018.52977        -3.45900         7.49282
     2018.53246        -4.57266         7.93392
     2018.53525        -5.34307         7.73524
     2018.53798        -1.27461         7.70923
     2018.54072        -3.63415         7.76008
     2018.54620         0.38677         7.80502
     2018.54893        -9.81877         7.65838
     2018.55165        -5.21336         7.71041
     2018.55441       -11.59385         7.57914
     2018.55715       -10.32939         7.99186
     2018.55989       -14.26492         7.83695
     2018.56262         3.00154         7.87361
     2018.56450        -0.59736        11.76784
     2018.56888       -11.34140        12.29763
     2018.57155        -1.93015        14.15428
     2018.57435       -25.45552        12.21840
     2018.57709       -20.90305        13.11716
     2018.57983       -16.64159        14.76567
     2018.58084        11.40419        14.61430
     2018.60740         8.41756        16.12327
     2018.61190        -4.72317         7.66192
     2018.61464         1.76230         7.51055
     2018.61738         3.22076         7.63827
     2018.62012         3.72922         7.55313
     2018.62286        -0.31732         7.83813
     2018.62559        -5.70486         8.05336
     2018.63107         5.02106         7.83458
     2018.63381        -7.71348         8.02025
     2018.63655        -4.26702         7.83103
     2018.63928       -10.06655         7.85232
     2018.64202        -6.53709         8.06873
     2018.64476        -3.21163         7.63236
     2018.64745         0.80371         7.81566
     2018.65023         3.49129         7.71278
     2018.65297         9.82375         7.91263
     2018.65571        -7.57279         7.71159
     2018.65845        -0.38533         7.70213
     2018.66119         7.07313         8.00605
     2018.66392         5.69859         7.84759
     2018.66940        -6.50548         7.62645
     2018.67214        -4.31902         7.66311
     2018.67488        -5.74956         7.70804
     2018.67761        -3.53710         7.75417
     2018.68035        -0.16364         7.72224
     2018.68309       -10.26718         8.03680
     2018.68856        -9.80026         7.56968
     2018.69130        -3.01980         7.53421
     2018.69404        -7.02733         7.92209
     2018.69678        -4.89687         7.61107
     2018.69952        -5.79541         7.57796
     2018.70225        -5.64995         7.86178
     2018.70492        -4.84568         7.92327
     2018.70773         4.16897         7.55194
     2018.71047        -1.92657         7.50582
     2018.71321        -4.15511         7.61580
     2018.71594        -2.72565         7.69977
     2018.71868       -15.45618         7.74234
     2018.72142        -3.61272         7.58742
     2018.72407        -1.72750         7.99659
     2018.72689        -3.78180         7.69977
     2018.72963       -14.48434         7.56495
     2018.73237       -13.42488         7.68558
     2018.73511        -4.46542         7.45261
     2018.73785        -3.28196         7.55076
     2018.74058        -3.37350         7.82985
     2018.74606        -2.20857         7.83813
     2018.74880        -3.15811         7.44788
     2018.78987       -12.53920         7.60280
     2018.79260        -9.48574         7.46916
     2018.79534         1.14472         7.42304
     2018.79808        -7.58381         7.42541
     2018.80079         0.53658         7.58624
     2018.80355         0.67311         7.59333
     2018.80629        -2.89643         7.99186
     2018.80903        -1.08697         7.55194
     2018.81177        -2.78951         8.01670
     2018.81451         4.58295         7.88070
     2018.81724        -4.99959         7.52238
     2018.82272         6.01233         7.87715
     2018.82546         4.39180         7.54367
     2018.82820        -3.76074         7.58387
     2018.83093         0.60972         7.60989
     2018.83367         6.64718         7.47271
     2018.83641        -2.40436         7.74589
     2018.83913         8.02806         7.55667
     2018.84188         8.92556         7.74707
     2018.84462         7.31102         7.47744
     2018.84736         0.67048         7.49991
     2018.85010        -0.82106         7.53657
     2018.85284        -5.65159         7.59215
     2018.85557       -10.24313         7.46680
     2018.85825        -7.71684         7.93392
     2018.86105         1.30579         7.66429
     2018.86379        -2.96475         7.65956
     2018.86653        -0.68529         7.50464
     2018.86926        -1.61183         7.96230
     2018.87200        -4.20137         7.64419
     2018.87474         3.33609         7.82867
     2018.87744         2.92645         7.97413
     2018.88021         1.85302         7.59807
     2018.88295        -6.34052         7.84759
     2018.88569        -1.96306         7.85114
     2018.88843         0.05540         7.86296
     2018.89117         4.76886         7.79674
     2018.89390        -1.11868         7.79201
     2018.89657         0.31759         8.13259
     2018.89938        -1.25276         7.37929
     2018.90212         0.51170         7.30479
     2018.90759         1.49063         7.71751
     2018.91033         5.12009         7.45143
     2018.91307         8.72955         7.44315
     2018.91854         9.93247         7.65010
     2018.92128         5.25193         7.41477
     2018.92402         8.82939         7.67730
     2018.92676         6.73385         7.52356
     2018.92950         1.54131         7.58860
     2018.93223        -3.24422         7.97294
     2018.93490         6.40506         7.74470
     2018.93771        15.45770         7.83813
     2018.94045         5.66916         7.44315
     2018.94318         4.80662         7.52475
     2018.94592         9.32308         7.42896
     2018.94866         5.07054         7.64655
     2018.95140        -1.64900         8.01315
     2018.95406         9.80026         7.86533
     2018.95687         7.19192         7.70686
     2018.95961         6.26939         7.39584
     2018.96235         5.64485         7.63709
     2018.96509         3.17031         7.68912
     2018.96783         8.44777         7.70804
     2018.97056        -4.37677         7.61344
     2018.97330        -2.19132         7.46680
     2018.97604         7.16515         7.62881
     2018.97878        -3.35439         7.64773
     2018.98151        -3.74493         7.60043
     2018.98425        -1.59946         7.80620
     2018.98699        -1.98800         7.84404
     2018.98973        -1.62254         7.71159
     2018.99244        -2.10115         7.93273
     2018.99520         0.03538         7.67612
     2018.99794        -8.77016         7.63118
     2019.00068        -7.93670         7.63473
     2019.00342        -4.22224         7.73643
     2019.00616        -9.30978         7.68439
     2019.00889         1.27868         7.97767
     2019.01437         1.31661         7.54840
     2019.01711         6.71307         7.65483
     2019.01984        -5.50847         7.87479
     2019.02258         1.55999         7.58387
     2019.02532         4.09345         8.00014
     2019.02806         6.70891         7.77190
     2019.03070        -1.68489         8.03562
     2019.03353        -3.54917         7.98359
     2019.03627       -13.28171         7.61935
     2019.03901         9.03976         7.73643
     2019.04175        -6.77878         7.71041
     2019.04449        -5.30432         7.75535
     2019.04722         0.20614         7.87361
     2019.05270        -8.70194         8.50510
     2019.05544        -4.81748         7.87715
     2019.05817        -2.76002         8.07346
     2019.06091         5.36144         7.72460
     2019.06365        -2.18609         7.80738
     2019.06639        -2.92863         7.80502
     2019.06907        -4.63432         8.19054
     2019.07186         2.68929         7.91618
     2019.07460        -1.93625         7.73288
     2019.07734        -3.37079         7.46916
     2019.08008        -2.05733         7.60753
     2019.08282        -4.41787         7.71632
     2019.08555         1.60959         7.69858
     2019.08823        -1.13010         7.80856
     2019.09103        12.17252         7.69622
     2019.09377         2.06898         7.45024
     2019.09650         2.90444         7.47508
     2019.09924        -1.61410         7.39939
     2019.10198        -5.84964         7.48336
     2019.10472        -1.33818         7.47508
     2019.10740         1.39014         7.81329
     2019.11019         2.68674         7.59452
     2019.11293         9.43220         7.70095
     2019.11567         1.43666         8.01197
     2019.11841        14.97413         7.66547
     2019.12115        16.48959         7.98359
     2019.12388         5.96905         7.74707
     2019.12656         6.06735         7.92919
     2019.12936         2.56797         7.47508
     2019.13210         0.98643         7.44906
     2019.13483         3.30689         7.78136
     2019.13757        -2.10965         7.50582
     2019.14031         1.06681         7.49991
     2019.14305         2.69928         7.46325
     2019.14572        -0.76843         7.78728
     2019.14852        -6.91080         7.57441
     2019.15126         6.05666         7.59688
     2019.15400        -3.58988         7.58742
     2019.15674        -2.70942         7.93155
     2019.15948        12.01304         7.66665
     2019.16221        -0.74350         8.19763
     2019.16488        -3.60922         7.74116
     2019.16769       -11.63758         7.59333
     2019.17043        -2.44611         7.66547
     2019.17316        -5.04865         7.51765
     2019.17590        -3.55719         7.62290
     2019.17864        -7.37473         7.63946
     2019.18138        -0.85527         7.63354
     2019.18405        -7.92399         7.80383
     2019.18685        -5.82035         7.51055
     2019.18959        -5.26689         7.52948
     2019.19233        -3.17343         7.74825
     2019.19507       -14.50697         7.47744
     2019.19780        -5.77650         7.92446
     2019.20054       -10.21604         7.61580
     2019.20328        -8.33159         7.47508
     2019.20602        -3.31612         7.56141
     2019.20876       -17.24366         7.53421
     2019.21149       -16.86920         7.62999
     2019.21423       -13.59974         7.78373
     2019.21697        -5.16628         7.56732
     2019.21971        -6.50582         7.83695
     2019.22243        -2.88541         8.09357
     2019.22518        -6.53489         7.65365
     2019.22792        -4.47443         7.99541
     2019.23066        -3.79997         7.72578
     2019.23340        -2.40551         7.77190
     2019.23613        -6.83005         7.65956
     2019.23887       -12.03759         7.64773
     2019.24159        -8.51719         7.87242
     2019.24435        -8.87967         7.78255
     2019.24709        -4.16321         7.88780
     2019.24982        -3.59574         7.59215
     2019.25256         0.29272         7.83340
     2019.25530         1.13418         7.72697
     2019.25804        -5.87436         8.16097
     2019.26069        -7.75212         7.94220
     2019.26351        -2.04244         7.90908
     2019.26625       -13.76298         7.75653
     2019.26899       -12.58852         7.82276
     2019.27173        -6.23006         7.89134
     2019.27446       -10.86860         7.73051
     2019.27720        -0.58413         7.80738
     2019.27987         9.41113         7.89016
     2019.28268        -3.71621         7.73879
     2019.28542         1.25725         7.63236
     2019.28815        -4.03729         7.47035
     2019.29089        -1.48683         7.69031
     2019.29363       -10.94537         7.54367
     2019.30458       -10.00852         7.44788
     2019.31279        -0.90714         7.88543
     2019.31816        -2.55852         8.02971
     2019.32101         7.23324         7.97767
     2019.32648        -8.02984         7.61935
     2019.33196        -9.71891         7.75771
     2019.33470        -1.34545         7.85468
     2019.33734        -2.70026         7.83576
     2019.34291        -2.49907         7.66192
     2019.34565       -10.27661         7.83222
     2019.34839       -11.76415         7.85705
     2019.35112       -11.22669         7.56022
     2019.35934        -1.56930         7.63118
     2019.36208         3.23516         7.64419
     2019.36481        -0.50038         7.65719
     2019.36755         1.81608         7.63354
     2019.37029        -1.88046         7.67612
     2019.37303       -14.18000         7.61107
     2019.37567        -1.26780         8.51929
     2019.37850         7.84392         7.64064
     2019.38124         1.60439         7.68321
     2019.38398         9.97485         7.54248
     2019.38672       -10.85369         7.72460
     2019.38945        -4.62023         7.57796
     2019.39219       -11.75377         7.63709
     2019.39493         0.08068         7.45734
     2019.39767         0.07215         7.58624
     2019.40041         0.77861         7.70331
     2019.40314         1.33407         7.73524
     2019.40588        -3.31847         7.82394
     2019.40862        -4.00000         7.64064
     2019.41136        -3.80054         7.81448
     2019.41400         1.88166         8.01788
     2019.41683        -0.41962         7.80738
     2019.41957         3.08284         7.82157
     2019.42231        -3.51570         7.69740
     2019.42505        -5.68824         7.63591
     2019.42778         6.18622         7.93865
     2019.43052         0.44168         7.58979
     2019.43316        -4.55713         7.70804
     2019.43600        -7.34839         7.64537
     2019.43874       -12.80493         7.71751
     2019.44147       -12.25747         7.68439
     2019.44421        -7.33501         7.99305
     2019.44695        -2.17355         7.73761
     2019.44969        -6.04809         7.58979
     2019.45242        -6.33665         7.69740
     2019.45516        -5.15317         7.78846
     2019.45790       -10.03571         7.71751
     2019.46064        -7.04324         7.50464
     2019.46338        -6.76378         7.99659
     2019.46611        -6.92432         8.08292
     2019.46885       -10.38986         7.72342
     2019.47158        -6.59744         7.60043
     2019.47433        -4.67494         7.84759
     2019.47980       -10.07802         7.79437
     2019.48802       -15.49763         7.60753
     2019.49075       -11.21520         7.60161
     2019.49349        -6.73071         7.71041
     2019.49623        -2.35625         7.72105
     2019.49897        -7.33579         7.73170
     2019.50096        -1.55338        11.08904
     2019.51266        -3.06149         7.79319
     2019.51540        -1.01202         7.63354
     2019.51813         1.47544         8.07583
     2019.52087        -7.90410         7.87952
     2019.52361       -10.50664         7.78136
     2019.52635        -8.60418         8.13141
     2019.52900       -14.62994         8.26386
     2019.53182       -10.57926         7.89253
     2019.53456        -5.25280         7.90790
     2019.53730         2.60766         8.12550
     2019.54004        -0.22187         7.91618
     2019.54277         2.16759         8.14442
     2019.54551         2.63305         8.51338
     2019.54824        -3.48453         7.99896
     2019.55099        -5.84303         7.75653
     2019.55373        -4.98557         7.96466
     2019.55646        13.93189         8.05099
     2019.55920        -4.39965         8.14087
     2019.56194        -2.85319         7.63591
     2019.56468        -7.27673         7.92682
     2019.56740       -10.08530         7.87479
     2019.57015         1.34620         7.67493
     2019.57289        -4.03834         7.92091
     2019.57563        -6.96388         7.96939
     2019.57837         1.28158         7.96348
     2019.58110         3.44104         7.95639
     2019.58384        -6.73050         7.87242
     2019.58649         6.18973         8.18935
     2019.58932        -3.00858         7.83222
     2019.59206         1.30988         7.78728
     2019.59479        -7.05965         7.95520
     2019.59753        -3.58119         8.26031
     2019.60027         1.83227         8.17635
     2019.60301         0.13973         7.80147
     2019.60566         6.19197         8.28987
     2019.60848        -3.51835         7.82276
     2019.61122        -7.13889         7.62053
     2019.61396        -4.06743         7.84877
     2019.61670         1.77703         8.02379
     2019.61943         2.71950         7.68085
     2019.62765         2.05188         7.87242
     2019.63039         6.19734         7.95047
     2019.63312         1.06980         7.87952
     2019.63586         2.35926         7.89371
     2019.63860         7.49572         7.87124
     2019.64134        -6.17082         7.94811
     2019.64398        -4.82160         7.93983
     2019.64681        -0.72689         7.81566
     2019.64955         0.77357         7.68439
     2019.65229        -3.59397         7.67139
     2019.65503        -1.97851         7.78964
     2019.65776        -6.57505         7.91145
     2019.66050       -11.10759         7.99896
     2019.66318        -4.93430         8.14205
     2019.66598         6.02733         7.98832
     2019.66872         0.84179         7.78610
     2019.67419        -3.38928         7.99896
     2019.67967        -3.04936         8.28751
     2019.68514        -7.75844         7.76126
     2019.68788        -2.63598         7.99423
     2019.80992         5.47559        19.73605
     2019.81382         1.10423         7.28350
     2019.81656        -3.09931         7.47744
     2019.81930         1.45615         7.27167
     2019.82203        -2.95539         7.28586
     2019.82477        -9.95293         7.38757
     2019.82751        -4.68347         7.42659
     2019.83025        -1.96801         7.57087
     2019.83299        -1.65254         7.58860
     2019.83572         0.77792         7.33080
     2019.83846        -1.36962         7.35918
     2019.84941         0.94622         7.29769
     2019.85215        -3.67532         7.34026
     2019.85489        -3.17686         7.26694
     2019.85763        -0.10840         7.37456
     2019.86036        -1.10993         7.22910
     2019.86310        -6.20547         7.37456
     2019.86584         6.44399         7.59688
     2019.86858         3.83345         7.29296
     2019.87132         5.14191         7.49163
     2019.87405         2.53837         7.25393
     2019.87679        -3.05717         7.44433
     2019.87953         7.70029         7.56850
     2019.88227        11.67575         7.52711
     2019.88501         1.49722         7.24329
     2019.88774        -2.85432         7.41240
     2019.89048        10.99214         7.28350
     2019.90143         2.22798         7.28823
     2019.90417         7.75544         7.29887
     2019.90691         3.68190         7.27995
     2019.90965         1.85836         7.32371
     2019.91238         6.26983         7.28350
     2019.91512         3.64529         7.30715
     2019.91786        15.73575         7.33317
     2019.92060         2.01021         7.24093
     2019.92607         7.42013         7.30360
     2019.92881         3.29859         7.34145
     2019.93155        -0.62695         7.36510
     2019.93429        -2.19349         7.29059
     2019.93702         4.23297         7.24920
     2019.93976         3.90644         7.27049
     2019.94250         5.78390         7.33199
     2019.94524        -0.04064         7.39703
     2019.94798        -7.79918         7.32607
     2019.95071        -9.00172         7.64892
     2019.95345         0.70274         7.26576
     2019.95619         6.16220         7.24093
     2019.95893        -2.56734         7.33908
     2019.96167        -4.00588         7.29178
     2019.96440        -0.85041         7.43132
     2019.96714        -6.82095         7.31543
     2019.96988        -3.37849         7.21136
     2019.97262        -0.80303         7.33080
     2019.97535        -2.76657         7.26813
     2019.97809        -3.90611         7.27286
     2019.98083        -2.22965         7.23501
     2019.98357        -4.12519         7.25867
     2019.98904        -6.59627         7.22674
     2019.99452        -4.99434         7.28350
     2019.99726         5.46912         7.33553
     2020.00000        10.88158         7.25985
     2020.00273        -2.67996         7.31661
     2020.00547         0.31550         7.55313
     2020.00821        -4.96404         7.55431
     2020.01095        -0.52858         7.57914
     2020.01368        -6.76912         7.47981
     2020.01642        -5.24666         7.44315
     2020.01916        -2.00119         7.38875
     2020.02190        -5.12573         7.50582
     2020.02464        -7.23727         7.51410
     2020.02737        -2.37381         7.40885
     2020.03011         3.94365         7.38165
     2020.03285        -4.14689         7.27640
     2020.03559         1.18257         7.20663
     2020.03833         1.13703         7.22082
     2020.04106        -0.63151         7.30597
     2020.04380        -4.48104         7.32489
     2020.04654         1.33642         7.16642
     2020.04928        -7.54612         7.15342
     2020.05201        -7.38266         7.18535
     2020.05475        -6.15620         7.14514
     2020.05749        -2.05374         7.13449
     2020.06023         0.00772         7.24920
     2020.06297        -1.80182         7.17943
     2020.06570        -1.37636         7.12385
     2020.06844       -12.77290         7.25512
     2020.07118         0.58357         7.21254
     2020.07392       -11.25297         7.23265
     2020.07666        -6.88551         7.18062
     2020.07939        -6.80905         7.13804
     2020.08213       -10.45259         7.18180
     2020.08487       -13.06813         7.17707
     2020.08761        -6.30667         7.18653
     2020.09034        -4.50821         7.11912
     2020.09308        -3.56375         7.09429
     2020.09582        -9.54829         7.15460
     2020.09856       -14.74482         7.17234
     2020.10130        -7.04636         7.14750
     2020.10403        -8.64990         7.16879
     2020.10677        -7.91244         7.06590
     2020.10951       -10.60598         7.16288
     2020.11225        -7.70652         7.23501
     2020.11498        -9.37506         7.21254
     2020.11772        -9.51460         7.32134
     2020.12046        -8.54614         7.36510
     2020.12320       -11.19567         7.08719
     2020.12594        -5.44321         7.11676
     2020.12867        -7.30575         7.08956
     2020.13141        -9.15129         7.14159
     2020.13415        -6.28483         7.11557
     2020.13689        -1.24737         7.21728
     2020.13963        -4.54991         7.18535
     2020.14236        -3.62545         7.11439
     2020.14510        -5.19299         7.17707
     2020.15058        -6.03706         7.12503
     2020.15331       -11.10160         7.10730
     2020.15605        -7.12414         7.07537
     2020.15879        -4.70668         7.05763
     2020.16153        -5.86022         7.13449
     2020.16427        -3.34976         7.10256
     2020.16700         3.04070         7.08956
     2020.16974        -2.10884         7.04698
     2020.17248        -1.14438         7.13568
     2020.17522        -5.85192         7.06590
     2020.17796        -5.16145         7.14750
     2020.18069         3.12501         7.14041
     2020.18343        -2.77353         7.09783
     2020.18617        -2.13707         7.08483
     2020.18891        -4.82761         7.25867
     2020.19164        -4.01215         7.30006
     2020.19438        -4.24169         7.29059
     2020.19712        -7.47023         7.18180
     2020.19986        -7.09177         7.20308
     2020.20260        -6.98330         7.32016
     2020.20533        -7.49084         7.28113
     2020.20807        -1.46838         7.24093
     2020.21081        -3.60992         7.31306
     2020.21355        -1.96446         7.83576
     2020.21629        -3.03100         7.43723
     2020.21902        -6.11454         7.35800
     2020.22176        -6.09308         7.28350
     2020.22450        -2.93262         7.20781
     2020.22724        -5.57116         7.15578
     2020.22997        -0.82069         7.15105
     2020.23271        -2.46023         7.21373
     2020.23545         2.44623         7.16406
     2020.23819        -4.02031         7.14869
     2020.24093         3.49115         7.18180
     2020.24366         2.27961         7.38520
     2020.24640        -0.54793         7.22555
     2020.24914       -10.07347         7.23738
     2020.25188        -3.60001         7.22437
     2020.25462        -2.57755         7.18180
     2020.25735        -1.01108         7.20308
     2020.26009         2.83438         7.25157
     2020.26283         2.33284         7.17588
     2020.26557        -2.68970         7.20427
     2020.26830        -3.37224         7.14159
     2020.27104        -2.66478         7.37574
     2020.27378        -3.27132         7.17115
     2020.27652        -0.06186         7.26340
     2020.27926        -3.80140         7.26340
     2020.28199        -2.27093         7.31898
     2020.28473        -2.08047         7.25275
     2020.29021        -4.08655         7.28350
     2020.29295        -2.92809         7.23738
     2020.29568         4.25837         7.27286
     2020.29842         1.34883         7.24093
     2020.30116        -0.90171         7.22201
     2020.30390        -2.53125         7.20190
     2020.30663        -5.98579         7.33080
     2020.30937        -6.49032         7.38638
     2020.31211        -7.98586         7.28232
     2020.31485        -1.80440         7.21728
     2020.31759         2.46006         7.28232
     2020.32032        -5.65448         7.17707
     2020.32306         1.93498         7.16288
     2020.32580         1.22344         7.12267
     2020.32854         1.58390         7.09074
     2020.33128        -7.85364         7.07182
     2020.33401         0.91782         7.11439
     2020.33675         2.91829         7.09665
     2020.33949        -3.52325         7.08364
     2020.34223        -0.48879         7.33080
     2020.34496        -1.59333         7.26103
     2020.34770        -5.80187         7.08128
     2020.35044        -1.48041         7.19835
     2020.35318        -7.71295         7.22674
     2020.35592        -5.48049         7.25157
     2020.35865        -2.39603         7.15223
     2020.36139        -3.79256         7.21373
     2020.36413        -0.75610         7.17588
     2020.36687        -1.42064         7.20781
     2020.36961        -4.77118         7.19126
     2020.37234        -7.63772         7.12622
     2020.37508        -1.99826         7.24566
     2020.37782        -0.30780         7.16051
     2020.38056        -3.33234         7.15815
     2020.38329         2.31312         7.17588
     2020.38603        -5.16742         7.13568
     2020.38877        -6.40395         7.36983
     2020.39151        -9.82749         7.06827
     2020.39425        -2.46803         7.13922
     2020.39698       -11.01857         7.12385
     2020.39972       -11.76611         7.07182
     2020.40246        -6.23765         7.05171
     2020.40520       -11.48219         7.14041
     2020.41067         0.68973         7.19126
     2020.41341        -1.59881         7.12385
     2020.41504        -5.65238        19.56812
     2020.41889       -11.18888         7.05526
     2020.42436        -5.53896         7.30360
     2020.42984       -10.43404         7.31661
     2020.43258        -7.85158         7.24093
     2020.43531        -9.55212         7.26221
     2020.43805        -3.80966         7.24447
     2020.44079       -10.96219         7.22437
     2020.44353         0.94327         7.29769
     2020.44626        -6.52027         7.16169
     2020.44900        -0.59181         7.06827
     2020.45174        -3.97135         7.07773
     2020.45448        -7.35089         7.15578
     2020.45722        -5.64943         7.04817
     2020.45995         2.72103         7.03634
     2020.46269        -8.09951         7.09310
     2020.46543        -5.03505         7.09310
     2020.46817        -0.38958         7.12622
     2020.47091         0.59888         7.16169
     2020.47364        -5.46866         7.03752
     2020.47638        -4.54420         7.05526
     2020.47912         0.07126         7.24684
     2020.48733        11.21164         7.58387
     2020.49007         2.39310         7.15342
     2020.49281         1.97256         7.22082
     2020.49555        -6.22797         7.24329
     2020.49828        -0.87651         7.04344
     2020.50102        -2.96705         7.10020
     2020.50376        -2.37659         7.10848
     2020.50924       -10.06667         7.08483
     2020.51197        -9.69821         7.11321
     2020.51745        -1.31129         7.01624
     2020.52019         2.40318         7.18180
     2020.52292         7.02264         7.54367
     2020.53114        -2.53398         7.38165
     2020.53388        -2.08652         7.23147
     2020.58042         2.01432         7.46207
     2020.59137        -6.55484         7.36865
     2020.59411         7.91262         7.47271
     2020.59685         6.36408         7.72933
     2020.59958         0.13755         7.45261
     2020.60232         2.51401         7.27640
     2020.60506        -1.33753         7.30006
     2020.60780        -0.88407         7.38875
     2020.61054         4.97239         7.22555
     2020.61327        -5.84015         7.32607
     2020.61601         3.12231         7.21728
     2020.61875        -6.91723         7.22674
     2020.62149        -5.51477         7.38993
     2020.62423        -6.18931         7.35800
     2020.62696        -0.92784         7.34145
     2020.62970        -0.84338         7.34736
     2020.63244         4.68508         7.42423
     2020.63518         8.08654         7.38757
     2020.63791         5.83800         7.58624
     2020.64065         2.05346         7.39703
     2020.64339        -6.43408         7.41122
     2020.64613         8.04838         7.43487
     2020.64887        -7.12016         7.58979
     2020.65160        -5.39870         7.42423
     2020.65434        -1.89723         7.32962
     2020.65708        -0.31277         7.33199
     2020.65982        -2.25031         7.33435
     2020.66256        -1.62985         7.38638
     2020.66529         5.18461         7.38284
     2020.66803         0.74607         7.30715
     2020.67077         2.20953         7.35091
     2020.67351        -4.37701         7.38757
     2020.67624        -2.26155         7.32134
     2020.67898        -2.11708         7.33080
     2020.68172        -2.95262         7.27286
     2020.68446        -2.10016         7.39703
     2020.68993        -1.76624         7.31306
     2020.69267        -4.05378         7.42896
     2020.69541        -0.22832         7.63473
     2020.69815        -1.48886         7.43605
     2020.70089        -4.59640         7.29651
     2020.70362        -3.36094         7.37101
     2020.70636       -14.43647         7.73761
     2020.70910         0.30899         7.74707
     2020.71184        -0.11855         7.42896
     2020.71457        -7.44209         7.64537
     2020.71731         4.72437         7.57441
     2020.72005       -13.00317         7.55313
     2020.72279         2.09329         7.42777
     2020.72553         8.36075         7.57678
     2020.72826         4.68821         7.75180
     2020.73100        -2.00533         7.52356
     2020.73374        -5.84386         7.43369
     2020.73648        -5.30240         7.46798
     2020.73921        -3.23494         7.40412
     2020.74195         1.09052         7.46798
     2020.74469        -0.54002         7.38638
     2020.74743        -0.77056         7.36510
     2020.75017        -2.05610         7.34972
     2020.75290        -2.94564         7.43723
     2020.75564        -3.66818         7.37929
     2020.75838         4.42628         7.21964
     2020.76112         3.36075         7.22910
     2020.76386         9.02121         7.29651
     2020.76659         9.22067         7.26694
     2020.76933         9.13813         7.45379
     2020.77207         9.53759         7.27404
     2020.77481         3.01005         7.24802
     2020.77754         9.88351         7.31661
     2020.78028         9.64797         7.41950
     2020.78302         0.13443         7.34381
     2020.78576        11.20590         7.41595
     2020.78850         3.41536         7.35918
     2020.79123         5.62882         7.33080
     2020.79397         4.88328         7.40176
     2020.79671         6.78274         7.45497
     2020.79945         4.60320         7.36746
     2020.80219        10.03266         7.53657
     2020.80492         6.20412         7.35209
     2020.80766         5.08858         7.49991
     2020.81040         7.97804         7.46798
     2020.81314        17.53251         7.30715
     2020.81587         1.26697         7.23974
     2020.81861         2.89643         7.23147
     2020.82135         5.58289         7.44078
     2020.82409         6.88835         7.31898
     2020.82683         6.44981         7.43487
     2020.82956         3.00627         7.44315
     2020.83230        11.18473         7.62053
     2020.83504         7.16519         7.51647
     2020.83778        11.18865         7.24920
     2020.84052         9.21712         7.27286
     2020.84325         4.84758         7.51528
     2020.84599         7.96804         7.44906
     2020.84873        12.00050         7.33435
     2020.85147         6.90796         7.30715
     2020.85420        16.56242         7.25157
     2020.85694        18.31488         7.34263
     2020.85968        14.23234         7.38875
     2020.86242        10.62080         7.31661
     2020.86516        12.20027         7.52002
     2020.86789        16.56673         7.56614
     2020.87063        16.58119         7.30242
     2020.87337         8.95665         7.31543
     2020.87611        12.49311         7.60161
     2020.87885        12.47257         7.55904
     2020.88158        11.06903         7.45970
     2020.88432        11.28749         7.30597
     2020.88706         7.60495         7.63473
     2020.88980         5.49041         7.45852
     2020.89253        11.05188         7.45143
     2020.89527         7.78034         7.68439
     2020.89801        12.62580         7.59807
     2020.90075        13.39526         7.37811
     2020.90349         8.41872         7.47744
     2020.90622        11.01718         7.48927
     2020.90896        14.71364         7.64300
     2020.91170         7.34910         7.73997
     2020.91444        13.05556         7.76008
     2020.91718         3.78802         7.47862
     2020.91991         6.86749         7.40057
     2020.92265         4.40095         7.44433
     2020.92539         4.97441         7.60161
     2020.92813        -0.30913         7.47744
     2020.93086         7.66133         7.58624
     2020.93360         2.81579         7.45616
     2020.93634         9.59525         7.45143
     2020.93908         7.02171         7.53066
     2020.94182        -4.02083         7.43723
     2020.94455         2.94664         7.39348
     2020.94729        -0.42790         7.45143
     2020.95003        -0.81144         7.45734
     2020.95277       -10.20898         7.39584
     2020.95551        -3.48852         7.50937
     2020.95824         6.62494         7.55194
     2020.96098         6.57440         7.52002
     2020.96372        -0.73914         7.45497
     2020.96646         5.48432         7.60516
     2020.96919        -6.79022         7.69031
     2020.97193         3.52825         7.42304
     2020.97467         3.24871         7.62881
     2020.97741        -0.09783         7.62881
     2020.98015         0.25563         7.71751
     2020.98288         3.38509         7.73170
     2020.98562         6.53155         7.42423
     2020.98836         8.45101         7.49636
     2020.99110         2.99547         7.39230
     2020.99384         2.15793         7.45379
     2020.99657         9.00739         7.53657
     2020.99931        14.69186         7.56614
     2021.00205         8.60432         7.31543
     2021.00479        16.23078         7.33080
     2021.00752        11.85324         7.30597
     2021.01026        10.50870         7.37456
     2021.01300         4.97616         7.45261
     2021.01574        10.89462         7.47508
     2021.01848         3.44008         7.35327
     2021.02121         6.91054         7.52356
     2021.02395         8.17501         7.34145
     2021.02669         2.63347         7.39466
     2021.02943         8.32593         7.41831
     2021.03216        -1.25061         7.46562
     2021.03490        14.02785         7.69740
     2021.03764         7.52931         7.36155
     2021.04038         2.28777         7.44196
     2021.04312         4.66823         7.31898
     2021.04585         6.17169         7.42896
     2021.04859         5.28215         7.36510
     2021.05133         3.88562         7.33908
     2021.05407         7.46708         7.63591
     2021.05681         3.07154         7.49755
     2021.05954        -0.18700         7.27640
     2021.06228         1.90946         7.34618
     2021.06502        12.54692         7.35209
     2021.06776         8.38538         7.33317
     2021.07049         5.84284         7.37456
     2021.07323         4.78930         7.32607
     2021.07597        -0.81924         7.49636
     2021.07871         3.05023         7.30479
     2021.08145         4.88969         7.38993
     2021.08418        -2.32685         7.65719
     2021.08692        -3.94339         7.38875
     2021.08966         0.71007         7.32371
     2021.09240        -6.84247         7.28586
     2021.09514         3.44999         7.52475
     2021.09787         3.07945         7.55667
     2021.10061         0.66291         7.34263
     2021.10335        -3.12662         7.39111
     2021.10609         0.99984         7.38757
     2021.10882        -0.44470         7.39584
     2021.11156        -3.16824         7.33317
     2021.11430        -2.73678         7.33317
     2021.11704         5.34068         7.44906
     2021.11978         3.02214         7.47153
     2021.12251        -7.75640         7.33080
     2021.12525         3.56806         7.44196
     2021.12799        10.36052         7.40412
     2021.13073        -5.10001         7.33790
     2021.13347         1.72345         7.79910
     2021.13620        -1.28509         7.61226
     2021.13894        -4.15663         7.42423
     2021.14168        -2.39917         7.37811
     2021.14442         4.09829         7.46562
     2021.14715        -2.28925         7.51765
     2021.14989        -6.99279         7.37811
     2021.15263        -1.85733         7.54485
     2021.15537         5.82913         7.47862
     2021.15811         4.08060         7.58506
     2021.16084         0.64606         7.44551
     2021.16358         4.11852         7.49400
     2021.16632        12.18798         7.50346
     2021.16906         7.86944         7.29178
     2021.17180         0.60290         7.38402
     2021.17453        -3.97564         7.59570
     2021.17727         1.11282         7.61344
     2021.18001        -0.27372         7.49755
     2021.18275        -1.35925         7.73997
     2021.18548        -2.83079         7.27049
     2021.18822        -2.31233         7.31779
     2021.19096         1.79913         7.35209
     2021.19370        -1.41041         7.46916
     2021.19644         1.88805         7.32371
     2021.19917         1.63651         7.34381
     2021.20191        -1.89103         7.31306
     2021.20465         5.93243         7.28823
     2021.20739        -0.76511         7.37811
     2021.21013         8.76736         7.58269
     2021.21286         5.56982         7.54248
     2021.21560         2.98828         7.51292
     2021.21834        -2.18126         7.25867
     2021.22108        -3.58880         7.18889
     2021.22381         0.81566         7.27995
     2021.22655         4.80312         7.24802
     2021.22929         1.18658         7.28232
     2021.23203         1.96904         7.37692
     2021.23477        -4.17150         7.41713
     2021.23750         3.68397         7.49163
     2021.24024         9.84143         7.32252
     2021.24298        -2.49011         7.39703
     2021.24572        -4.64065         7.33790
     2021.24846         9.27181         7.65128
     2021.25119         7.62927         7.47626
     2021.25393         8.32873         7.42659
     2021.25667         3.50819         7.45143
     2021.25941         6.75165         7.56968
     2021.26214         5.08012         7.57205
     2021.26488        13.40158         7.49755
     2021.26762         2.19204         7.47862
     2021.27036         5.76350         7.49163
     2021.27310         0.82396         7.47389
     2021.27583         3.26342         7.46680
     2021.27857         2.58288         7.66902
     2021.28131         3.79534         7.62408
     2021.28405         5.20080         7.66665
     2021.28679         7.75926         7.60753
     2021.28952         8.46873         7.60516
     2021.29226         4.47219         7.48927
     2021.29500         9.40765         7.68912
     2021.29774         2.09211         7.83931
     2021.30047         7.66257         7.59333
     2021.30321        10.99703         7.62999
     2021.30595        12.87649         7.73879
     2021.30869        15.41495         7.65010
     2021.31143         6.04141         7.39703
     2021.31416        10.11687         7.40057
     2021.31690        12.92134         7.45970
     2021.31964        12.12380         7.52475
     2021.32238         0.19626         7.60753
     2021.32512        -0.14128         7.45970
     2021.32785         1.71918         7.41122
     2021.33059        14.69464         7.62999
     2021.33333         5.52510         7.53539
     2021.33607        -2.87744         7.52711
     2021.33880         0.10402         7.48927
     2021.34154         1.64449         7.42186
     2021.34428        -1.54205         7.61580
     2021.34702         1.50841         7.46798
     2021.34976        -0.70713         7.47035
     2021.35249         0.33333         7.43960
     2021.35797        -6.59675         7.39230
     2021.36071         1.09671         7.46562
     2021.36344        -1.37083         7.39584
     2021.36618        -0.27837         7.45734
     2021.36892        -8.22590         7.48690
     2021.37166        -0.14444         7.42423
     2021.37440        -4.51698         7.47862
     2021.37713         6.72648         7.60871
     2021.37987         2.12694         7.44196
     2021.38261        -1.22660         7.71041
     2021.38535         2.44886         7.65483
     2021.38809         5.65932         7.69031
     2021.39082        -4.33122         7.53421
     2021.39356        -3.87476         7.48809
     2021.39630         1.38371         7.60753
     2021.39904         5.61017         7.53302
     2021.40177         5.61363         7.56377
     2021.40451         6.24009         7.70923
     2021.40725         2.84955         7.54012
     2021.40999         6.58101         7.55904
     2021.41273         5.47147         7.52711
     2021.41546         1.41593         7.50109
     2021.41820        -0.10861         7.41595
     2021.42094        -3.37114         7.63473
     2021.42368        15.17332         7.64419
     2021.42642         8.89778         7.88307
     2021.42915         1.51024         7.50937
     2021.43189        -1.29530         7.51528
     2021.43463        -0.89384         7.50464
     2021.43737         3.21662         7.57560
     2021.44010        -6.64192         7.57796
     2021.44284        -4.33146         7.65838
     2021.44558         3.66600         7.76599
     2021.44832        -0.22753         7.71159
     2021.45106         1.86593         7.76599
     2021.45379         7.18139         7.70923
     2021.45653        -0.80915         7.66784
     2021.45927         8.21331         7.54248
     2021.46201         5.77677         7.76717
     2021.46475         8.01823         7.55667
     2021.46748         5.21169         7.66074
     2021.47022         6.36215         7.62881
     2021.47296        14.85161         7.94220
     2021.47570         0.07308         8.04390
     2021.48117         4.69800         7.80738
     2021.49486         3.18030         7.95402
     2021.49760        12.68776         8.21655
     2021.50034         0.90923         7.73524
     2021.50308         3.72069         7.58033
     2021.50581         3.09815         7.66311
     2021.50855         4.39961         7.69149
     2021.51129         6.80007         7.58624
     2021.51403         2.91053         7.45024
     2021.51676        11.15799         7.28232
     2021.51950         7.66545         7.59333
     2021.52224        -7.29609         7.67612
     2021.52498         5.33837         7.60161
     2021.52772        13.96584         7.87952
     2021.53045         4.13530         7.50346
     2021.53319        -3.07624         7.73643
     2021.53593         1.03422         7.85823
     2021.53867        10.41768         8.23666
     2021.54141         0.37614         7.81093
     2021.54414        -4.32940         7.78018
     2021.54688         0.22106         7.65956
     2021.54962         5.35952         7.79083
     2021.55236         4.23498         7.68439
     2021.55509        -3.18755         7.76126
     2021.55783        -2.35209         7.54367
     2021.56057         3.38937         7.59097
     2021.56331         6.35183         7.71278
     2021.56605         2.51429         7.52829
     2021.56878         4.64075         7.54840
     2021.57152        10.74821         7.73761
     2021.57700        11.25713         7.81448
     2021.57974        -3.76341         7.51883
     2021.58247        -2.12694         7.56022
     2021.58521        -2.86148         7.55667
     2021.58795        -2.61302         7.52356
     2021.59069        -1.22756         7.66429
     2021.59342         2.89990         7.61580
     2021.59616        -2.42064         7.68794
     2021.59890         3.93182         7.54130
     2021.60164         3.23728         7.71987
     2021.60438        -4.19526         7.50937
     2021.60711        -4.07579         7.57323
     2021.60985         1.03067         7.53775
     2021.61259        -0.69587         7.53894
     2021.61533         4.34259         7.58151
     2021.61807         6.09005         7.54958
     2021.62080        -1.05749         7.49518
     2021.62354        -0.61403         7.58269
     2021.62628        12.55743         7.77427
     2021.62902        11.31489         7.51883
     2021.63175         7.91835         7.69149
     2021.63449         3.41782         7.54485
     2021.63723        11.39128         7.93865
     2021.63997         6.95974         7.68085
     2021.64271         6.29720         7.56850
     2021.64544         5.83766         7.47035
     2021.64818         4.87812         7.48690
     2021.65092        11.22458         7.54603
     2021.65366        -3.41096         7.55076
     2021.65639         6.23950         7.51647
     2021.65913         1.63896         7.44196
     2021.66187         6.87743         7.53539
     2021.66461        13.31689         7.61107
     2021.66735         7.01935         7.49163
     2021.67008         2.91481         7.52593
     2021.67282         7.72527         7.75535
     2021.67556         6.74473         8.00369
     2021.67830         5.96719         7.77190
     2021.68104         3.64465         7.48927
     2021.68377        14.32511         7.58624
     2021.68651        17.24758         7.79437
     2021.68925         4.20904         7.62053
     2021.69199         6.08750         7.64655
     2021.69472         7.07796         7.64892
     2021.69746         2.84142         7.62053
     2021.70020         9.49488         7.53302
     2021.70294         4.45734         8.14205
     2021.70568         6.58080         7.52475
     2021.70841        13.27726         7.60043
     2021.71115        25.27072         7.46562
     2021.71389         8.46419         7.76599
     2021.71663         4.25265         7.71396
     2021.71937         5.59511         7.44433
     2021.72210         1.69357         7.45143
     2021.72484         6.24103         7.51410
     2021.72758         1.37149         7.58151
     2021.73032         1.54995         7.98240
     2021.73305        11.71341         7.57678
     2021.73579        19.23387         7.42777
     2021.73853        11.33333         7.65128
     2021.74127         4.47280         7.49991
     2021.74401         9.46126         7.47035
     2021.74674        10.64772         7.54248
     2021.74948         8.66618         7.58033
     2021.75222        14.44264         7.55194
     2021.75496        14.13910         7.52829
     2021.75770        14.04156         7.60161
     2021.76043         6.41202         7.55786
     2021.76591         7.36295         7.55786
     2021.76865        10.96841         7.50937
     2021.77138         7.51487         7.51055
     2021.77412         8.68333         7.62053
     2021.77686        12.16379         7.54367
     2021.77960        14.53125         7.45852
     2021.78234        12.59571         7.44670
     2021.78507        18.57517         7.46562
     2021.78781        13.45763         7.52356
     2021.79055        11.49409         7.47626
     2021.79329        13.52556         7.47389
     2021.79603        10.10902         7.38165
     2021.79876        -0.71652         7.50346
     2021.80150        17.56794         7.94456
     2021.80424        14.85940         7.86651
     2021.80698         9.46486         7.50346
     2021.80971         8.14432         7.50109
     2021.81245        28.08278         7.76954
     2021.81519        21.79524         7.41831
     2021.81793        19.83070         7.66074
     2021.82067         7.46417         7.69267
     2021.82340        17.93463         7.68439
     2021.82614         9.01209         7.64892
     2021.82888         9.66455         7.65956
     2021.83162        12.61101         7.60516
     2021.83436        13.94747         7.74589
     2021.83709        11.07493         7.53775
     2021.83983        16.29939         7.56968
     2021.84257         9.63585         7.80620
     2021.84531         8.13632         7.67730
     2021.84804         6.04678         7.73761
     2021.85078         6.03724         7.61935
     2021.85352         7.68570         7.58624
     2021.85626        13.50816         7.65128
     2021.85900        11.40062         7.54130
     2021.86173         6.56408         7.59688
     2021.86447        10.09854         7.78964
     2021.86721        11.04100         7.88543
     2021.86995        18.22246         7.87715
     2021.87269         5.37593         7.60280
     2021.87542         9.16539         7.71751
     2021.87816         3.62185         7.45852
     2021.88090         4.43131         7.53066
     2021.88364        10.97777         7.72578
     2021.88637         4.56023         7.55076
     2021.88911         5.21769         7.52475
     2021.89185         9.26815         7.52356
     2021.89459        16.40461         7.74234
     2021.89733         2.08107         7.53066
     2021.90006        -2.67246         7.51883
     2021.90280         2.02700         7.79319
     2021.90554        15.30146         7.51765
     2021.90828        17.74692         7.75771
     2021.91102         5.56538         7.54485
     2021.91375         6.10984         7.78728
     2021.91649         0.99130         7.56377
     2021.91923         7.11976         8.00251
     2021.92197        -0.82178         8.14678
     2021.92470         3.35669         7.77782
     2021.92744         7.60515         7.96348
     2021.93018        -4.00939         7.81329
     2021.93292        13.65407         7.95639
     2021.93566        23.06053         8.05691
     2021.93839        12.05199         8.01197
     2021.94113        12.63145         8.04390
     2021.94387        14.16991         7.80975
     2021.94661        11.69037         7.69622
     2021.94935        17.65783         7.72342
     2021.95208        14.23930         7.72342
     2021.95482        14.91776         7.86415
     2021.95756        13.67122         7.83576
     2021.96030         8.38568         7.91618
     2021.96303        16.55114         7.95993
     2021.96577         7.32260         8.03917
     2021.96851        12.92206         7.97531
     2021.97125        20.23252         8.01197
     2021.97399        25.76498         7.93510
     2021.97672        14.79244         7.88661
     2021.97946        16.44891         7.91027
     2021.98220        14.72637         7.88188
     2021.98494        13.77383         7.89134
     2021.98767        11.37329         7.78491
     2021.99041        16.88675         7.71751
     2021.99315        13.91621         7.67257
     2021.99589        15.10167         7.87479
     2021.99863        17.63913         7.82867
     2022.00136        10.30459         7.83813
     2022.00410        10.36906         7.71751
     2022.00684         5.18752         7.69149
     2022.00958         7.06398         7.80383
     2022.01232        -3.53956         7.81921
     2022.01505        21.03390         8.19054
     2022.01779        17.34136         7.94456
     2022.02053         2.30382         7.71278
     2022.02327         6.89628         8.29697
     2022.02600         2.36474         7.78018
     2022.02874        -4.47580         8.09948
     2022.03148        -0.57033         7.89253
     2022.03422         0.94313         7.90672
     2022.03696         3.77359         7.77190
     2022.03969        -1.43595         7.86651
     2022.04243         1.78951         7.80265
     2022.04517         3.60697         7.81921
     2022.04791         7.85343         8.07583
     2022.05065         0.88189         7.71041
     2022.05338        -2.90565         7.70923
     2022.05612        -9.12919         7.72933
     2022.05886        -5.72972         8.04626
     2022.06160        -6.52626         7.67375
     2022.06433         5.36820         7.79319
     2022.06707        -3.40234         7.65246
     2022.06981         8.72512         7.81566
     2022.07255        -5.19542         7.61580
     2022.07529         7.87104         7.65483
     2022.07802         5.35550         7.50937
     2022.08076        13.33796         7.56732
     2022.08350         4.18543         7.62999
     2022.08624         1.29289         7.58387
     2022.08898        11.75035         7.60161
     2022.09171         5.89781         7.63354
     2022.09445         1.57127         7.61226
     2022.09719        -5.73927         7.53894
     2022.09993         0.39019         7.75771
     2022.10266        -3.71235         7.70095
     2022.10540         4.84111         7.77072
     2022.10814         8.70457         7.71987
     2022.11088         4.66404         7.62999
     2022.11362         4.98150         7.69149
     2022.11635         6.15496         7.68912
     2022.11909         7.18142         7.58860
     2022.12183         2.78688         7.60398
     2022.12457         8.70334         7.74825
     2022.12731        -1.92120         7.65010
     2022.13004       -10.45374         7.58742
     2022.13278        -4.14928         7.52829
     2022.13552         0.63818         7.62408
     2022.13826        10.25065         7.64182
     2022.14099         3.71111         7.55313
     2022.14373         1.93857         7.54367
     2022.14647        -3.96997         7.53539
     2022.14921        -0.26851         7.92682
     2022.15195        -4.78605         7.92800
     2022.15468         7.45241         7.65956
     2022.15742        -3.30213         7.55667
     2022.16016        -1.04367         7.63236
     2022.16290         2.35980         7.65010
     2022.16564         2.43126         7.60161
     2022.16837        10.70872         7.66547
     2022.17111         3.91318         7.59807
     2022.17385         0.39964         7.54603
     2022.17659         0.58210         7.54012
     2022.17932         1.92556         7.60753
     2022.18206        -1.95598         7.54958
     2022.18480         2.50148         7.53184
     2022.18754         2.97194         7.69740
     2022.19028        -3.48759         7.69740
     2022.19301         7.15787         7.56614
     2022.19575        15.86833         7.72933
     2022.19849         8.39879         7.56732
     2022.20123         6.25425         7.59215
     2022.20397        12.49471         7.60398
     2022.20670         5.53917         7.80265
     2022.20944        18.56663         7.91973
     2022.21218        10.58609         7.61344
     2022.21492         1.06155         7.58033
     2022.21765        -0.83398         7.61935
     2022.22039         1.05948         7.68676
     2022.22313        10.06294         7.70331
     2022.22587         2.47940         7.96466
     2022.22861         7.84286         8.08765
     2022.23134         6.69932         7.67493
     2022.23408         6.50178         7.58506
     2022.23682        10.44424         7.74707
     2022.23956         2.59470         7.62999
     2022.24230         5.45217         7.64655
     2022.24503         3.12763         7.51174
     2022.24777        10.58109         7.52475
     2022.25051         2.09755         7.61462
     2022.25325         3.26701         7.57323
     2022.25598         5.99247         7.49636
     2022.25872         5.24893         7.52711
     2022.26146         1.27739         7.52829
     2022.26420         0.31185         7.53775
     2022.26694        -0.06369         7.70331
     2022.26967         3.77878         7.53775
     2022.27241         7.37724         7.68085
     2022.27515         9.92670         7.88425
     2022.27789         9.79916         7.60516
     2022.28062        -1.23438         7.54130
     2022.28336         5.44608         7.69740
     2022.28610        10.40254         7.73879
     2022.28884        -1.10500         7.86060
     2022.29158         0.95346         7.62408
     2022.29431        -4.91508         7.51647
     2022.29705         3.17939         7.58742
     2022.29979         3.27985         7.54367
     2022.30253         8.94431         7.76126
     2022.30527         3.44977         7.78491
     2022.30800        -0.11877         7.65010
     2022.31074         2.99869         7.54130
     2022.31348         6.02315         7.61107
     2022.31622         0.55661         7.73406
     2022.31895       -15.78593         7.76126
     2022.32169        -1.57046         7.80147
     2022.32443         6.76900         7.60043
     2022.32717        -7.40854         7.56732
     2022.32991        -0.19508         7.56495
     2022.33264        -3.45162         7.94220
     2022.33538        -7.51716         7.81566
     2022.33812        -4.27870         7.83458
     2022.34086         3.74076         7.58860
     2022.34360        -0.90878         7.62999
     2022.34633         5.42868         7.63118
     2022.34907        -1.07185         7.54248
     2022.35181         6.48461         7.47981
     2022.35455        -5.56893         7.50582
     2022.35728         0.48453         7.53775
     2022.36002         2.94299         7.57323
     2022.36276         4.93245         7.65483
     2022.36550       -11.09609         7.56022
     2022.36824         5.97337         7.57678
     2022.37097        -2.36817         7.53184
     2022.37371        -0.86271         7.57205
     2022.37645        -2.81324         7.60398
     2022.37919         8.73922         7.79910
     2022.38193        -0.87632         7.89962
     2022.38466        -1.14786         7.53184
     2022.38740       -19.39840         7.59688
     2022.39014         1.81706         7.61699
     2022.39288        10.10952         7.58269
     2022.39561         1.96398         7.48809
     2022.39835         0.10244         7.63236
     2022.40109        -2.39509         7.61935
     2022.40383        12.22337         7.63827
     2022.40657         6.24183         7.65956
     2022.40930         1.40729         7.60753
     2022.41204         5.88975         7.60280
     2022.41478        -2.06879         7.60398
     2022.41752         8.04067         7.75535
     2022.42026         6.60513         7.76363
     2022.42299         9.50759         7.56495
     2022.42573         7.32405         7.67612
     2022.42847        12.12952         7.63236
     2022.43121         3.08298         7.73051
     2022.43668         6.54490         7.53421
     2022.43942         2.22836         7.52356
     2022.44216         0.30682         7.59333
     2022.44490        16.97428         7.89726
     2022.44763        15.06674         7.62763
     2022.45037         8.01720         7.66547
     2022.45311         3.30466         7.63946
     2022.45585        11.49113         7.81448
     2022.47501        10.33235         7.48927
     2022.47775         3.18481         7.72697
     2022.48049         2.52527         7.62290
     2022.48323         6.49574         7.70923
     2022.48596        22.27820         7.79319
     2022.48870        -3.29834         7.58387
     2022.49144         2.23012         7.47389
     2022.49418        12.73058         7.76363
     2022.49692         2.26104         7.76836
     2022.49965         2.82650         7.82630
     2022.50239       -10.61104         7.61817
     2022.50513         5.23242         8.07819
     2022.50787        13.18189         8.15624
     2022.51060         1.76335         8.03562
     2022.51334         4.17381         7.68794
     2022.51608         2.84327         7.89134
     2022.51882        -9.74427         7.63827
     2022.52156        -2.13381         7.62172
     2022.52429        -0.70435         7.52238
     2022.52703         2.65011         7.56614
     2022.52977         9.03957         7.79083
     2022.53251        -1.48897         7.94456
     2022.53525        -3.84650         7.75771
     2022.53798        -0.56304         7.59688
     2022.54072        -0.58158         7.89726
     2022.54346         5.05888         7.49400
     2022.54620        -0.18366         7.58033
     2022.54893        -3.28120         7.57323
     2022.55167        13.14226         7.84641
     2022.55441         2.05572         7.52356
     2022.55715         6.26218         7.62881
     2022.55989        -1.84136         9.58480
     2022.56262         0.33611         8.48973
     2022.56536       -11.46643         7.86651
     2022.56810         6.47503         7.47862
     2022.57084         3.59049         7.64300
     2022.57357        10.30695         7.90554
     2022.57631         4.84541         7.75180
     2022.57905        -2.92813         7.76244
     2022.58179         7.82033         7.53657
     2022.58453        21.45579         8.11485
     2022.58726        -8.47774         7.68203
     2022.59000        -0.91628         7.93392
     2022.59274        -4.35582         7.67257
     2022.59548        -7.88436         7.69031
     2022.59822       -16.92590         7.62645
     2022.60095        -4.59544         7.61935
     2022.60369        26.73002         8.18344
     2022.60643         3.10548         7.68794
     2022.60917         6.69894         7.82867
     2022.61190        16.35040         8.11367
     2022.61464         6.25387         7.70686
     2022.61738         9.31533         7.73288
     2022.62012         1.99179         8.13377
     2022.62286         5.88525         7.79319
     2022.62559         2.02871         7.78136
     2022.62833         2.43517         7.70331
     2022.63107         8.56063         7.66074
     2022.63381         7.56309         7.54840
     2022.63655        14.80055         7.72815
     2022.63928        11.19801         8.26149
     2022.64202        -3.84652         8.46844
     2022.64476         6.04994         8.13732
     2022.64750         9.37340         7.74234
     2022.65023        19.28186         7.85350
     2022.65297         4.12632         8.09830
     2022.65571        14.10278         7.73406
     2022.65845        10.28224         7.48336
     2022.66119         9.63670         7.52238
     2022.66392        18.85916         7.45024
     2022.66666        12.10363         7.39466
     2022.66940         5.70209         7.47862
     2022.67214        17.45255         7.50464
     2022.67488        13.11001         7.66429
     2022.67761        10.42747         7.43960
     2022.68035        10.25293         7.52356
     2022.68309         7.25939         7.50819
     2022.68583         7.79985         7.69858
     2022.68856        16.32131         7.55786
     2022.69130        14.25177         7.71632
     2022.69404         9.88524         7.57087
     2022.69678        17.02370         7.69504
     2022.69952         4.73916         7.85468
     2022.70225        20.11162         8.00487
     2022.70499        15.25008         7.94574
     2022.70773        12.03354         7.58387
     2022.71047         4.24100         7.72578
     2022.71321        13.98746         7.50701
     2022.71594        16.83692         7.57560
     2022.71868        21.47838         7.84522
     2022.72142        20.48185         7.79201
     2022.72416        12.27831         7.60989
     2022.72689         9.33577         7.54958
     2022.72963        14.93023         7.39939
     2022.73237        13.90569         7.80620
     2022.73511        15.04615         7.57441
     2022.73785        16.60361         7.40530
     2022.74058        26.03607         7.74470
     2022.74332        22.83753         7.61935
     2022.74606        11.57700         7.43487
     2022.74880        11.04746         7.41004
