# ================= DQRFIT RESULTS ================
# INPUT FILE: series/CLHQ.rad
# OUTPUT: LDETRENDED
# FILTER FUNCTION: f(t)
# f(t)=+line(t)+annual(t)
# line(t)=+P 1+P 2*t
# annual(t)=+P 3*sin(2*pi*t+P 4)
# heav(t)=(t<0?0:1)
# TOTAL OBSERVATIONS MTOT= 3564
# INITIAL TIME INTERVAL= 2022.7488 - 2009.7851 = 12.9637
# TOTAL OBSERVATIONS AFTER PREFILTER M= 3403
# TIME-SPAN= 2022.7488 - 2009.7851 = 12.9637
# OBSERVATIONS: USED M=  3403 REJECTED MTOT-M=   161 %USED=   95.4826
# N=  4 PARAMETERS
# MAXSIG= 175.00000
# MAXRES=  74.49110
# SCALE FACTOR FOR LENGTHS: SCL=  10.00000
# SCALE FACTOR FOR SIGMAS: SCLSIG=   1.00000
# CHI^2=  15066.034 DOF=  3399 CHI^2/DOF=   4.43249
# RMS=     16.455 SDEV=     16.453 MEAN=   -0.37004
#  P #       PARAMETER +-    SIGMA %error PARAMETER NAME
# P 1 =      2512.73242 +-  130.132   5.18 YZERO                              
# P 2 =        -1.24540 +-    0.065   5.18 SLOPE                              
# P 3 =         9.19832 +-    0.376   4.09 ANNUAL AMPLITUDE                   
# P 4 =        -2.66280 +-    0.051   1.93 ANNUAL PHASE                       
#       T            LDETRENDED       SIG_OBS
     2009.78507        45.82494        18.31653
     2009.78781        -8.72065        18.08704
     2009.79055       -26.62724        16.61330
     2009.79329        -8.23883        16.91858
     2009.79603       -17.07242        16.65120
     2009.79876        -4.76001        16.57330
     2009.80150        -1.76160        17.26175
     2009.80424       -17.95119        17.19017
     2009.80698        -7.62778        16.54593
     2009.80971        -0.31837        16.86173
     2009.81245         6.04104        17.72282
     2009.81519         9.54245        16.43645
     2009.81793        12.21086        17.41544
     2009.82067        -1.95173        16.49751
     2009.82340        -5.11132        15.79643
     2009.82614       -19.30591        17.37965
     2009.82888       -15.86450        17.20490
     2009.83162         4.54991        17.58808
     2009.83436         1.82032        17.28070
     2009.83709        -2.69027        16.83226
     2009.83983        -1.32286        16.50593
     2009.84257         3.48655        16.28276
     2009.84531        14.47896        17.20280
     2009.84804       -16.27963        17.47018
     2009.85078         7.51278        17.08700
     2009.85352        11.67818        17.44070
     2009.85626         7.72059        17.67229
     2009.85900        -4.96000        17.58597
     2009.86173        -6.58859        17.65545
     2009.86447        -0.06418        17.88704
     2009.86721       -10.23577        17.31438
     2009.86995       -39.49636        17.21964
     2009.87269       -31.47695        18.67654
     2009.87542       -40.60554        17.67440
     2009.87816         0.38187        17.85546
     2009.88090         5.39828        16.63225
     2009.88364        -8.78431        16.62804
     2009.88637       -26.42690        15.95222
     2009.88911         6.10251        15.73748
     2009.89185         8.34292        16.28697
     2009.89459         7.31733        17.28912
     2009.89733       -36.27426        20.13555
     2009.90006        -8.20785        16.27434
     2009.90280        -0.20744        16.25118
     2009.90554         0.55597        16.00486
     2009.90828        11.94738        16.06802
     2009.91102       -48.52821        17.85546
     2009.91375         0.18220        16.03644
     2009.91650         6.20561        16.16065
     2009.91923        -2.10498        15.71642
     2009.92197         5.43943        16.05117
     2009.92470         1.57284        15.98170
     2009.92744         1.73925        15.59642
     2009.93018         0.74966        15.51010
     2009.93292         2.41507        15.58168
     2009.93566         7.16348        15.23009
     2009.93839        10.41789        15.59431
     2009.94113         1.79730        15.59852
     2009.94387        -7.65229        16.48066
     2009.94661        -7.54588        16.49119
     2009.94935        -5.19147        16.26802
     2009.95208       -11.01306        15.72274
     2009.95482        -5.61066        16.56909
     2009.95756       -18.44125        17.13122
     2009.96030       -36.30184        17.25754
     2009.96303       -10.38943        18.26600
     2009.96577       -21.92002        16.89963
     2009.96851       -18.11861        17.07858
     2009.97125       -44.08020        16.99016
     2009.97399        10.13821        16.66804
     2009.97672        -7.07238        16.10802
     2009.97946        10.53903        16.20697
     2009.98220       -31.57456        18.57127
     2009.98494       -42.29515        16.71436
     2009.98767       -38.75974        15.49536
     2009.99041       -34.16633        15.48483
     2009.99315       -30.93892        15.12482
     2009.99589       -46.18951        15.40694
     2009.99863       -50.69410        15.90169
     2010.00684       -76.10987        17.38596
     2010.00958       -79.10046        16.53751
     2010.01505       -40.70464        17.62387
     2010.01779       -31.33623        17.20280
     2010.02053       -14.45082        17.09121
     2010.02327       -36.55241        17.22385
     2010.02600        -6.12700        16.43014
     2010.02874        -1.45359        16.87015
     2010.03148        12.39282        16.51224
     2010.03422       -13.41577        17.08279
     2010.03696       -21.01236        17.67861
     2010.03969        28.09505        17.11227
     2010.04243       -26.41654        16.33750
     2010.04517         6.71087        16.19855
     2010.04791        -1.16572        16.71225
     2010.05065        10.19469        16.63646
     2010.05338        14.81510        16.85121
     2010.05612        13.04150        17.19017
     2010.05886        -2.74909        16.56488
     2010.06160        -6.13068        16.52067
     2010.06433       -11.37327        16.96279
     2010.06707         6.85814        16.84278
     2010.06981       -19.54245        17.55650
     2010.07255       -28.01604        17.39228
     2010.07529       -39.76963        17.12490
     2010.07802       -10.64522        17.46597
     2010.08076        12.97719        17.06174
     2010.08350         7.39760        16.58804
     2010.08624        -0.23298        16.45961
     2010.08898        11.69342        17.98809
     2010.09171        -4.18417        17.53123
     2010.09445       -24.28076        18.11652
     2010.09719       -10.88435        17.24701
     2010.09993       -18.16094        17.21964
     2010.10266       -34.37653        18.27442
     2010.10540       -38.95712        18.35653
     2010.10814       -18.53671        18.11441
     2010.11088       -31.96530        17.90177
     2010.11362       -38.97289        17.98178
     2010.11635       -25.58948        17.98599
     2010.11909       -37.42607        19.07445
     2010.12183         8.71334        18.34811
     2010.12457       -12.15525        19.38815
     2010.12731        58.77316        20.28082
     2010.13004        -0.32543        16.77752
     2010.13278         5.42698        16.40277
     2010.13552         5.79839        16.22381
     2010.13826        14.36380        15.58168
     2010.14099         6.43721        15.39430
     2010.14373        -0.80838        16.65962
     2010.14647         4.80403        16.91226
     2010.14921        10.96244        16.74383
     2010.15195        -8.13815        16.54804
     2010.15468       -30.41474        16.68909
     2010.15742        29.34666        16.74383
     2010.16016         5.36407        16.55856
     2010.16290         4.09949        16.94174
     2010.16564         3.20589        16.58593
     2010.16837        10.62330        16.43856
     2010.17111       -22.41029        16.35855
     2010.17385        -5.16788        16.76489
     2010.17659        -4.44547        16.47435
     2010.17932        14.35194        16.26381
     2010.18206        12.20135        15.67221
     2010.18480         2.27476        15.04061
     2010.18754        -5.72883        15.41115
     2010.19028         4.67658        15.28483
     2010.19301       -17.66001        15.93959
     2010.19575       -43.60960        15.96064
     2010.19849         1.04381        16.75015
     2010.20123         7.55622        18.46180
     2010.20397        12.64863        16.39645
     2010.20670         6.18904        15.64695
     2010.20944         6.91545        15.54799
     2010.21218         7.37386        15.53747
     2010.21492         5.44027        15.81748
     2010.21765         4.15668        15.92064
     2010.22039         0.72309        15.44483
     2010.22313        -9.73050        15.33957
     2010.22587         2.17691        16.35224
     2010.22861        -1.24068        15.90169
     2010.23134       -26.90027        16.32908
     2010.23408       -33.56286        16.64909
     2010.23956        14.53396        18.28074
     2010.24230        -7.46563        16.26592
     2010.24503       -22.96222        16.40908
     2010.24778       -31.06781        15.95433
     2010.25051       -18.32540        16.28066
     2010.25325       -39.30099        16.14802
     2010.25598       -44.58059        16.40277
     2010.25872       -26.04118        16.54172
     2010.26146       -54.98977        16.57540
     2010.26694         5.40005        15.75853
     2010.26967         9.25946        15.70169
     2010.27241         9.31687        16.53119
     2010.27515        -2.05472        16.32697
     2010.27789         2.95469        16.57962
     2010.28062        -4.85990        15.81537
     2010.28336        -8.89649        16.41329
     2010.28610        -0.97608        15.80064
     2010.28884         3.84533        16.01117
     2010.29158        -2.03326        15.83432
     2010.29431         2.25415        15.80064
     2010.29705        -5.69044        15.97328
     2010.29979        -7.15103        16.09328
     2010.30253         3.16538        16.30592
     2010.30527        12.51379        16.03433
     2010.30800        -1.22980        15.76274
     2010.31074         5.24761        16.01328
     2010.31348        -2.32298        15.75221
     2010.31622        16.00643        15.79011
     2010.31895       -34.12316        17.53544
     2010.32169       -43.72775        16.96068
     2010.32443       -53.68734        17.08700
     2010.32717       -54.21793        16.46803
     2010.32991         7.07448        15.75853
     2010.33264        14.64489        15.60694
     2010.33538        -5.62770        17.21333
     2010.33812       -18.69129        15.22588
     2010.34086        -1.74288        14.89744
     2010.34360        -2.44247        15.02166
     2010.34633         2.52194        15.51641
     2010.34907        -2.32165        15.16693
     2010.35181         3.67476        15.35009
     2010.35455       -17.08383        15.65958
     2010.35728       -10.31143        16.50593
     2010.36002        -1.67602        15.81327
     2010.36276        -1.76761        15.60905
     2010.36550        -2.38220        16.17118
     2010.36824         0.23021        16.31224
     2010.37097         1.42662        16.19223
     2010.37371         2.65803        15.84695
     2010.37645       -11.59956        17.16490
     2010.37919         6.60485        16.97753
     2010.38193       -13.54074        16.34592
     2010.38466        -0.19633        15.77958
     2010.38740       -12.77792        15.19430
     2010.39014         5.10049        15.77537
     2010.39288        -3.94210        15.81327
     2010.39561        -5.14269        16.04486
     2010.39835       -16.64728        16.63014
     2010.40109       -11.43887        16.47224
     2010.40383        -5.75246        15.72484
     2010.40657         5.09195        16.13118
     2010.40930        -1.31764        15.57747
     2010.41204        -0.00923        15.52063
     2010.41478         9.12619        15.69326
     2010.41752       -13.22641        16.37329
     2010.42026         7.74000        16.94384
     2010.42299         5.35441        17.51860
     2010.42573         0.43182        15.34167
     2010.42847         1.09623        15.92064
     2010.43121       -16.70636        15.48905
     2010.43394         4.35005        15.76906
     2010.43668         3.82346        15.98170
     2010.43942       -17.11013        16.33329
     2010.44216        -8.75472        16.16697
     2010.44490       -13.95831        15.72274
     2010.44763        -9.08690        15.73116
     2010.45037         2.85751        15.67221
     2010.45311         3.28092        15.58800
     2010.45585         1.21533        15.50589
     2010.45859         6.10273        16.23434
     2010.46132         2.02814        15.77748
     2010.46406        -1.22545        15.55221
     2010.46680         2.52696        15.95222
     2010.46954        -2.21063        15.97749
     2010.47227         3.91078        15.77748
     2010.47501         9.10919        15.92064
     2010.47775        -8.93640        15.97538
     2010.48049        10.72701        16.40698
     2010.48323         1.94642        15.83222
     2010.48596         9.57483        15.80906
     2010.48870        12.54024        15.87432
     2010.49144        -0.37635        15.48905
     2010.49418        -0.96294        15.66168
     2010.49692         7.88548        15.64274
     2010.49965        -7.80512        15.60694
     2010.50239         9.84829        15.73748
     2010.50513        -1.61030        15.30799
     2010.50787        -2.58289        15.19851
     2010.51060         0.13452        15.93538
     2010.51334        -3.94107        15.76064
     2010.51608        -2.22866        15.56694
     2010.51882         8.37175        15.73327
     2010.52156         9.89116        15.83222
     2010.52429        13.06357        16.03012
     2010.52703         7.88198        15.62168
     2010.52977        -2.26761        15.17535
     2010.53251         1.99280        15.58800
     2010.53525         4.96621        15.58800
     2010.53798        -5.93038        16.09117
     2010.54072        -0.94597        15.58168
     2010.54346        -3.99856        15.77116
     2010.54620         3.60285        15.95222
     2010.54893         1.47726        15.84485
     2010.55167        -5.87133        15.57326
     2010.55441         2.11508        15.45746
     2010.55989         2.18289        15.71853
     2010.56262         2.56130        15.89327
     2010.56536       -17.68929        16.44487
     2010.56810         1.41512        15.97749
     2010.57084         2.21753        15.63431
     2010.57357        -5.93706        16.63646
     2010.57631         2.65735        16.39645
     2010.57905        -1.22524        15.86380
     2010.58179        -0.59282        15.63221
     2010.58453        10.52558        15.91854
     2010.58726         7.06399        16.35013
     2010.59000         6.37240        17.03016
     2010.59274         8.08581        15.93748
     2010.59548        11.62022        16.26592
     2010.59822         9.29563        15.60905
     2010.60095        10.59704        15.59642
     2010.60369         5.54845        16.02801
     2010.60643         8.50886        16.19434
     2010.60917         9.74627        15.66589
     2010.61190         0.59468        15.92696
     2010.61464         9.03509        15.81116
     2010.61738        13.21350        15.75853
     2010.62012        15.31391        16.08486
     2010.62286        -1.61168        16.00907
     2010.62559        13.78273        16.28276
     2010.62833        -2.74586        16.04696
     2010.63107        20.79155        16.24065
     2010.63381        14.06096        16.17328
     2010.63655        12.72637        16.04275
     2010.63928         9.79778        15.88906
     2010.64202         1.90819        15.64905
     2010.64462         8.46342        16.89331
     2010.65298         2.09784        15.59010
     2010.65572        10.68125        14.63006
     2010.65846        -0.25534        14.90376
     2010.66120         6.88007        15.30588
     2010.66339        10.16580        19.72290
     2010.66667        -2.60111        14.79217
     2010.66941         0.51630        14.76691
     2010.67215         1.27271        14.86797
     2010.67488        14.69712        15.10377
     2010.67762        10.13153        14.52690
     2010.68036         8.78393        14.65954
     2010.68310         3.95234        14.79428
     2010.68584         0.16175        15.51431
     2010.68857         3.67016        14.94165
     2010.69131         0.99257        14.77744
     2010.69405         9.02298        14.95429
     2010.69679         9.71339        15.04482
     2010.69953        -4.30120        14.99850
     2010.70226        12.47921        15.29535
     2010.70500         4.55462        14.81323
     2010.70774         0.65003        14.90376
     2010.71048         7.85744        14.66164
     2010.71321         4.57285        15.33746
     2010.71595         6.14226        15.43220
     2010.71869         7.48867        15.23219
     2010.72143         0.86108        15.46799
     2010.72417         0.40349        15.00482
     2010.72690         6.76590        15.12903
     2010.72964        -0.66769        14.77744
     2010.73238         5.15172        14.77954
     2010.73512        -3.22787        14.56901
     2010.73786         7.10354        15.37325
     2010.74059        14.30595        14.96481
     2010.74333         9.13836        14.93113
     2010.74607         8.21677        14.94797
     2010.74881         4.64418        14.89113
     2010.75154         8.20659        14.79428
     2010.75428         3.38500        14.72270
     2010.75702        10.85141        15.01534
     2010.75976         4.92182        15.01324
     2010.76250         1.79423        15.14377
     2010.76523         4.68864        14.69322
     2010.76797        17.57905        14.83218
     2010.77071        -3.26254        15.21114
     2010.77345         7.19887        15.20693
     2010.77619         3.45228        15.03640
     2010.77892        -3.65931        14.80481
     2010.78166        12.28109        14.80902
     2010.78440        14.05050        15.00692
     2010.78714        11.12491        14.94165
     2010.78987         5.21532        14.62796
     2010.79261         3.77173        14.65112
     2010.79535        -1.16786        14.85534
     2010.79809        10.33955        14.67006
     2010.80083         4.26296        14.79217
     2010.80356         8.74737        14.48690
     2010.80630         0.55278        14.49322
     2010.80904        -0.15681        15.45536
     2010.81178        18.66460        15.59010
     2010.81452        11.11201        14.82797
     2010.81725        -4.43858        15.05534
     2010.81999       -22.68917        15.11008
     2010.82273       -27.67576        15.27641
     2010.82547       -56.41135        15.57747
     2010.82820         5.59606        15.48905
     2010.83094         5.58747        15.96696
     2010.83368         0.00988        15.58589
     2010.83642       -14.17771        14.73112
     2010.83916        -3.96930        14.88481
     2010.84189        -3.79489        14.84270
     2010.84463         8.70252        14.82376
     2010.84737        -2.65807        14.56269
     2010.85011         7.32134        15.09956
     2010.85285        -8.18025        14.92271
     2010.85558        -6.67584        15.10166
     2010.85832       -27.08043        15.48273
     2010.86106       -52.38502        15.30799
     2010.86380        -0.81061        14.77533
     2010.86653        -8.97320        14.82376
     2010.86927       -20.12879        15.16903
     2010.87201        -5.53138        14.91429
     2010.87475        -2.17197        14.99639
     2010.87749         3.81244        14.75428
     2010.88022         2.08485        14.24689
     2010.88296         4.73525        14.31005
     2010.88570         1.13766        14.07846
     2010.88844       -11.41093        14.72270
     2010.89118        -8.78752        14.61322
     2010.89391        -0.27611        14.28900
     2010.89665        -1.26570        14.22373
     2010.89939        -3.16029        15.09956
     2010.90486       -49.70247        14.39847
     2010.91034       -56.38765        14.95008
     2010.91855       -11.84542        15.51220
     2010.92129       -58.96501        15.87643
     2010.92677        50.20881        16.10381
     2010.92951        21.06422        16.27013
     2010.93224        -7.53337        15.57958
     2010.93498       -12.37196        15.45957
     2010.93772        -7.50055        16.32697
     2010.94046       -14.42514        16.51856
     2010.94319       -40.14073        17.30807
     2010.94593        -1.51032        15.17745
     2010.94867         6.84709        15.45746
     2010.95141        -1.07950        15.04903
     2010.95415         7.74691        14.42584
     2010.95688        11.47932        14.16899
     2010.95962        -3.47727        14.21110
     2010.96236        -2.52686        14.07215
     2010.96510       -30.78845        14.72270
     2010.97605       -58.40481        14.78586
     2010.97879       -51.91340        15.34799
     2010.98152       -57.47100        15.02797
     2010.98426       -56.97759        14.65533
     2010.98700       -55.64018        14.76270
     2011.00890       -52.58090        16.28066
     2011.01164       -24.05249        15.56484
     2011.01438       -16.19608        15.44062
     2011.01712         8.16533        14.84270
     2011.01985        -0.29926        14.54164
     2011.02259        -5.34085        14.26163
     2011.02533        -4.18244        14.45953
     2011.02807        -3.97503        14.81954
     2011.03081        14.71738        15.55642
     2011.03354        -7.29421        17.73124
     2011.03902        -3.99039        16.20697
     2011.04176       -10.45198        16.24697
     2011.04449         5.25943        15.35430
     2011.04723         8.79084        15.35641
     2011.04997         3.05125        15.40694
     2011.05271        -0.38034        14.55638
     2011.05545        -1.92193        14.97113
     2011.05818         5.05148        14.44058
     2011.06092         6.41189        14.78375
     2011.06366         3.24830        14.78375
     2011.06640        -6.43929        14.65112
     2011.06914         3.39112        15.85748
     2011.07187         1.53853        14.89113
     2011.07461        -1.32906        14.58585
     2011.07735        -2.48465        14.57743
     2011.08009        -7.95124        14.91218
     2011.08282        -2.70484        14.66585
     2011.08556       -11.71943        14.60690
     2011.08830        -0.22302        14.54795
     2011.09104        -8.47261        14.76059
     2011.09378        -1.88120        14.60059
     2011.09651        -3.75979        15.71432
     2011.09925        -2.66838        14.88481
     2011.10199       -13.06297        14.58375
     2011.10473         3.94544        13.94161
     2011.10747        -0.05915        14.37532
     2011.11020        -2.74574        14.68059
     2011.11294        -4.55333        15.04903
     2011.11568         5.16208        14.86586
     2011.11842         5.63549        15.17535
     2011.12115         2.37890        14.76691
     2011.12389        -5.62569        14.94165
     2011.12663        -5.67528        14.80691
     2011.12937       -45.10287        14.56690
     2011.13211       -54.32846        14.95218
     2011.13484       -54.90205        14.48479
     2011.13758       -57.11164        14.72901
     2011.14032       -63.06623        14.80902
     2011.14390       -36.15577        24.90837
     2011.14580       -48.68341        14.31637
     2011.14853       -53.38500        14.53322
     2011.15127       -66.07559        14.89534
     2011.15401       -58.65318        14.65112
     2011.15675       -38.31677        14.92271
     2011.15948       -45.52436        14.74375
     2011.16222       -47.66495        14.95008
     2011.16496       -61.68354        14.80902
     2011.17865       -15.51549        15.46378
     2011.18139       -45.41908        16.25329
     2011.18413       -73.23768        16.51435
     2011.18686       -10.15527        15.20482
     2011.18960        -0.84286        14.63006
     2011.19234        -0.58245        14.60480
     2011.19508       -11.77104        15.26377
     2011.19781         4.03137        14.93534
     2011.20055         8.69578        15.88906
     2011.20329       -25.77881        15.52484
     2011.20603       -35.30440        15.53115
     2011.20877       -28.24799        15.07850
     2011.21150       -47.49958        15.39220
     2011.21424       -25.33617        15.22798
     2011.21698       -34.71976        15.57958
     2011.21972       -17.69335        15.32062
     2011.22246       -46.33394        15.30377
     2011.22519       -24.74153        14.74375
     2011.22793       -21.87412        15.12061
     2011.23067       -31.74771        14.87639
     2011.23341       -43.28530        15.00903
     2011.23614       -49.13289        15.49747
     2011.23888       -78.94348        16.02801
     2011.24162       -75.92407        16.62593
     2011.24436       -10.13466        15.25325
     2011.24710       -12.54925        15.12271
     2011.24983       -11.66084        14.80481
     2011.25257        -7.54243        14.96481
     2011.25531        -4.76802        14.82586
     2011.25805        -2.68361        16.47856
     2011.26079       -39.14220        16.57330
     2011.27174       -61.78356        15.58379
     2011.27447       -38.13315        15.84906
     2011.27721       -33.09974        15.63852
     2011.27995        17.34367        15.32693
     2011.28269       -14.64192        14.17952
     2011.28543         4.52248        15.16903
     2011.28816       -42.83811        18.41758
     2011.29090        -9.67470        16.09960
     2011.29364       -18.91829        15.04061
     2011.29638        -6.94888        14.70586
     2011.29911        -0.48747        14.96481
     2011.30185       -18.75206        15.10587
     2011.30459        -4.82265        14.48690
     2011.30733        -2.63824        14.67217
     2011.31007       -16.23283        14.92692
     2011.31280        -3.37642        15.27009
     2011.31554        -3.99101        14.64480
     2011.31828        -1.08360        14.52901
     2011.32102       -11.27619        14.70796
     2011.32376        -9.36678        14.37532
     2011.32649       -11.08237        15.56905
     2011.32923        -9.56496        14.69112
     2011.33197        -3.84255        14.86376
     2011.33471       -17.07414        14.97323
     2011.33744        -7.57873        15.02376
     2011.34018        -2.81932        15.44483
     2011.34292         0.85409        15.22588
     2011.34840       -29.79009        15.60694
     2011.35113       -11.68768        14.78586
     2011.35387       -12.83027        15.27430
     2011.35661       -13.32286        14.71007
     2011.35935       -37.99745        15.20693
     2011.36209       -13.29704        15.02587
     2011.36482       -20.85063        15.40483
     2011.36756       -24.23122        15.10587
     2011.37030       -21.79281        14.80270
     2011.37304         1.69060        15.49747
     2011.37577       -17.42899        15.30588
     2011.37851       -11.80858        15.32693
     2011.38125       -13.45417        15.53747
     2011.38399        -9.44976        15.41746
     2011.38673       -14.65136        15.26798
     2011.38946        -9.67795        15.22798
     2011.39220        -5.41554        15.02376
     2011.39494       -34.03513        16.44277
     2011.39768       -25.58972        15.66379
     2011.40042       -37.79431        16.39224
     2011.40315       -13.97490        16.05117
     2011.40589        -7.24649        15.24693
     2011.40863        -7.69808        15.83432
     2011.41137       -14.09467        16.25118
     2011.41410       -50.05926        16.60277
     2011.41684        -7.75885        15.90801
     2011.41958       -13.19744        15.93327
     2011.42232       -16.17103        15.18166
     2011.42506       -16.51562        15.42588
     2011.42779        -2.62221        15.70800
     2011.43053       -10.15380        15.75642
     2011.43327       -24.35939        15.03429
     2011.43601       -13.31598        15.13535
     2011.43875       -14.65357        15.06798
     2011.44148       -11.90516        15.31641
     2011.44422       -12.18475        15.52694
     2011.44696       -12.89334        16.08907
     2011.44970        -9.95593        15.88696
     2011.45243       -16.11252        15.59010
     2011.45517       -13.32511        15.12482
     2011.45791       -19.03170        15.54589
     2011.46065       -11.02129        15.78379
     2011.46339       -21.55088        15.86801
     2011.46612        -9.13047        15.54799
     2011.46886        -2.81206        15.62589
     2011.47160        -7.60565        15.38167
     2011.47434        -8.10324        15.27009
     2011.47708        -3.71383        15.26588
     2011.47981       -10.50842        15.47431
     2011.48255        -9.45601        14.98166
     2011.48529        -2.82860        15.25956
     2011.48803        -5.58120        15.84695
     2011.49076        -8.77379        15.89538
     2011.49350        -9.88238        15.51852
     2011.49624        -4.46097        15.37115
     2011.49898         2.49344        15.36062
     2011.50172        -4.15515        15.44483
     2011.50445        -7.46374        15.65116
     2011.50719        -2.58133        15.57747
     2011.50993        -7.93492        15.37536
     2011.51267        -4.43251        15.93117
     2011.51541        -3.57110        15.15640
     2011.51814         3.90731        15.38799
     2011.52088         3.57672        15.51852
     2011.52362        -2.88787        15.41746
     2011.52636        -0.53546        15.36693
     2011.52909         1.91295        15.35641
     2011.53183         5.31036        15.46168
     2011.53457        -1.35423        15.52905
     2011.53731         0.98818        15.59010
     2011.54005         6.09059        15.81537
     2011.54278        -7.66000        16.18592
     2011.54552       -13.05159        16.04275
     2011.54826         1.86582        15.65326
     2011.55100         0.92623        15.33746
     2011.55374        -4.98136        15.73958
     2011.55647         8.60405        15.98170
     2011.55921        15.83946        15.88696
     2011.56195        12.52887        15.35220
     2011.56469         9.06128        15.34378
     2011.56742         1.75569        15.47641
     2011.57016         4.69310        15.83222
     2011.57290        -0.09549        15.67221
     2011.57564        22.19192        15.63221
     2011.57838         7.87133        15.49326
     2011.58111         3.10474        15.41115
     2011.58385         7.15215        15.41957
     2011.58659         6.98556        16.28697
     2011.58933         8.55496        15.76906
     2011.59206         3.14237        15.44273
     2011.59480         3.79078        15.71853
     2011.59754        26.19119        15.58589
     2011.60028        14.23060        15.83853
     2011.60302         9.07001        15.85538
     2011.60575         8.89142        15.54168
     2011.60849         9.64483        16.46593
     2011.61123        16.27924        16.63435
     2011.61397        13.33665        15.64905
     2011.61671         7.89206        15.77327
     2011.61944        18.38947        16.20907
     2011.62218         4.18088        16.14381
     2011.62492        16.97029        15.73958
     2011.62766         6.11070        15.63852
     2011.63039        16.98111        15.54378
     2011.63313        11.16852        15.83011
     2011.63587         6.90293        15.95854
     2011.63861        13.92634        15.86380
     2011.64135        13.26975        16.08065
     2011.64408         5.20916        16.00907
     2011.64682        15.95557        15.88275
     2011.64956         5.87798        16.26802
     2011.65230        10.14839        16.15434
     2011.65504         9.06380        15.58168
     2011.65777         0.28521        15.77748
     2011.66051         5.14762        16.14591
     2011.66325        20.50203        16.28066
     2011.66599        11.12344        16.19855
     2011.66872         5.27485        16.06170
     2011.67146         3.82526        15.48062
     2011.67420        12.94167        15.50168
     2011.67694        11.94208        15.65958
     2011.67968         9.23749        16.05538
     2011.68241        -2.14310        16.41750
     2011.68515         3.20931        15.74379
     2011.68789        10.63072        16.22802
     2011.69063         8.22312        15.60694
     2011.69337         6.30053        15.90169
     2011.69610        -1.94706        16.17539
     2011.69884         4.75835        16.47645
     2011.70158        13.58476        15.80274
     2011.70432         9.88817        15.63010
     2011.70705         3.07558        16.11854
     2011.70979        17.70399        16.12065
     2011.71253        -4.67460        15.81958
     2011.71527         9.21981        15.77537
     2011.71801        13.72222        15.95433
     2011.72074        22.67363        15.74590
     2011.72348         9.15304        15.85748
     2011.72622        10.64245        15.77748
     2011.72896        22.55586        15.49747
     2011.73170        10.90327        15.68063
     2011.73443         7.43968        15.72274
     2011.73717         3.42909        15.34588
     2011.73991         2.86950        15.67432
     2011.74265        21.62391        15.68274
     2011.74538        14.29732        15.54589
     2011.74812        18.64973        15.38167
     2011.75086        12.57714        15.73116
     2011.75360        -0.51545        15.49957
     2011.75634        16.08396        16.03433
     2011.75894         1.55920        17.00700
     2011.76180        -3.04023        15.86380
     2011.76454        23.54318        15.28272
     2011.76728        11.54959        14.99218
     2011.77002        23.58000        15.15219
     2011.77275        20.49340        15.08482
     2011.77549        22.25181        15.17535
     2011.77823        21.40722        14.85744
     2011.78097        14.30763        14.88692
     2011.78371        10.70004        15.38167
     2011.78644        11.36745        15.18798
     2011.78918        12.65686        15.08903
     2011.79192        10.26327        14.91850
     2011.79466         8.53768        14.71849
     2011.79739        15.28509        15.11219
     2011.80013        16.46250        14.97534
     2011.80287         7.38391        14.88270
     2011.80561         8.97832        14.71007
     2011.80835         6.00173        14.67006
     2011.81108        14.70214        14.84902
     2011.81382        12.24055        15.08482
     2011.81656        21.96196        14.61743
     2011.81930        18.45437        14.71217
     2011.82203        14.19578        14.99008
     2011.82477        -9.65481        15.57326
     2011.82751         2.26260        15.15219
     2011.83025         6.56701        15.36904
     2011.83299        16.86042        15.02166
     2011.83572         5.84983        14.92692
     2011.83846        -2.75876        14.45532
     2011.84120         4.34965        13.87845
     2011.84394         1.17206        13.76898
     2011.84668         1.18947        15.01955
     2011.84941         7.79288        14.71849
     2011.85215       -19.42271        15.34378
     2011.85489        -5.22430        14.83639
     2011.85763        10.03911        15.10587
     2011.86036        19.13352        14.44269
     2011.86310        16.21493        14.35005
     2011.86584        -0.21666        14.71007
     2011.86858        11.69175        14.52901
     2011.87132        14.23416        14.80270
     2011.87405        -4.24544        15.49747
     2011.87953        -7.57762        16.16907
     2011.88227       -16.97421        14.35637
     2011.88501       -28.66280        14.96060
     2011.88774       -19.44939        15.56694
     2011.89048       -29.09698        15.80906
     2011.89322         6.53743        15.23219
     2011.89596       -14.17116        15.34799
     2011.89869        -4.81175        15.96064
     2011.90143       -30.62334        16.04907
     2011.90417        48.33007        17.25964
     2011.90965        12.40889        14.40058
     2011.91238         6.02330        14.99008
     2011.91512         8.29371        14.34374
     2011.91786        14.61212        14.83428
     2011.92060        -1.58847        14.52269
     2011.92334         2.40694        14.58796
     2011.92607         3.35635        14.43637
     2011.92881         6.78976        14.61743
     2011.93155        12.26817        14.55217
     2011.93429         6.05458        14.35847
     2011.93702         7.51399        14.48900
     2011.93976        16.39840        14.36058
     2011.94250        11.81081        14.69954
     2011.94524        13.12722        14.13531
     2011.94798        12.87163        14.06794
     2011.95071         6.19704        14.33953
     2011.95345        12.89245        14.87218
     2011.95619         8.94186        14.96902
     2011.95893        14.23427        14.54585
     2011.96167        16.90068        14.41111
     2011.96440        13.91609        14.60901
     2011.96714        11.72850        14.76270
     2011.96988        14.92691        14.44269
     2011.97262         8.82432        14.20689
     2011.97535        15.31372        14.71638
     2011.97809         8.24913        14.67217
     2011.98083        11.88854        14.48479
     2011.98357        10.93695        14.27636
     2011.98631        13.28436        14.45532
     2011.98904        29.67177        17.32280
     2011.99178         4.26318        15.50799
     2011.99452        12.97959        15.26167
     2011.99726        16.61200        14.50374
     2012.00273       -15.23118        14.73112
     2012.00547        17.15223        14.55006
     2012.00821        11.48764        14.76691
     2012.01095        11.54705        14.54585
     2012.01368        18.03846        14.59427
     2012.01642        16.67587        14.39005
     2012.01916         8.43228        14.41953
     2012.02190        28.41169        14.48479
     2012.02464        10.16810        14.77744
     2012.02737        18.52051        14.37742
     2012.03011        16.95892        14.27847
     2012.03285        11.38433        14.26584
     2012.03559        14.92574        14.44269
     2012.03833        13.23415        14.04267
     2012.04106        19.13156        13.99635
     2012.04380         4.86997        14.06372
     2012.04654         7.89238        14.84060
     2012.04928        23.62979        15.69326
     2012.05201        20.94020        16.14802
     2012.05475        48.43161        15.97328
     2012.05749        47.80002        15.85538
     2012.06023        36.64043        15.70590
     2012.06297        18.59584        16.40066
     2012.06570        -1.97375        16.45961
     2012.06844        67.23366        17.19648
     2012.07118        16.44007        14.97534
     2012.07392        10.01048        14.62585
     2012.07666         4.61488        14.74165
     2012.07939        36.39529        14.67428
     2012.08213        19.41670        14.48479
     2012.08487        11.15311        14.59427
     2012.08761         5.50952        14.73533
     2012.09034        10.15793        14.24057
     2012.09308        12.03234        14.09741
     2012.09582        15.32675        14.15215
     2012.09856        12.36716        14.50164
     2012.10130        10.25357        14.88481
     2012.10403        13.94298        14.44269
     2012.10677        29.26239        15.82590
     2012.10951        17.07880        14.77533
     2012.11225         7.38521        15.24693
     2012.11498         0.88762        14.90586
     2012.11772         2.97703        14.51216
     2012.12046         4.84544        14.46585
     2012.12320        13.13585        14.36268
     2012.12594       -47.37574        14.97745
     2012.12867       -24.46333        15.51641
     2012.13141       -25.94392        15.14587
     2012.13415        -2.19251        14.28268
     2012.13689       -22.03310        14.92692
     2012.13963       -25.72569        16.22802
     2012.14236         0.53772        17.44070
     2012.14510        13.49413        14.75217
     2012.14784         1.86554        14.59427
     2012.15058         3.38095        14.14373
     2012.15331         9.52936        13.96056
     2012.15605         5.06777        14.34374
     2012.15879        13.33318        14.42374
     2012.16153        21.45659        14.01530
     2012.16427         8.26800        14.59217
     2012.16700        -4.47759        15.41746
     2012.16974         0.72982        15.39430
     2012.17248        10.58023        14.58164
     2012.17522        16.63363        14.46374
     2012.17796        -3.78796        14.41111
     2012.18069       -23.12155        14.71428
     2012.18343        -5.89014        15.09535
     2012.18617         8.31727        14.55638
     2012.18891        17.23168        14.42584
     2012.19164        12.67309        14.44900
     2012.19438        15.71350        14.55427
     2012.19712         0.72691        14.42584
     2012.19986         6.63832        14.23847
     2012.20260        -7.95627        15.46589
     2012.20533        -9.46286        15.58379
     2012.20807        -6.65245        14.95639
     2012.21081       -26.44604        14.79639
     2012.21355       -14.79263        14.19215
     2012.21629       -40.88122        14.98166
     2012.22176        -8.44540        15.55642
     2012.22450        -8.07799        14.70796
     2012.22724         6.37442        15.25535
     2012.22997         8.18983        14.62164
     2012.23271        -5.07276        14.94587
     2012.23545        11.77165        14.72691
     2012.23819         1.65906        14.84060
     2012.24093       -30.85153        15.17956
     2012.24366       -29.67912        16.31224
     2012.24640         3.30729        15.43641
     2012.24914         3.02270        14.77744
     2012.25188       -10.75689        14.77533
     2012.25462        -2.16148        14.99218
     2012.25735       -15.61707        14.24478
     2012.26009        -8.85166        14.19005
     2012.26283       -10.75225        14.75849
     2012.26557       -19.13384        14.75428
     2012.26830         2.90557        14.57743
     2012.27104        -2.13802        15.23851
     2012.27378        11.12139        14.44269
     2012.27652       -12.53721        14.63006
     2012.27926       -13.38180        15.41746
     2012.28199       -10.93939        14.84481
     2012.28473       -38.01198        17.18385
     2012.28747       -16.96557        14.71849
     2012.29021       -13.84316        15.54799
     2012.29295        -4.45275        15.53115
     2012.29568         8.77766        15.69116
     2012.29842       -12.09893        16.13960
     2012.30116         0.24748        15.73748
     2012.30390       -13.16111        14.51637
     2012.30663        -1.35370        14.78586
     2012.30937         3.46371        14.56690
     2012.31211         1.57412        14.93113
     2012.31485         0.19053        15.59642
     2012.31759       -11.45006        15.74169
     2012.32306       -16.51324        14.94587
     2012.32580        -6.59283        14.71217
     2012.32854       -15.38242        15.46168
     2012.33128        -1.44501        15.18798
     2012.33401         1.65240        14.42795
     2012.33675         4.95581        14.79639
     2012.33949       -12.59278        14.42374
     2012.34223       -36.09637        15.13956
     2012.34496        -7.33796        14.27636
     2012.34770        -3.96455        14.48690
     2012.35044        -2.15514        14.37532
     2012.35318         0.48327        14.64901
     2012.35592        -7.77732        14.38163
     2012.35865       -12.48791        14.52690
     2012.36139        -4.08050        14.56059
     2012.36413       -10.73809        14.17952
     2012.36687        -6.10368        14.74586
     2012.36961        -3.68027        15.17535
     2012.37234        -8.51686        14.61112
     2012.37508         6.23455        14.61954
     2012.37782       -11.57705        14.60901
     2012.38056        -7.45464        14.66375
     2012.38329        -7.49423        14.93323
     2012.38603        -9.87882        14.99639
     2012.38877        -3.47841        16.02170
     2012.39151       -16.31300        15.62168
     2012.39425        -7.98559        14.83849
     2012.39698       -13.54018        15.17956
     2012.39972       -21.80677        15.69958
     2012.40246         3.97864        15.01113
     2012.40520        -6.95095        14.66796
     2012.40794        -4.11654        14.44900
     2012.41067         0.22087        14.89323
     2012.41341        -0.28072        14.81112
     2012.41615         0.39769        15.02797
     2012.41889         0.62310        15.86169
     2012.42162        -3.64749        15.05324
     2012.42436         2.75392        15.36272
     2012.42710        10.36233        15.30588
     2012.42984         1.30174        15.40062
     2012.43258         1.71815        15.69326
     2012.43531       -12.91344        15.28483
     2012.43805         3.64497        15.27641
     2012.44079        -6.43062        14.72901
     2012.44353         3.18579        14.79217
     2012.44626        12.08720        14.99639
     2012.44900         0.58061        14.97323
     2012.45174         3.03402        14.69112
     2012.45448        -6.12157        14.77954
     2012.45722         6.18784        15.07008
     2012.45995        24.60125        15.66168
     2012.46269        13.06366        15.17956
     2012.46543         4.20007        15.27009
     2012.46817         4.80848        15.00692
     2012.47091         3.07589        14.88902
     2012.47364        22.83130        15.41325
     2012.47638         0.57071        15.70169
     2012.47912        -1.44189        16.09749
     2012.48186        -6.68148        14.93323
     2012.48459        -0.02907        14.98797
     2012.48733         1.09234        14.78375
     2012.49007         2.93375        14.65954
     2012.49281        13.83816        14.94797
     2012.49555         8.90257        15.07640
     2012.49828        11.75098        15.31430
     2012.50102        14.57839        15.28272
     2012.50376        31.40580        15.28904
     2012.50650        18.26521        15.43010
     2012.50924        23.81862        15.45957
     2012.51197        15.04403        15.43431
     2012.51471         4.42544        15.16482
     2012.51745         8.59485        15.05113
     2012.52019        20.85126        15.13745
     2012.52292         3.06067        15.09113
     2012.52566        24.01008        15.08271
     2012.52840        24.47749        15.28904
     2012.53114        15.62890        15.04482
     2012.53388        20.47031        15.06376
     2012.53661        24.55372        15.16482
     2012.53935        17.97213        14.76691
     2012.54209        18.36554        14.97745
     2012.54483        15.93095        14.70586
     2012.54757         9.13136        15.08482
     2012.55030        14.91977        15.79011
     2012.55304        10.30818        15.36904
     2012.55578        14.47259        15.01113
     2012.55852        22.71800        14.89323
     2012.56125        24.05741        14.97534
     2012.56399        25.71882        15.16272
     2012.56673        20.21723        15.91433
     2012.56947        17.28964        15.35851
     2012.57221        16.57305        15.11640
     2012.57494        14.62846        15.31009
     2012.57768        24.42987        15.05113
     2012.58042        26.37627        15.69326
     2012.58316        14.52768        15.31851
     2012.58590        19.40209        15.23430
     2012.58863        20.76350        15.15851
     2012.59137        17.61191        15.33535
     2012.59411        27.32332        15.62168
     2012.59685        19.88273        15.86801
     2012.59958         5.77514        15.43010
     2012.60232        20.75155        15.54589
     2012.60506        25.85296        15.19009
     2012.60780        18.94937        15.15429
     2012.61054        21.61478        15.63642
     2012.61327        14.48619        15.44904
     2012.61601        10.74760        15.59010
     2012.61875        22.70801        15.15851
     2012.62149        31.25642        15.19430
     2012.62423        27.94983        15.62168
     2012.62696        15.77824        15.29535
     2012.62970        15.18465        15.99854
     2012.63244        17.27006        15.46378
     2012.63518        33.30547        15.32693
     2012.63791        36.75088        15.97328
     2012.64065        17.08929        15.45746
     2012.64339        18.47570        15.39641
     2012.64613        17.45911        15.39852
     2012.64887        20.72752        15.12271
     2012.65160        32.13593        15.18588
     2012.65434        13.94734        15.14798
     2012.65708         4.65775        15.64274
     2012.65982        11.54016        15.39430
     2012.66256        15.14257        15.45957
     2012.66529        21.88798        15.41957
     2012.66803        23.21839        15.56273
     2012.67077        18.99580        15.33325
     2012.67351        22.58921        15.20061
     2012.67624        11.06062        15.31851
     2012.67898        15.70803        14.73744
     2012.68172        22.18543        15.05534
     2012.68446        10.57484        15.23851
     2012.68720        11.57725        14.83428
     2012.68993        16.87366        15.44273
     2012.69267        15.51307        15.65537
     2012.69541        22.82448        15.27430
     2012.69815        20.83389        15.49747
     2012.70089        13.12630        14.96481
     2012.70362        17.47371        15.19009
     2012.70636         9.95812        15.39430
     2012.70910        19.47853        15.00903
     2012.71184        15.74594        15.44904
     2012.71457        20.00135        14.87849
     2012.71731        20.01376        14.80270
     2012.72005        22.42917        15.17956
     2012.72279        23.75458        15.19009
     2012.72553        20.50299        15.25746
     2012.72826        22.60440        15.11219
     2012.73100        18.01781        15.07850
     2012.73374        19.77822        15.48483
     2012.73648        24.38663        15.09956
     2012.73921        12.65004        15.45325
     2012.74195        21.69745        15.24693
     2012.74469        13.86086        15.03850
     2012.74743        23.77927        15.11850
     2012.75017        15.13468        15.20272
     2012.75290        28.58909        15.60694
     2012.75564        12.58750        14.94376
     2012.75838        12.63091        15.03640
     2012.76112        18.36432        14.89113
     2012.76386        19.28073        14.73323
     2012.76659        22.26614        15.11640
     2012.76933        18.10155        14.74375
     2012.77207        15.58596        14.76059
     2012.77481        16.03637        14.73744
     2012.77754        18.45778        15.33957
     2012.78028        12.54919        14.92271
     2012.78302         7.81959        15.45536
     2012.78576         5.59000        15.04692
     2012.78850         5.65541        16.06170
     2012.79123         3.99982        16.09749
     2012.79397        12.84823        15.10798
     2012.79671        21.20564        15.20482
     2012.79945        16.24805        15.36904
     2012.80219        -1.02354        16.66804
     2012.80492        16.72287        15.02797
     2012.80766         1.10428        15.05745
     2012.81040       -31.66631        15.32904
     2012.81861       -10.21808        15.46378
     2012.82135         8.68533        15.54378
     2012.82409         4.37174        15.95012
     2012.82683         9.08015        16.14591
     2012.82956        12.17956        15.94591
     2012.83230         7.94597        15.40694
     2012.83504        31.38638        16.50382
     2012.83778       -22.95821        15.50799
     2012.84052         2.95720        15.21956
     2012.84325         6.73961        15.41325
     2012.84599         9.34302        15.56063
     2012.84873        13.55143        15.11640
     2012.85147         9.21384        15.40904
     2012.85420         8.80125        15.08271
     2012.85694        11.42566        14.58375
     2012.85968         5.61607        14.69743
     2012.86242        -3.16252        14.97745
     2012.86516        11.19289        15.54378
     2012.86789        32.55930        17.08700
     2012.87063        -3.92729        15.39220
     2012.87337        20.64112        15.72695
     2012.87611        13.73253        15.33746
     2012.87885        37.89994        16.04486
     2012.88158         4.82235        15.34588
     2012.88432        19.79275        15.89327
     2012.88706        62.85316        16.93542
     2012.88980        11.39057        15.89538
     2012.89253        22.17898        15.57115
     2012.89527        22.52939        16.78173
     2012.89801        -2.30720        15.97538
     2012.90075         8.01221        15.68484
     2012.90349         9.42962        15.61326
     2012.90622        17.93403        15.43852
     2012.90896        12.84044        15.69326
     2012.91170         5.41485        15.32693
     2012.91444       -24.71274        16.02801
     2012.91718         0.44667        16.76699
     2012.91991        57.26908        17.05542
     2012.92265        32.41749        17.30596
     2012.92539        10.80490        17.51228
     2012.92813       -24.23369        17.21122
     2012.93086         7.74472        16.15223
     2012.93360        12.00313        15.60273
     2012.93634         8.70454        14.73323
     2012.93908         6.96095        15.09745
     2012.94182         8.45836        15.12271
     2012.94455        19.26077        15.14166
     2012.94729        30.73118        15.41115
     2012.95003         8.07859        15.11219
     2012.95277        14.01700        14.36900
     2012.95551        15.55241        14.31847
     2012.95824        -7.13618        14.94797
     2012.96098       -19.87777        15.14587
     2012.96372       -16.24636        15.58589
     2012.96646       -30.54395        14.92902
     2012.96919       -35.60154        14.72901
     2012.97193       -20.71013        15.37957
     2012.97467       -18.45572        14.91429
     2012.97741        -4.76531        15.36272
     2012.98015       -11.46490        15.05745
     2012.98288        -2.77049        14.93955
     2012.98562         3.50991        15.21324
     2012.98836       -22.75168        15.54168
     2012.99110       -17.78627        15.47852
     2012.99384       -31.54586        15.56273
     2012.99657       -30.90545        15.48062
     2012.99931       -35.28504        15.74800
     2013.00205       -27.52863        15.72274
     2013.00479       -29.80522        15.41536
     2013.00752       -15.84381        15.52694
     2013.01026        -1.97040        14.95850
     2013.01300        12.86101        15.02587
     2013.01574         5.85242        14.78375
     2013.01848         8.16183        15.63221
     2013.02121        -3.38676        15.96064
     2013.02395         9.14765        15.21535
     2013.02669        22.51706        15.86169
     2013.02943         1.24447        15.48273
     2013.03216        -7.40112        14.88692
     2013.03490        -2.15071        14.77954
     2013.03764        -1.47830        15.31641
     2013.04038       -53.66889        17.17753
     2013.04312         2.26452        15.35009
     2013.04585        21.28093        15.65747
     2013.04859         9.29734        15.37325
     2013.05133        10.19175        14.99850
     2013.05407         9.88416        14.64691
     2013.05681        10.87257        14.87849
     2013.05954        26.00498        15.19009
     2013.06228         9.49939        15.30799
     2013.06502        -9.61520        16.25118
     2013.06776        -2.89579        15.66168
     2013.07323        -2.99397        14.28689
     2013.07597        -9.90256        14.57532
     2013.07871       -14.45315        14.82586
     2013.08145         4.04426        15.03008
     2013.08418        -1.25834        15.09324
     2013.08692        30.41307        15.32693
     2013.08966         6.52148        14.88481
     2013.09240         5.40989        15.11429
     2013.09514        15.14330        15.20061
     2013.09787        15.92371        15.58589
     2013.10061        -7.02888        15.80906
     2013.10335         0.39653        14.63638
     2013.10609         9.62494        14.49111
     2013.10882       -17.61965        15.48694
     2013.11156       -37.26524        15.96064
     2013.11430       -24.92883        14.83007
     2013.11704        -4.94142        14.72691
     2013.11978         2.64699        15.46799
     2013.12251         2.43640        14.73112
     2013.12525        13.33281        14.97745
     2013.12799         5.09822        15.21746
     2013.13073        11.38063        14.68270
     2013.13347        -1.01296        14.45742
     2013.13620         7.47245        14.46795
     2013.13894        -5.34714        14.33110
     2013.14168         5.94427        14.70796
     2013.14442         0.47768        15.12061
     2013.14715        -2.76691        14.60480
     2013.14989        -7.84350        14.40479
     2013.15263         6.69891        14.71428
     2013.15537        -8.36168        14.20268
     2013.15811         6.47173        14.84902
     2013.16084        -4.06686        15.89748
     2013.16358        -3.46745        15.60063
     2013.16632        -0.14504        14.91639
     2013.16906         4.52937        14.77954
     2013.17180        19.18078        14.46585
     2013.17453        12.62619        15.18166
     2013.17727        -1.82540        15.12271
     2013.18001       -11.26499        15.03429
     2013.18275        -8.50958        15.50168
     2013.18548        -9.38718        15.23851
     2013.18822         2.39223        15.00482
     2013.19096        -7.40336        14.88270
     2013.19370         3.99605        14.63217
     2013.19644         7.69746        14.72901
     2013.19917         6.77087        14.81323
     2013.20191         8.36728        15.26167
     2013.20465         6.18869        14.97745
     2013.20739        14.14510        15.03640
     2013.21013         1.36051        15.75011
     2013.21286         3.51792        14.85323
     2013.21834        28.90774        15.20061
     2013.22108         8.85915        14.85955
     2013.22381        31.32956        15.12903
     2013.22655        19.93597        15.17324
     2013.22929         0.21638        15.91011
     2013.23203         7.86279        14.47637
     2013.23477         2.26120        15.16693
     2013.23750        -5.28739        15.64484
     2013.24024        -5.37598        15.66589
     2013.24298         4.76943        15.39220
     2013.24572        11.39884        15.32693
     2013.25119         2.63766        15.34167
     2013.25393         8.45207        14.91218
     2013.25667         3.94048        15.59431
     2013.25941        -5.44411        15.93327
     2013.26214        16.27630        15.62168
     2013.26488        11.06471        15.68484
     2013.26762         2.20912        15.00271
     2013.27036        15.17353        15.15640
     2013.27310       -10.19806        15.99854
     2013.27583         7.10835        14.97534
     2013.27857         4.56176        15.66379
     2013.28131         8.10517        15.25956
     2013.28405         6.30958        14.43427
     2013.28679         1.20498        15.17324
     2013.28952       -10.17961        14.55006
     2013.29226       -19.52820        14.62375
     2013.29500       -12.30279        14.81323
     2013.29774       -18.29138        15.69958
     2013.30047        -8.27697        15.29956
     2013.30321        -0.29356        15.48694
     2013.30595         1.59385        15.24482
     2013.30869        -2.63174        15.07640
     2013.31143         2.38467        15.07640
     2013.31416         4.99908        15.27641
     2013.31690        -0.26751        15.43641
     2013.31964         6.75590        14.71217
     2013.32238        -2.87269        14.69322
     2013.32512        -5.91828        14.93534
     2013.32785         5.83513        14.69954
     2013.33059         3.27854        14.73954
     2013.33333         1.42595        15.35220
     2013.33607        -4.46164        14.76691
     2013.33880        16.44277        14.95218
     2013.34154        13.74018        14.69533
     2013.34702       -10.20300        15.48483
     2013.34976        -7.37859        15.44273
     2013.35249       -10.60218        15.23430
     2013.35523        -4.71677        15.68695
     2013.35797        -3.05936        15.64905
     2013.36071        -2.95495        15.28062
     2013.36344        12.74446        15.47431
     2013.36618        -0.75013        15.17956
     2013.36892         3.72628        15.11429
     2013.37166         3.58069        15.61537
     2013.37440        -1.05390        15.10166
     2013.37713        -9.40549        15.49326
     2013.37987        -8.35908        15.31430
     2013.38261        -7.83267        14.89323
     2013.38535         0.25174        15.42588
     2013.38809        -9.12386        14.55217
     2013.39082       -12.39845        15.87222
     2013.39356        -1.86404        15.03850
     2013.39630         9.47337        15.15851
     2013.39904        -0.88422        15.69537
     2013.40177         2.57619        15.85327
     2013.40725       -10.79799        15.50799
     2013.40999         8.97842        15.34378
     2013.41273        13.27483        15.15219
     2013.41546         6.93724        15.66589
     2013.41820        -1.51535        15.22588
     2013.42094         5.65706        15.39641
     2013.42368         4.57947        15.37325
     2013.42642        16.68288        15.39430
     2013.42915        10.12929        15.19640
     2013.43189        -0.41530        15.28062
     2013.43463         6.45011        14.93744
     2013.43737        11.02552        14.67217
     2013.44010        16.89293        15.24482
     2013.44284         8.53734        14.90586
     2013.44558         2.32975        15.28062
     2013.44832         2.64416        15.18588
     2013.45160         3.53424        18.89971
     2013.45379        13.27598        14.74375
     2013.45653         6.73639        14.76691
     2013.45927         4.88680        14.79639
     2013.46201         4.56121        15.25114
     2013.46475       -12.54338        15.56273
     2013.46748         4.35303        15.63431
     2013.47022        15.99444        15.03218
     2013.47296        11.57185        14.60269
     2013.47570         3.92626        15.10798
     2013.47843         7.22567        15.41115
     2013.48117         6.49508        15.29535
     2013.48391        16.02849        15.07429
     2013.48665         7.78390        14.80691
     2013.48939         7.95830        14.88481
     2013.49212        -9.53729        14.91429
     2013.49486         8.45712        15.23640
     2013.49760        12.49653        15.03008
     2013.50034        18.77594        15.07008
     2013.50308        19.82535        15.00060
     2013.50581         6.38976        14.59217
     2013.50855         8.79417        14.80060
     2013.51129         9.65658        14.73533
     2013.51403        13.38799        14.61322
     2013.51676        15.89240        15.00692
     2013.51950        10.68281        14.93955
     2013.52224        18.32322        15.05955
     2013.52498         4.18063        15.13745
     2013.52772         8.34004        14.92271
     2013.53045         7.60045        14.68480
     2013.53319         9.71686        15.00692
     2013.53543        32.29464        19.19025
     2014.63107        32.07916        18.14810
     2014.63381        13.25657        16.55435
     2015.00068       -12.24252        15.15219
     2015.00342       -17.93812        15.11008
     2015.00616        -7.82471        15.41957
     2015.00889        -1.78730        15.88064
     2015.01163        -0.89189        15.39641
     2015.01437         3.77952        16.03433
     2015.01711         0.90393        15.93959
     2015.01984        19.14834        15.51010
     2015.02258        18.07475        16.04696
     2015.02532        -0.40984        15.45536
     2015.02806         4.77857        15.19430
     2015.03627         1.42880        15.35220
     2015.03901        13.14921        15.13535
     2015.04175        30.04962        16.34382
     2015.04722        -3.21256        16.62383
     2015.04996        13.45985        15.12061
     2015.05270         7.58226        15.03008
     2015.05544         7.10767        15.49536
     2015.05817        22.57308        15.29325
     2015.06091         9.90549        15.50378
     2015.06365        10.06790        16.24065
     2015.06639         8.75131        15.60273
     2015.06913         5.11672        15.71011
     2015.07186         2.48613        15.76064
     2015.07460        15.59154        15.36272
     2015.07734         6.59095        15.35430
     2015.08008        -3.69664        15.89327
     2015.08282         8.07577        15.67853
     2015.08829        -3.22441        17.47649
     2015.09103        -4.55700        16.86384
     2015.09377         5.92141        16.52909
     2015.09650        36.10382        16.93963
     2015.10472        -1.72496        16.82594
     2015.10746        15.06145        16.80699
     2015.11019        -6.52414        16.19223
     2015.11293        36.02127        17.22806
     2015.11567         8.54168        16.07433
     2015.11841        10.24409        15.62589
     2015.12115         5.55250        15.44062
     2015.12388        15.61191        15.47431
     2015.12662         3.60732        15.80906
     2015.13483         4.06355        15.66379
     2015.13757         3.64196        15.45115
     2015.14031        14.32637        15.51220
     2015.14305        12.67878        15.17535
     2015.14579        21.18319        15.58589
     2015.14852        18.06360        15.55642
     2015.15126        -1.70299        15.50589
     2015.15400        13.47442        15.56063
     2015.15674         7.46483        15.58800
     2015.15948        13.61924        16.11223
     2015.16221        19.22065        15.40483
     2015.16495       -24.97194        15.61537
     2015.16769       -12.93453        15.12061
     2015.17043         9.60188        14.96271
     2015.17590         7.54770        15.38378
     2015.17864        14.45911        15.72695
     2015.18138         3.80252        15.75432
     2015.18412        10.37293        15.44062
     2015.18685         8.32634        15.60484
     2015.18959        10.35475        16.45540
     2015.19233         6.17116        16.75015
     2015.19507         1.30257        15.68905
     2015.19780         3.38098        15.88275
     2015.20054       -14.29161        17.08911
     2015.20328        -8.04220        16.93331
     2015.20602        12.33720        16.28697
     2015.20876        -0.58939        15.64484
     2015.21149        10.70302        15.73748
     2015.21423         1.89443        15.93327
     2015.21697       -26.58616        16.34592
     2015.22245       -18.71334        16.07854
     2015.22518       -57.15993        16.68067
     2015.22792       -56.46352        17.08911
     2015.23066        -4.48011        15.91433
     2015.23340        -7.14470        16.58172
     2015.23613         5.58271        16.61962
     2015.23887         5.34612        16.39224
     2015.24161         1.92853        16.87436
     2015.24435         7.48394        16.25750
     2015.24709       -14.48665        16.63435
     2015.24982       -38.49824        16.53119
     2015.25256         2.36717        15.12693
     2015.25530        -5.83842        15.72063
     2015.25804         3.34399        15.15219
     2015.26078        -3.29260        15.29746
     2015.26351        -5.22219        15.52273
     2015.26625         0.26422        16.17328
     2015.26899        -7.57537        15.48273
     2015.27173         0.89604        16.18170
     2015.27446         4.46745        15.40694
     2015.27994        -0.48573        15.50168
     2015.28268        -3.27832        16.14802
     2015.28542       -16.01391        16.57540
     2015.28815        -0.55850        15.58800
     2015.29089         3.93891        15.59221
     2015.29363         5.10732        16.17328
     2015.29637         2.05673        15.65958
     2015.29911         4.95214        15.49747
     2015.30184        15.42655        15.63431
     2015.30458         1.36996        15.88485
     2015.30732        -0.27764        15.06376
     2015.31006        -5.59123        16.59646
     2015.31279       -20.92782        16.61962
     2015.31553       -30.52841        17.28070
     2015.31827        -4.92200        15.95012
     2015.32101        20.52241        16.16697
     2015.32375         1.38682        15.39852
     2015.32648         8.66223        15.90380
     2015.32922         5.94564        15.78590
     2015.33196        10.69805        15.58379
     2015.33470         8.39546        15.64905
     2015.33744         0.23187        15.86590
     2015.34017        -0.52972        15.29746
     2015.34291        10.87869        15.42799
     2015.34565        11.74510        15.88064
     2015.34839        23.59251        16.37750
     2015.35112        -2.29308        15.48694
     2015.35386         5.86633        15.42167
     2015.35660       -12.15226        15.79432
     2015.35934         8.71415        16.07223
     2015.36208         3.68156        15.66589
     2015.36481        10.78797        15.20693
     2015.36755        -3.31162        16.11433
     2015.37029         0.33279        15.81327
     2015.37303         1.17720        16.07644
     2015.37577        -0.75839        16.07644
     2015.38124         3.50343        15.99643
     2015.38398        -8.40916        16.23013
     2015.38672        -2.62075        16.40277
     2015.38945        -2.91334        16.39856
     2015.58110        12.00734        16.49751
     2015.58384        22.70375        16.01959
     2015.58658        18.10316        16.30803
     2015.58932         9.82357        16.54382
     2015.59206        21.39698        16.39856
     2015.59479        25.07339        16.39434
     2015.59753        14.86980        16.83647
     2015.60027        21.50821        16.64067
     2015.60301        15.85062        16.87226
     2015.60574        14.62503        16.49540
     2015.60848        21.35844        16.29329
     2015.61122         8.53084        15.86801
     2015.61396        20.08625        16.55435
     2015.61670        21.21066        16.16276
     2015.61943        22.61407        16.02591
     2015.62217        22.37548        16.20486
     2015.62491        19.71689        16.33329
     2015.62765        16.66430        15.97117
     2015.63039        18.77971        16.62804
     2015.63312        20.62812        16.50172
     2015.63586        19.42453        16.64909
     2015.63860        17.36494        16.09117
     2015.64134        16.78235        17.03227
     2015.64407        13.71676        16.19223
     2015.64681        12.00617        16.80278
     2015.64955        17.38658        15.99643
     2015.65229         9.72499        15.87432
     2015.65503        19.77340        16.59435
     2015.65776        21.00881        16.73541
     2015.66050        16.57122        16.33961
     2015.66324        12.74563        16.56067
     2015.66598        19.84804        16.43014
     2015.66872        26.08645        17.43439
     2015.67145        22.30186        15.99222
     2015.67419        17.13427        16.10381
     2015.67693        24.05468        16.36276
     2015.67967        22.48109        16.01117
     2015.68240        11.78050        16.00064
     2015.68514        13.62691        15.79011
     2015.68788        16.14432        16.07854
     2015.69062        24.26273        15.77327
     2015.69336         9.26914        16.38592
     2015.69609        20.32855        16.60277
     2015.69883        18.75596        16.26381
     2015.70157        21.25037        16.20065
     2015.70431        16.02378        15.11640
     2015.70705         4.87819        16.62172
     2015.70978        20.74760        17.40702
     2015.71252        22.30500        17.06595
     2015.71526        20.54741        16.75436
     2015.71800        27.74182        16.04486
     2015.72073        25.01923        15.72484
     2015.72347        22.16264        15.70379
     2015.72621        23.82305        16.25960
     2015.72895        11.96046        16.49540
     2015.73169        19.17787        15.64063
     2015.73442        27.12028        15.76274
     2015.73716         9.61069        15.45536
     2015.73990        28.82510        15.44273
     2015.74264        38.22451        16.48277
     2015.74538        31.23992        16.47224
     2015.74811         7.56633        16.71436
     2015.75085        16.24974        15.53536
     2015.75359        26.94615        15.83853
     2015.75633        27.84356        15.50799
     2015.75906        31.32897        15.33957
     2015.76180        16.24838        15.72484
     2015.76454        11.12879        15.20482
     2015.76728        29.11220        15.57536
     2015.77002        25.30661        15.86801
     2015.77275        31.58602        15.50799
     2015.77549         3.67243        16.18381
     2015.77823        13.92884        15.40694
     2015.78097        24.62625        14.92271
     2015.78371        23.34166        15.23009
     2015.78644        20.20907        14.94376
     2015.78918        27.80348        14.94165
     2015.79192        22.55589        15.96696
     2015.79466        17.50730        15.76695
     2015.79739         8.16571        15.29535
     2015.80013        17.28012        15.56273
     2015.80287        15.12153        14.98797
     2015.80561        11.62194        15.62589
     2015.80835        13.85535        14.97955
     2015.81108        14.82776        15.08903
     2015.81382        18.50416        15.72695
     2015.81656        12.46157        16.72488
     2015.81930        21.90798        16.08696
     2015.82203        17.52239        17.12701
     2015.82477        15.18580        16.36487
     2015.82751        14.36921        16.41540
     2015.83025        21.96762        16.95858
     2015.83299        18.03403        17.45123
     2015.83572         0.31844        16.99437
     2015.83846         2.52085        16.09960
     2015.84120         2.46926        15.39852
     2015.84394         1.10167        15.43220
     2015.84668        17.50508        15.77748
     2015.84941        22.91149        16.18802
     2015.85215         9.95990        16.13539
     2015.85489        10.22231        16.21328
     2015.85763         2.57972        16.98595
     2015.86036       -23.25987        15.89327
     2015.86310         7.80754        17.11858
     2015.86584         9.57195        16.20276
     2015.86858         3.00436        16.51435
     2015.87132        17.72877        15.97117
     2015.87405         4.96818        15.06376
     2015.87679        47.01159        17.15648
     2015.87953        26.58400        19.37341
     2015.88227        19.59041        20.70399
     2015.88501        -3.25918        17.96915
     2015.88774         5.98423        16.23013
     2015.89048        21.81664        16.40066
     2015.89322        12.90305        16.21539
     2015.89596        24.28646        16.54804
     2015.89869         4.91487        16.20486
     2015.90143         9.97428        15.40483
     2015.90417         9.47569        15.40483
     2015.90691        10.51310        15.76906
     2015.94250       -33.78458        19.07656
     2015.94524       -64.10217        20.34398
     2015.94798       -98.37676        21.75035
     2015.95893       -23.90812        18.23442
     2015.96714       -38.41989        19.11656
     2015.96988       -67.80648        20.14607
     2015.97262       -85.82207        20.33556
     2015.99685      -112.25289        26.39054
     2016.00273       -95.54956        20.59872
     2016.00821       -76.23974        21.50824
     2016.01095       -86.39733        18.73128
     2016.02737       -87.89888        18.36706
     2016.03833      -109.53524        23.43252
     2016.05475      -114.08978        25.12733
     2016.05749      -121.93837        26.82634
     2016.06023      -110.15696        27.16531
     2016.06570       -52.47414        24.64520
     2016.07392        -6.28891        15.12903
     2016.07666         2.68650        16.24487
     2016.07939       -17.70909        15.40483
     2016.08213       -34.09168        15.11008
     2016.08487       -30.80427        14.99639
     2016.08761       -43.65486        14.98376
     2016.09034       -31.71445        15.48273
     2016.09308       -10.69404        15.75011
     2016.09582       -16.72163        15.20272
     2016.09856       -22.19622        15.37325
     2016.10130        -5.47481        15.53115
     2016.10403       -14.43640        14.88270
     2016.10677        -6.80899        14.82797
     2016.10951        -3.75958        14.38795
     2016.11225        -2.98517        14.52690
     2016.11498         3.72223        14.65322
     2016.11772       -19.17536        15.02376
     2016.12046       -15.59695        15.04692
     2016.12320        -1.75054        14.96692
     2016.12594       -12.30913        14.32058
     2016.12867         5.70428        14.47216
     2016.13141        16.83969        14.20268
     2016.13415         7.19710        14.55848
     2016.13689        -7.12049        14.48058
     2016.13963       -57.41908        15.20903
     2016.14236       -11.77867        14.96692
     2016.14510       -38.89126        15.18166
     2016.14784        -4.23885        15.17956
     2016.15058        -4.15044        14.86586
     2016.15331        -1.93703        15.19640
     2016.15605       -11.47062        15.79853
     2016.15879       -49.75821        15.82380
     2016.16153       -27.38980        14.39426
     2016.16427        -4.42639        15.19640
     2016.16700       -13.67398        15.03850
     2016.16974       -26.01257        15.53536
     2016.17248        -7.10416        14.80691
     2016.17522       -21.23975        15.28693
     2016.17796       -16.10934        14.66164
     2016.18069       -24.95293        14.71428
     2016.18343       -21.18752        15.28693
     2016.18617       -27.79611        14.71849
     2016.19164       -47.66129        17.75229
     2016.19438         5.80512        14.70796
     2016.19712        -7.58447        15.06798
     2016.19986       -28.41206        15.40904
     2016.20533       -68.91324        16.41119
     2016.20807        -4.86283        15.05534
     2016.21081        -6.28042        14.65533
     2016.21355        -3.24101        14.88270
     2016.21629       -17.45861        14.49111
     2016.21902       -13.72320        14.87007
     2016.22176       -41.45279        14.24057
     2016.22450       -24.45738        15.25535
     2016.22997         6.33644        16.24487
     2016.23271       -21.11915        14.81954
     2016.23545        -3.62074        14.90586
     2016.23819       -12.97233        14.05741
     2016.24093        12.04708        14.03846
     2016.24366         4.92649        14.71849
     2016.24640        -7.59910        14.19636
     2016.24914         2.77631        14.21320
     2016.25188        -1.32628        14.88692
     2016.25462        -6.99187        14.37321
     2016.25735       -11.35446        15.00692
     2016.26009       -18.35905        14.33531
     2016.26283       -12.37564        14.27636
     2016.26557         2.16477        14.82797
     2016.26830        -2.69982        14.40900
     2016.27104        -8.23141        14.35847
     2016.27378        -2.67000        14.58796
     2016.27652       -11.53759        14.80481
     2016.27926         2.46582        14.89323
     2016.28199       -11.89177        14.77744
     2016.28473        -3.46836        14.44479
     2016.28747       -13.84995        14.83639
     2016.29021        -6.98954        14.29952
     2016.29568         4.29928        15.04271
     2016.29842         1.40269        15.21746
     2016.30116        -1.07790        15.14587
     2016.30390        -7.57249        14.83849
     2016.30663       -15.86608        14.67638
     2016.30937        -3.18767        15.14377
     2016.31211       -23.02326        15.62379
     2016.31485        10.46015        15.16482
     2016.31759         1.77155        15.09113
     2016.32032        -7.07304        14.37742
     2016.32306        -9.07263        14.51216
     2016.32580       -17.92322        14.97534
     2016.32854       -11.96981        14.72901
     2016.33128         0.41160        14.60480
     2016.33401         6.44001        15.10377
     2016.33675        -2.24058        15.04271
     2016.33949       -10.73717        15.24904
     2016.34223        -0.52476        15.13745
     2016.34496        -3.09735        15.44273
     2016.34770         1.98106        15.10798
     2016.35044        11.86047        15.78800
     2016.35318        -2.40912        14.14373
     2016.35592       -11.63171        14.63427
     2016.35865        -7.84130        14.35216
     2016.36139        -4.39089        14.76691
     2016.36413        -3.26148        14.62585
     2016.36687         5.91593        14.76481
     2016.36961        -4.01166        15.02166
     2016.37234        13.86875        15.34588
     2016.37508         0.00816        14.39426
     2016.37782        -4.92843        14.30584
     2016.38056        -3.53102        14.36900
     2016.38329         0.82239        14.35637
     2016.38603       -15.51720        14.75217
     2016.38877         7.83721        15.50589
     2016.39151        -0.15138        14.93955
     2016.39425         3.53003        14.23636
     2016.39698         1.97044        14.60059
     2016.39972        10.93385        14.10794
     2016.40246         3.22026        14.81533
     2016.40520         5.58167        14.61954
     2016.40794         5.84808        14.32900
     2016.41067        -2.29551        14.29742
     2016.41341        -4.34610        14.33953
     2016.41615        -0.65669        14.77533
     2016.41889        -2.48929        14.65112
     2016.42259         4.48233        33.47503
     2016.42436        -4.86947        16.12907
     2016.42710         2.18094        15.72274
     2016.42984        -2.17665        16.07854
     2016.43258         6.49876        16.06591
     2016.43531        10.60017        16.64909
     2016.43805        -0.48942        15.98170
     2016.44079         8.08599        15.64484
     2016.44353         4.78940        15.15640
     2016.44626         3.43481        15.95643
     2016.44900        13.12122        15.73327
     2016.45174        -2.47637        16.12486
     2016.45448         5.95504        15.91011
     2016.45722        -5.57555        16.29539
     2016.45995         1.36586        16.46382
     2016.46269       -13.42273        16.47224
     2016.46543        14.59568        16.40908
     2016.46817        -6.67191        16.35645
     2016.47091        17.31950        16.53119
     2016.47364         6.49991        15.88275
     2016.47638        17.48332        15.77537
     2016.47912        13.63273        15.68484
     2016.48186         6.08514        15.71432
     2016.48459        10.13655        15.72905
     2016.48733        12.98496        15.88696
     2016.49007        16.51337        15.81327
     2016.49281        10.94378        15.45957
     2016.49555         5.93619        15.93327
     2016.49828        15.10360        15.43431
     2016.50102        10.62201        16.15855
     2016.50376         9.98042        16.39645
     2016.50650         7.57483        16.35013
     2016.50924         9.09024        15.73748
     2016.51197        10.70565        15.35641
     2016.51471        10.50206        16.19223
     2016.51745         9.02747        16.74173
     2016.52019         0.76087        17.47860
     2016.52292         2.56628        16.48698
     2016.52566         7.84269        15.90801
     2016.52840         1.78210        16.04065
     2016.53114         7.21251        16.63014
     2016.53388         9.93692        16.80910
     2016.53661         5.98333        15.89538
     2016.53935        -1.31126        16.56277
     2016.54209         8.74915        16.10170
     2016.54483         9.14256        16.25960
     2016.54757         5.99597        16.09328
     2016.55030        14.85338        16.53961
     2016.55304         5.60879        15.83011
     2016.55578        12.78520        16.43435
     2016.55852        11.26261        15.49957
     2016.56125        12.36602        16.23223
     2016.56399        14.64543        16.10591
     2016.56673         6.51384        15.84064
     2016.56947         2.16625        16.61120
     2016.57221         4.26666        15.79011
     2016.57494        15.17307        16.68278
     2016.57768         8.98848        16.38592
     2016.58042         7.36889        16.14802
     2016.58311        13.17023        15.61747
     2017.56331        -3.74202        16.10591
     2017.56605         4.43839        15.30377
     2017.56878         5.16380        15.41746
     2017.57152         8.83221        15.42799
     2017.57426        -4.87238        15.27641
     2017.57700         6.20203        15.18798
     2017.57974         6.47744        15.51010
     2017.58258        10.64698        15.87011
     2017.59069        -2.46892        15.80064
     2017.59342         1.18849        15.28693
     2017.59616        19.53490        15.53536
     2017.59890         0.77831        15.07008
     2017.60164         0.46872        15.57747
     2017.60438        -4.52887        15.22588
     2017.60711       -14.29646        16.04907
     2017.60985        17.90495        15.81958
     2017.61259         8.60236        15.72063
     2017.61533         7.95777        15.22588
     2017.61807         6.97818        15.98591
     2017.62080         2.52559        15.32483
     2017.62354        15.25900        15.38378
     2017.62628        17.65241        15.54589
     2017.62902         8.50582        16.04486
     2017.63175         8.41522        15.88064
     2017.63723         9.95304        15.51431
     2017.63997        13.04245        15.13956
     2017.64271        11.36586        15.60484
     2017.64544        14.05227        15.52694
     2017.64818        16.48968        15.31009
     2017.65092        13.26009        15.32062
     2017.65639        12.72491        15.17324
     2017.65913        15.17832        15.76274
     2017.66461        18.89414        15.73327
     2017.67008        12.74196        15.08903
     2017.67282         8.60137        16.92489
     2017.67556         9.07678        15.96064
     2017.67830        17.07219        15.42378
     2017.68377        28.77401        16.32908
     2017.68651        18.46042        15.86590
     2017.68925        -1.47417        14.89323
     2017.69199        17.99024        15.50589
     2017.69472        15.92065        15.29325
     2017.69746        14.56206        15.55852
     2017.70020        24.79547        15.43220
     2017.70841         5.30770        14.92692
     2017.71389         7.56452        15.48694
     2017.71937        40.78634        19.52921
     2017.72484        25.16016        15.96064
     2017.72758        37.80557        15.58168
     2017.73032        12.06498        15.44062
     2017.73305        12.06438        15.37115
     2017.73579         8.33479        15.50799
     2017.73853         3.02320        14.93534
     2017.74127         4.48061        15.19851
     2017.74401        14.54502        14.99218
     2017.74674         2.91543        15.13535
     2017.74948         9.47084        15.51010
     2017.75222        12.12425        14.99218
     2017.75496        10.44866        14.80270
     2017.75770        15.00207        15.59852
     2017.76043        17.11048        15.08482
     2017.76317        22.67089        15.00271
     2017.76591        18.47730        15.35220
     2017.76865        13.16371        14.89534
     2017.77138        10.48012        15.80485
     2017.77412        15.47353        15.45325
     2017.77686         1.84994        14.52269
     2017.77960         3.51135        14.50374
     2017.78234       -24.51224        15.15429
     2017.78507        26.37317        15.96064
     2017.78781        -1.35242        14.94376
     2017.79055        11.09499        15.42799
     2017.79329        21.67940        15.69116
     2017.79603        16.75581        14.84270
     2017.79876        19.62622        15.59852
     2017.80150       -16.66437        16.60067
     2017.80424       -45.42296        18.16284
     2017.80698         0.89745        16.63857
     2017.80971         3.12686        16.02380
     2017.81245        -0.09973        15.61326
     2017.81519        10.64368        15.21535
     2017.81793         3.92709        15.21535
     2017.82067        12.77150        14.96902
     2017.82340        14.17291        14.90165
     2017.82614         6.69732        14.81744
     2017.82888         8.49873        15.42588
     2017.83162        24.09413        15.89959
     2017.83436         4.47954        14.90586
     2017.83709        16.72295        15.42167
     2017.83983        -0.60564        15.08061
     2017.84257        -1.59223        16.10170
     2017.84531        -2.44482        16.32487
     2017.84804       -10.13841        17.37123
     2017.85078       -50.87600        16.44487
     2017.85352       -31.36259        15.95012
     2017.88911         9.42474        19.26604
     2017.89185        -2.94385        16.17328
     2017.89459        11.36156        16.15012
     2017.89733       -14.39003        15.78800
     2017.90006         1.40938        15.05955
     2017.90280       -14.52721        15.94591
     2017.90554        13.94420        15.15219
     2017.90828        16.38061        15.06798
     2017.91102         1.28202        15.89538
     2017.91375         8.17843        15.47431
     2017.91649        16.35184        15.12482
     2017.91923        21.07125        14.25742
     2017.92197         4.98366        14.57743
     2017.92470         5.50107        14.79849
     2017.92744         1.92848        15.25746
     2017.93018        -6.00411        15.33746
     2017.93292         3.68629        15.17535
     2017.93566         0.73370        15.19851
     2017.93839         5.53811        15.12271
     2017.94113         3.16752        15.04482
     2017.94387        11.47593        15.21535
     2017.94661         4.91134        14.67006
     2017.94935         7.40075        14.70796
     2017.95208         6.93916        14.96692
     2017.95482         1.92457        14.68480
     2017.95756        -2.11002        14.50795
     2017.96030         6.89039        15.22798
     2017.96303         6.27180        15.27009
     2017.96577        14.27821        15.40273
     2017.96851        -5.17838        14.68059
     2017.97125       -16.02197        15.04482
     2017.97399       -49.72656        18.27653
     2017.97672       -32.25815        15.18377
     2017.97946       -39.27274        15.01955
     2017.98220        -4.53133        15.07008
     2017.98494         1.67808        14.87639
     2017.98767       -18.20051        15.92906
     2017.99041       -26.26510        15.65326
     2017.99315        -9.03469        15.55852
     2017.99589       -11.61928        16.38592
     2017.99863         2.83913        14.51848
     2018.00136        -5.61446        15.26588
     2018.00410       -10.00405        15.48905
     2018.00684        -1.68064        14.69322
     2018.00958       -13.86023        15.54799
     2018.01232       -10.41782        15.69958
     2018.01505        -8.12741        15.27641
     2018.01779       -11.62300        14.74586
     2018.02053        -4.64959        15.39220
     2018.02600        -3.32877        15.43641
     2018.02874        32.84064        17.69124
     2018.03148        50.57805        16.12065
     2018.03422         1.77645        15.11219
     2018.03696        -8.29614        15.94380
     2018.03969        -3.41773        15.50378
     2018.04243       -20.73832        14.99218
     2018.04517       -27.56491        16.29750
     2018.04791       -16.55250        15.79432
     2018.05065        -4.22309        15.65747
     2018.05338        -2.38468        15.90590
     2018.05612       -18.83727        16.17539
     2018.05886       -34.29486        16.68909
     2018.06160        16.60755        15.87011
     2018.06433        26.10696        16.63857
     2018.06707        32.99337        16.38171
     2018.06981        19.88278        17.92493
     2018.07529        38.26160        20.41135
     2018.07802        15.57601        16.99647
     2018.08076         5.62542        16.36908
     2018.08350        -8.56317        15.47852
     2018.08624        -3.13376        15.85538
     2018.08898        -8.77835        15.83222
     2018.09171       -24.23194        15.98591
     2018.09445        -8.41353        15.99854
     2018.09719        -2.57212        16.02380
     2018.09993        -2.57971        15.46589
     2018.10266        -6.12730        15.33746
     2018.10540        -2.99689        15.63431
     2018.10814        -7.39448        15.65537
     2018.11088         4.83293        15.05534
     2018.11362         2.41034        14.60059
     2018.11635        -7.00025        14.91639
     2018.11909        -6.85684        14.87849
     2018.12183        -8.14643        14.94376
     2018.12457       -25.05702        15.39852
     2018.12731       -17.62061        15.59642
     2018.13004       -27.50020        15.74800
     2018.13278       -19.29879        15.13956
     2018.13552       -19.72739        15.23640
     2018.13826       -28.55198        14.87007
     2018.14099       -26.33757        15.02166
     2018.14373       -34.06916        14.93744
     2018.14647       -32.46275        15.63642
     2018.14921       -37.90434        15.53326
     2018.15195       -32.11593        15.58800
     2018.15468       -62.03852        15.35220
     2018.15742       -41.00011        15.06376
     2018.16016       -33.31370        15.90801
     2018.16290       -20.37729        15.45957
     2018.16564       -43.26388        15.26167
     2018.16837       -45.56047        15.47431
     2018.17111       -51.53006        15.51220
     2018.17385       -32.37065        15.82801
     2018.17659        -3.87724        15.83643
     2018.17932        -5.31983        15.92485
     2018.18206         1.29458        15.33535
     2018.18480        -2.49001        15.84906
     2018.18754       -21.96060        15.23430
     2018.19028        -5.94819        15.12903
     2018.19301         6.63122        15.32483
     2018.19575        -9.01237        15.83643
     2018.19849        -1.30696        15.70800
     2018.20123         9.34645        15.36062
     2018.20397       -17.45514        15.90380
     2018.20670       -22.10573        16.03433
     2018.20944       -32.09232        16.01328
     2018.21218       -52.57091        16.12486
     2018.21492       -56.93950        15.84064
     2018.22313       -11.47927        16.06381
     2018.22587       -27.20986        15.85538
     2018.22861       -21.74745        15.04061
     2018.23134       -35.16804        15.54378
     2018.23408       -50.37663        16.76489
     2018.23682       -12.54423        15.47431
     2018.23956        -7.68782        15.26588
     2018.24230        -2.82541        15.24061
     2018.24503        -9.19800        15.39009
     2018.24777        -3.83159        15.48905
     2018.25051        -6.81118        15.39430
     2018.25325        -4.46277        14.98797
     2018.25598         2.09864        15.86590
     2018.25872       -10.43895        15.81327
     2018.26146        -4.18454        17.55650
     2018.26420       -19.28013        15.84906
     2018.26694       -11.86572        16.67015
     2018.26967       -10.31831        15.66168
     2018.27241        -2.21090        16.00064
     2018.27515         1.12451        15.15640
     2018.27789       -19.94808        15.36272
     2018.28062       -39.35867        16.27434
     2018.28336         8.48874        16.46593
     2018.28610        -9.38785        16.06802
     2018.28884       -15.14444        15.48062
     2018.29158       -19.64003        15.76906
     2018.29431         0.80238        15.84695
     2018.29705        -3.08821        15.01113
     2018.29979        -0.51680        15.29325
     2018.30253        -8.85139        15.47852
     2018.30527        -2.01398        15.00482
     2018.30800         0.88843        14.85744
     2018.31348         1.75025        15.99854
     2018.31622        -0.13734        15.04061
     2018.31895         3.23507        15.72905
     2018.32169       -14.67652        15.29114
     2018.32443       -17.56811        16.28066
     2018.32717        -1.88570        16.09749
     2018.32991       -13.75529        15.86801
     2018.33264        -4.74588        15.63852
     2018.33538        -6.68847        15.55221
     2018.33812         7.84393        15.70800
     2018.34086         3.59934        15.93117
     2018.34360        -4.34925        15.71853
     2018.34633        -3.58284        15.06587
     2018.34907        -5.31343        15.29535
     2018.35181         5.99098        15.07850
     2018.35455         7.84339        15.45536
     2018.35728         4.42580        15.91011
     2018.36002         8.37521        15.45746
     2018.36276        -4.87538        15.14798
     2018.36550         5.49003        15.13114
     2018.36824         9.16044        15.48694
     2018.37097        -6.02215        15.60273
     2018.37371        -1.72874        15.89748
     2018.37645        -8.27333        15.82801
     2018.37919         4.10208        14.91429
     2018.38193        -0.81351        15.67011
     2018.38466        -1.64010        15.77116
     2018.38740         3.99131        15.51010
     2018.39014       -18.26728        16.61330
     2018.39288         8.00813        16.55646
     2018.39561         2.26454        16.32908
     2018.39835         9.26595        16.08065
     2018.40109         0.97336        15.35009
     2018.40383        -8.39323        15.92485
     2018.40657         5.99918        15.18798
     2018.40930        13.55459        15.31430
     2018.41204         1.28300        15.04061
     2018.41478         0.55841        15.44273
     2018.41752        -4.24818        15.39220
     2018.42026         3.89423        15.78379
     2018.42299        -0.67836        15.57326
     2018.42573         4.25705        15.25746
     2018.42847         7.34846        15.76064
     2018.43121        -1.47913        16.02591
     2018.43394         4.52728        15.46168
     2018.43668       -18.05331        16.43645
     2018.43942       -11.12991        15.88275
     2018.44216        -4.94350        16.57330
     2018.44490         0.44991        15.48905
     2018.44763        13.04632        15.98170
     2018.45037         8.43073        15.82169
     2018.45311         1.43114        15.95433
     2018.45585         8.37455        15.90380
     2018.45859         9.44296        15.69537
     2018.46132        10.57037        16.04907
     2018.46406        16.66478        16.01538
     2018.46680         5.33919        16.04907
     2018.46954         1.86860        16.02170
     2018.47227         3.55801        16.71015
     2018.47501        -1.51858        15.71221
     2018.47775        14.17983        15.36904
     2018.48049         8.91724        15.96485
     2018.48323        -1.48635        15.27009
     2018.48596        -3.28194        15.44062
     2018.48870         2.78347        15.37536
     2018.49144         5.73588        15.60273
     2018.49418        12.00629        15.66589
     2018.49692         2.05270        15.68905
     2018.49965        -1.88289        15.93117
     2018.50239        10.10852        15.83643
     2018.50513         9.56693        15.48905
     2018.50787         5.32134        15.89959
     2018.51060         4.05675        15.73116
     2018.51334         4.74116        15.63642
     2018.51608        -1.82843        16.04696
     2018.51882         7.41098        15.83853
     2018.52156        -3.22161        15.64063
     2018.52429         4.24280        15.71853
     2018.52703         3.78521        15.50589
     2018.52977         1.96062        15.64484
     2018.53251         2.23003        15.91643
     2018.53525         0.19044        15.81748
     2018.53798         3.47185        15.93327
     2018.54072         1.75425        15.61537
     2018.54620         1.01007        16.22592
     2018.54893        -5.13152        15.69747
     2018.55167         1.00389        15.77748
     2018.55441        -5.30870        15.74800
     2018.55715       -10.18229        16.38382
     2018.55989        -9.83488        16.13749
     2018.56262        -6.97647        16.08486
     2018.56536        10.59594        15.97117
     2018.56810        -6.30165        16.10591
     2018.57084        -0.37124        16.63857
     2018.57357         9.71617        16.68699
     2018.57631       -11.63742        16.58593
     2018.57905        -5.26101        17.01542
     2018.58179         4.41240        16.81331
     2018.58453         3.23081        16.20486
     2018.58726        10.70022        15.64063
     2018.59000        21.64163        15.78590
     2018.59274         1.97504        16.26802
     2018.59548         5.66545        16.07012
     2018.59822         0.66486        16.20486
     2018.60095         6.68727        16.04275
     2018.60369         8.71068        15.96275
     2018.60643         7.65009        15.84485
     2018.60917         2.84050        15.91011
     2018.61190        14.13391        16.01749
     2018.61464         6.54232        16.46172
     2018.61738         6.95973        15.90590
     2018.62012        15.67714        15.77327
     2018.62286        -3.33845        16.58593
     2018.62559        -7.69004        16.62593
     2018.62833         0.00037        16.25118
     2018.63107        16.46678        15.80064
     2018.63381        -6.43981        16.24908
     2018.63655        -0.26840        16.34171
     2018.63928        -6.88399        16.74383
     2018.64202        12.46441        16.95437
     2018.64476        15.49182        15.57326
     2018.64750        15.49323        16.31224
     2018.65023         1.88864        16.05749
     2018.65297        -7.09695        15.97959
     2018.65571         6.67746        16.29750
     2018.65845         9.04887        16.16276
     2018.66119        11.96428        15.92064
     2018.66392         2.86769        16.15644
     2018.66666        -1.19290        15.92696
     2018.66940         3.11451        15.96696
     2018.67214         3.87892        15.94169
     2018.67488        11.01833        15.91643
     2018.67761        15.16974        16.18592
     2018.68035        -0.79485        16.34382
     2018.68309        -8.62144        16.57119
     2018.68583         3.65897        16.36276
     2018.68856         9.96438        16.22592
     2018.69130        15.35979        15.74800
     2018.69404        -0.03380        16.75646
     2018.69678         6.98661        15.64695
     2018.69952         5.40202        16.27434
     2018.70225         1.52543        16.19434
     2018.70499        12.31884        15.81537
     2018.70773        -0.98675        15.91222
     2018.71047         0.19766        15.98170
     2018.71321         4.22807        15.98380
     2018.71594         4.95648        15.94591
     2018.71868         5.78889        15.52063
     2018.72142        -0.87670        15.88064
     2018.72416         9.32471        16.04065
     2018.72689         7.17112        15.78590
     2018.72963         6.55053        15.96696
     2018.73237        15.81794        15.79853
     2018.73511        -1.62565        16.08696
     2018.73785         2.90076        15.96485
     2018.74058        -5.51983        15.78169
     2018.74332         3.30157        15.58589
     2018.74606         6.26098        15.66589
     2018.74880        -1.44861        15.88064
     2018.75427         8.20621        15.76695
     2018.75975         2.66003        15.96064
     2018.76249        -2.42856        16.63435
     2018.76522         1.71185        16.33118
     2018.76796        10.26426        15.90590
     2018.77070         9.11167        15.98170
     2018.77344         8.07408        15.66168
     2018.77891         5.41590        15.15219
     2018.78165         8.80431        15.32272
     2018.78439         5.92972        15.95643
     2018.78713         4.69413        15.66379
     2018.78987         1.72254        15.80906
     2018.79260        -2.81405        16.05749
     2018.79534        15.63236        15.46168
     2018.79808        -5.15423        15.48062
     2018.80082        14.89618        15.98591
     2018.80355        11.33759        15.61958
     2018.80629         5.46100        16.68909
     2018.80903        12.78841        15.86169
     2018.81177         9.32182        16.32066
     2018.81451        10.84823        15.65326
     2018.81724         1.98364        15.60905
     2018.81998         1.43505        16.75225
     2018.82272         2.94446        16.47856
     2018.82546        11.13787        15.74169
     2018.82820        33.63228        16.45961
     2018.83093        -4.54131        15.87643
     2018.83367         9.43910        16.09749
     2018.83641         8.13651        15.94380
     2018.83915        13.81092        15.64905
     2018.84188         4.49632        16.10802
     2018.84462         7.49473        15.99854
     2018.84736         0.17914        15.01113
     2018.85010         3.81455        14.87428
     2018.85284         1.05596        15.32062
     2018.85557         2.57537        15.23219
     2018.85831        -2.94322        15.75853
     2018.86105         3.20319        15.51220
     2018.86379         2.08860        15.65958
     2018.86653         8.72601        15.27009
     2018.86926         4.34542        15.68274
     2018.87200         0.37183        15.76064
     2018.87474        10.47424        15.86801
     2018.87748         4.17965        15.53536
     2018.88021         3.41606        15.67642
     2018.88295         5.44047        16.01328
     2018.88569         8.29088        16.12275
     2018.88843         8.05129        16.35645
     2018.89117       -21.26530        16.74383
     2018.89390       -28.33889        18.02809
     2018.89664        -2.02948        17.55018
     2018.89938        19.08793        16.99858
     2018.91033       -31.50243        15.67853
     2018.91307        -1.62302        15.91643
     2018.91581       -17.93261        15.46378
     2018.91854       -47.08320        15.96064
     2018.92128       -49.85379        16.51645
     2018.92402       -34.40638        15.81748
     2018.92676       -10.01497        15.44904
     2018.92950        12.81744        16.84910
     2018.93223         7.48085        15.35220
     2018.93497        15.45626        16.28276
     2018.93771         8.44067        16.12065
     2018.94045         9.18308        15.84695
     2018.94318        34.21548        15.45115
     2018.94592        36.74589        18.73339
     2018.94866        47.11730        15.58379
     2018.95140        44.39671        16.23644
     2018.95414        40.01412        14.84691
     2018.95687         7.22953        17.62176
     2018.95961        44.47394        20.45767
     2018.96235       -23.64865        18.29758
     2018.96509         5.27176        17.82177
     2018.96783       -10.56183        17.20490
     2018.97056        -7.91842        17.48492
     2018.97330       -25.70401        16.74173
     2018.97604       -36.44360        17.77545
     2018.97878       -57.97319        18.85550
     2018.99247         2.49286        17.07016
     2018.99520         8.55227        16.54172
     2018.99794        -8.56232        16.17328
     2019.00068       -20.88591        15.95433
     2019.00342       -14.70550        16.09960
     2019.00616        -0.32009        16.06591
     2019.00889         4.71332        15.48694
     2019.01163         7.26173        15.95854
     2019.01437         7.73114        15.59221
     2019.01711        -3.26745        15.75011
     2019.01984       -22.02204        17.03227
     2019.02532         2.78578        17.37123
     2019.02806         0.01219        16.68699
     2019.03080        17.24560        16.83857
     2019.03353        20.25601        16.35855
     2019.03627        -7.69658        15.67853
     2019.03901        -0.88617        15.07429
     2019.04175       -12.37076        15.30799
     2019.04449         2.89164        15.90169
     2019.04996         0.90046        21.16717
     2019.05544       -62.33672        19.49973
     2019.06091       -53.21890        19.24920
     2019.06365       -23.32049        18.61970
     2019.06639       -53.92908        18.10178
     2019.06913         6.40733        15.99854
     2019.07186         5.20974        15.85748
     2019.07460         0.96815        15.61747
     2019.07734         3.49156        15.83432
     2019.08008        14.49197        15.80274
     2019.08282        -3.46062        16.68909
     2019.08555         2.49479        15.81537
     2019.08829       -17.43280        16.25118
     2019.09103        23.16061        16.31855
     2019.09377        -0.87998        15.73748
     2019.09650        -1.23357        15.79643
     2019.09924       -25.08416        15.66589
     2019.10198       -21.46075        15.87011
     2019.10472         0.24166        15.81116
     2019.10746       -13.46693        15.76485
     2019.11019       -11.32352        16.36698
     2019.11293       -15.46211        16.59435
     2019.11567       -16.35070        16.82594
     2019.11841       -26.77929        16.47856
     2019.12115       -83.91288        17.33333
     2019.15126       -84.27738        17.44281
     2019.15400       -82.28097        16.76910
     2019.15674       -80.67156        18.26600
     2019.15948       -86.93415        17.16069
     2019.16769       -42.91092        17.65755
     2019.17043       -67.80251        20.54609
     2019.17316       -46.25810        17.79019
     2019.17590       -54.83469        18.23863
     2019.17864       -83.99328        19.65132
     2019.18138       -48.38787        19.40499
     2019.18412       -58.03946        19.83027
     2019.18685       -57.48505        18.84076
     2019.18959       -52.08164        18.09757
     2019.19233       -49.25223        18.22810
     2019.19507       -59.70282        18.13757
     2019.19780       -44.89941        17.48281
     2019.20054       -10.29600        15.85959
     2019.20328        -8.27159        15.08482
     2019.20602        -3.71318        15.78800
     2019.20876       -12.37577        16.02170
     2019.21149        -2.65636        15.32483
     2019.21423        -2.21095        15.84485
     2019.21697        -5.66654        15.64484
     2019.21971       -10.28513        15.79853
     2019.22245       -29.02172        15.53957
     2019.22518        -8.35231        14.82797
     2019.22792        -7.78490        15.79853
     2019.23066       -12.66049        15.57326
     2019.23340        -1.36408        15.04903
     2019.23613       -33.65967        16.01328
     2019.23887       -37.45226        16.09328
     2019.24161       -25.30585        16.78804
     2019.24435       -22.02844        16.47014
     2019.24709       -21.14804        16.91858
     2019.24982       -24.75463        16.40698
     2019.25256        -4.93322        16.32697
     2019.25530         1.37919        16.10802
     2019.25804       -21.81140        16.02591
     2019.26078         3.27501        16.98174
     2019.26351       -41.45858        19.27657
     2019.26625       -13.41317        17.15648
     2019.27446       -34.25594        15.14377
     2019.27720       -18.43053        15.78590
     2019.27994        -2.90712        14.82376
     2019.28268       -17.07071        14.72059
     2019.28542        -9.81630        14.57743
     2019.28815       -46.43989        14.58375
     2019.30732       -13.66402        14.74796
     2019.31006        -3.25861        14.69954
     2019.31279        -9.66520        14.88270
     2019.31553         9.64421        14.58375
     2019.31827        -6.43638        15.09324
     2019.32101        -9.16797        14.40269
     2019.32375       -18.82556        14.36900
     2019.32648       -11.76715        14.21952
     2019.32922       -17.11774        14.26373
     2019.33196       -10.71833        14.77533
     2019.33470        -4.19392        14.47637
     2019.33744       -10.29051        14.49743
     2019.34017       -11.69210        14.40269
     2019.34291        -6.31569        14.36058
     2019.34565        -9.15728        14.93744
     2019.34839       -18.33688        14.35005
     2019.35112       -15.51247        14.41532
     2019.35386        -6.69506        14.45321
     2019.35660        -8.29865        14.64691
     2019.35934        -5.48924        14.54585
     2019.36208        -4.33883        14.43006
     2019.36481        -9.96742        14.51848
     2019.36755       -18.39901        14.57953
     2019.37029       -11.37460        14.75007
     2019.37303       -11.41119        14.77744
     2019.37577       -31.37978        15.08692
     2019.37850        14.04663        15.94801
     2019.38124       -24.62296        15.00903
     2019.38398        -1.47655        14.26373
     2019.38672       -12.73914        14.72901
     2019.38945        -0.09873        14.43427
     2019.39219       -15.23732        14.77323
     2019.39493         1.39909        13.90161
     2019.39767       -21.34150        14.95218
     2019.40041        -9.60509        14.56480
     2019.40314        -4.73268        14.56269
     2019.40588        -9.43927        14.81323
     2019.40862        -4.62586        14.52059
     2019.41136       -12.59245        14.61112
     2019.41410       -10.16504        14.41953
     2019.41683        -0.48063        14.70796
     2019.41957        -2.57522        14.60269
     2019.42231        -3.92881        15.08061
     2019.42505        -1.23440        14.59848
     2019.42778        -1.20899        15.03008
     2019.43052        -5.39758        14.20478
     2019.43326        -5.86817        14.32689
     2019.43600        -6.68676        14.69954
     2019.43874       -10.84135        14.55006
     2019.44147        -9.80594        14.73533
     2019.44421       -13.80453        14.49743
     2019.44695        -6.97412        14.37532
     2019.44969        -3.44172        15.09745
     2019.45243        -9.29031        14.72480
     2019.45516        -5.29790        14.53322
     2019.45790       -15.45249        14.80060
     2019.46064       -10.32308        15.30167
     2019.46338       -18.79967        15.44904
     2019.46611         6.82374        15.66800
     2019.46885        10.45815        15.20061
     2019.47159        -1.74744        14.64480
     2019.47433        -0.59303        14.58164
     2019.47707        -4.65962        14.43848
     2019.47980         8.11879        15.05324
     2019.48254        -0.56780        14.62796
     2019.48528         6.97961        14.78586
     2019.48802        -4.40698        14.86165
     2019.49076         2.68843        14.48900
     2019.49349        -4.73316        14.32268
     2019.49623        -7.06075        14.63217
     2019.49897        -0.03334        14.30584
     2019.50171        -5.76793        14.57322
     2019.50444       -10.56452        14.61322
     2019.50718        -2.58711        14.56269
     2019.50992        -0.27770        14.81954
     2019.51266         6.22671        14.54164
     2019.51540         4.84712        14.90165
     2019.51813       -13.77547        15.08271
     2019.52087        -8.13606        14.80270
     2019.52361       -14.94565        14.59427
     2019.52635        -4.71024        15.00692
     2019.52908        -1.92083        15.12482
     2019.53182       -10.62842        14.91007
     2019.53456       -15.30301        15.63010
     2019.53730         3.21240        15.31220
     2019.54004        -7.67219        15.18588
     2019.54277         5.97122        15.09956
     2019.54551         1.82063        15.17324
     2019.54825        -0.70496        14.99218
     2019.55099        -9.32556        15.11008
     2019.55373         9.50485        15.59431
     2019.55646        12.05926        15.60905
     2019.55920        -3.64633        15.27641
     2019.56194         4.12808        14.58585
     2019.56468        -2.14551        14.71217
     2019.56741        -0.88310        14.87849
     2019.57015         4.29331        14.89323
     2019.57289        -3.31128        15.42167
     2019.57563         1.14113        15.18166
     2019.57837         5.52054        14.97534
     2019.58112        -6.62703        15.40062
     2019.58384        -7.28964        15.28904
     2019.58658        -6.13123        15.03640
     2019.58932        -6.37782        15.10587
     2019.59206         7.00659        15.13535
     2019.59479        15.81800        15.25956
     2019.59753        -5.67559        16.12486
     2019.60027         1.63782        16.04275
     2019.60301        -3.70277        15.18798
     2019.60574       -11.40836        15.55642
     2019.60848        -1.64895        15.96906
     2019.61122       -14.80954        15.27009
     2019.61396        -4.68013        15.14798
     2019.61670         2.47328        14.64059
     2019.61943        -0.55631        15.06798
     2019.62217        -4.00090        15.10166
     2019.62491         0.41451        14.77323
     2019.62765        -4.23908        14.62164
     2019.63039         3.52333        14.88692
     2019.63312        -7.32626        14.99008
     2019.63586        -4.06085        15.51641
     2019.63860         8.23156        15.12693
     2019.64134        -1.48503        15.24482
     2019.64407        -0.93862        15.02797
     2019.64681        -6.16521        14.76481
     2019.64955        -1.67580        15.04482
     2019.65229         6.57860        14.87639
     2019.65503        -2.41699        15.35220
     2019.65776        -2.88758        15.31220
     2019.66050         1.28783        15.03218
     2019.66324       -10.36476        15.16061
     2019.66598        -1.22035        14.52480
     2019.66872         3.44106        14.90376
     2019.67145         0.37847        15.10587
     2019.67419        -3.28312        14.83849
     2019.67693         2.76429        15.44904
     2019.67967        -5.41230        16.15855
     2019.68240        -0.74489        14.85534
     2019.68514       -15.26748        14.95639
     2019.68788       -10.20707        15.57115
     2019.69062        -3.49766        15.14166
     2019.69336        -7.53625        15.04482
     2019.69609        -9.87884        15.04061
     2019.69883        -1.53943        14.90376
     2019.70157        -5.39902        15.65958
     2019.70431         6.80939        14.70165
     2019.70705        -9.50820        15.90590
     2019.70978        -7.04579        15.00903
     2019.71252       -13.62838        15.40904
     2019.71526        -6.78797        15.11429
     2019.71800        -6.73756        16.28066
     2019.72073       -12.19815        15.47641
     2019.72347        -8.20374        15.07429
     2019.72621       -13.15033        15.31851
     2019.72895       -11.29992        15.21535
     2019.73169        -8.57551        14.96692
     2019.73442        -0.58410        14.82797
     2019.73716        -9.03569        14.94587
     2019.76728        -1.38419        15.46168
     2019.77002         1.99922        14.73954
     2019.77275        -3.62137        14.62796
     2019.77549         7.28204        15.30588
     2019.77823        -1.59355        14.64270
     2019.78097         9.65086        15.15640
     2019.78371         2.10027        14.83849
     2019.78644        -5.56932        14.58585
     2019.78918         0.81309        14.96481
     2019.79192       -31.30650        15.36904
     2019.79466       -14.45209        15.28062
     2019.79739       -16.39968        15.66168
     2019.80013         3.03873        15.11219
     2019.80287        -1.31586        15.52063
     2019.80561       -13.42745        15.41115
     2019.80835        -6.54704        14.72270
     2019.81382         1.61578        14.74375
     2019.81656         4.92419        14.79007
     2019.81930         3.47160        14.34584
     2019.82203        -7.35599        14.61533
     2019.82477        -1.61758        14.36689
     2019.82751        -4.13917        14.59217
     2019.83025        -2.41276        14.80691
     2019.83299         5.23365        15.26798
     2019.83572        -2.49094        15.02797
     2019.83846         9.09047        14.84060
     2019.84120        -4.55512        15.14587
     2019.84394        -5.01771        15.16061
     2019.84668        -9.63430        14.69112
     2019.84941        -1.66189        14.93744
     2019.85215        -1.01549        14.66164
     2019.85489         1.13692        14.63848
     2019.85763        -2.06267        15.11219
     2019.86036        -4.58226        14.50585
     2019.86310       -11.48385        14.83218
     2019.86584         1.21356        15.00482
     2019.86858        -2.24403        15.04692
     2019.87132         3.49938        15.61747
     2019.87405        -1.36721        14.84902
     2019.87679        -9.67880        15.30799
     2019.87953        -0.39739        15.41957
     2019.88227        16.88502        15.90590
     2019.88501         9.43443        15.28904
     2019.88774        -7.38016        14.94376
     2019.89048         7.40125        14.29321
     2019.89322         2.97166        14.63638
     2019.89596        -3.86093        14.72901
     2019.89869         8.03148        14.21952
     2019.90143         5.97389        13.86372
     2019.90417         4.94330        14.32479
     2019.90691         0.37671        14.70375
     2019.90965        -3.15888        14.29952
     2019.91238         8.48753        13.89951
     2019.91512         8.93494        14.45953
     2019.91786        16.84435        15.28062
     2019.92060        17.44676        17.41754
     2019.92607         4.95258        14.92060
     2019.92881         4.89099        15.10798
     2019.93155        -4.92060        15.08903
     2019.93429       -35.75319        16.37329
     2019.93702         3.79922        15.33535
     2019.93976         0.03763        15.03640
     2019.94250        -7.37196        14.95429
     2019.94524        24.83645        16.25960
     2019.94798         5.33086        15.18798
     2019.95071       -62.66473        16.55014
     2019.95345       -57.78933        15.25325
     2019.95619       -57.31992        15.85959
     2019.95893       -48.50151        14.99218
     2019.96167       -47.29110        14.62796
     2019.96440       -57.64269        14.75217
     2019.96714        -9.03928        15.46799
     2019.96988        -2.54087        14.99850
     2019.97262        -5.19446        14.97323
     2019.97535        -0.36505        14.79007
     2019.97809        -9.98064        14.21531
     2019.98083        -8.25423        14.14373
     2019.98357        -6.71182        14.16268
     2019.98631        -9.79641        14.36689
     2019.98904       -16.27200        14.46374
     2019.99178        -3.11859        14.65533
     2019.99452         0.12282        14.36058
     2019.99726         1.52823        14.83849
     2020.00274       -48.04094        16.49119
     2020.00547       -27.38354        15.06376
     2020.00821       -25.57913        14.44269
     2020.01095       -13.70872        14.06794
     2020.01368       -36.92531        14.79428
     2020.01642       -38.64490        15.14166
     2020.01916       -65.01649        14.68901
     2020.08213        -4.13107        15.00482
     2020.08487        -0.21766        15.21746
     2020.08761       -26.58725        14.40479
     2020.09034        -8.65084        13.47423
     2020.09308        -7.98043        13.66581
     2020.09582       -25.05402        14.44690
     2020.09856        12.28939        16.18170
     2020.10130        -6.65120        16.02591
     2020.45995         3.08247        14.96481
     2020.46269        -8.87712        14.53532
     2020.46543         3.72429        14.30584
     2020.46817        -1.40730        14.65112
     2020.47091         9.05311        14.75428
     2020.47364        -3.92148        14.54164
     2020.47638         1.71893        14.68691
     2020.47912        -3.50866        15.32272
     2020.48186         0.78575        14.68480
     2020.48459        -2.02484        15.11850
     2020.48733         6.80657        16.11854
     2020.49007        -1.54802        14.79428
     2020.49281         7.55639        15.40694
     2020.49555         5.49380        15.16693
     2020.49828         5.15921        14.75428
     2020.50102         1.13162        14.48900
     2020.50376        -8.86297        14.78375
     2020.50650        -5.67356        14.39637
     2020.50924        -5.59715        14.36479
     2020.51197         6.77026        14.76481
     2020.51745         0.12408        14.60480
     2020.52019        -0.61651        14.65322
     2020.52292         7.46690        15.01113
     2020.52566         1.68131        14.65743
     2020.52840         3.49972        14.63638
     2020.53114         8.41813        15.23219
     2020.53388         5.36654        14.81533
     2020.53661         6.03495        15.19851
     2020.53935         7.47636        14.85323
     2020.54209         7.50077        14.34163
     2020.54483        15.26218        14.99218
     2020.54757         9.19959        14.97323
     2020.55030        15.45500        15.20482
     2020.55304        10.04541        15.09535
     2020.55578         3.88882        14.69954
     2020.55852         6.02423        14.62375
     2020.56125         5.83163        14.68480
     2020.56399         6.93604        14.89534
     2020.56673        -6.50355        14.68059
     2020.56947         7.55186        15.12271
     2020.57221         2.81127        16.27434
     2020.57494         8.60068        15.36904
     2020.57768         1.47709        15.41536
     2020.58042       -11.73450        15.12693
     2020.58316         3.87491        15.10798
     2020.58590         0.93132        14.61954
     2020.58863         6.23273        15.22377
     2020.59137         7.02614        15.22588
     2020.59411         7.74255        15.41746
     2020.59685         3.24196        15.92064
     2020.59958        10.20537        15.69747
     2020.60232        14.49178        15.45746
     2020.60506         2.57619        14.93323
     2020.60780        14.79560        15.07640
     2020.61054        13.38201        14.93744
     2020.61327        10.09042        15.67642
     2020.61601         9.70483        15.20903
     2020.61875         9.46424        15.05534
     2020.62149         4.49265        15.56694
     2020.62423         4.51606        15.43431
     2020.62696         7.03247        15.46799
     2020.62970        -0.15312        15.47431
     2020.63244        10.65829        15.17535
     2020.63518        17.26270        15.43220
     2020.63791         2.35611        15.98380
     2020.64065         8.26852        15.32904
     2020.64339         6.21593        14.98797
     2020.64613         8.42534        15.27641
     2020.64887        18.78675        14.97113
     2020.65160         2.96516        15.19430
     2020.65434        -4.42443        14.88692
     2020.65708         6.68798        15.32483
     2020.65982         9.31139        15.05324
     2020.66256        10.11179        15.03218
     2020.66529        16.96420        14.95850
     2020.66803        12.28861        15.12061
     2020.67077         8.14302        14.74586
     2020.67351         7.55043        14.94587
     2020.67624         8.64284        14.64270
     2020.67898         1.19925        15.16693
     2020.68172        -1.54034        14.98376
     2020.68446         6.25107        14.94165
     2020.68720       -13.90652        15.93538
     2020.68993         9.41389        14.84691
     2020.69267        12.46630        15.17956
     2020.69541        13.70371        15.88485
     2020.69815         2.52312        14.82376
     2020.70089        12.58253        15.07850
     2020.70362         6.92094        15.04061
     2020.70636        -7.48165        15.44694
     2020.70910         9.36076        15.72484
     2020.71184         8.29017        15.18166
     2020.71457         9.35458        14.95218
     2020.71731        -3.13201        15.10798
     2020.72005        -0.78760        15.24904
     2020.72279         9.51581        15.06376
     2020.72553         2.78922        15.23219
     2020.72826        15.35763        15.07219
     2020.73100        13.71004        15.93959
     2020.73374        -2.95155        15.60905
     2020.73648         6.95186        16.21960
     2020.73921        12.74727        15.58800
     2020.74195         6.57168        14.71428
     2020.74469        11.09809        15.09113
     2020.74743         2.39250        14.71849
     2020.75017         6.80891        14.65112
     2020.75290         4.18232        14.66796
     2020.75564         5.63573        14.47848
     2020.75838         7.80914        14.37953
     2020.76112         1.31854        14.97955
     2020.76386         2.45995        15.00903
     2020.76659        15.56336        14.93534
     2020.76933        14.98277        14.89113
     2020.77207        15.54418        14.95218
     2020.77481         1.03259        15.56905
     2020.77754        -8.95600        15.21114
     2020.78028        25.87641        16.51645
     2020.78302         6.66182        15.79853
     2020.79123         1.43805        14.74375
     2020.79397        -2.51854        15.47431
     2020.79671         3.59387        15.09324
     2020.79945         8.64628        14.75849
     2020.80219        12.59569        16.29750
     2020.80492         2.35410        15.07640
     2020.80766         4.14151        15.02797
     2020.81861         5.18615        14.75217
     2020.82135         6.54656        15.07850
     2020.82409         6.88797        14.48479
     2020.82683         3.21338        15.00482
     2020.82956        -5.93621        14.92692
     2020.83230        17.22220        15.00903
     2020.83504        10.56561        14.76059
     2020.83778         3.46602        14.35005
     2020.84052         9.40143        14.70375
     2020.84325         3.87284        15.62589
     2020.84599        10.10025        15.35851
     2020.84863        -2.20547        16.40487
     2020.85147        -4.18393        15.54378
     2020.85420        12.39048        13.66792
     2020.85694        20.84889        14.25952
     2020.85968        19.56830        14.29742
     2020.86242        11.25470        15.30588
     2020.86516       -33.47289        15.42378
     2020.86789       -18.10348        15.79222
     2020.87063       -27.56207        15.30167
     2020.87337       -53.94166        17.49755
     2020.87611       -20.90325        20.60925
     2020.87885         9.00816        15.95643
     2020.88158        -7.80543        16.14802
     2020.88432       -35.07602        15.44062
     2020.88706       -45.12961        16.32276
     2020.88980         2.12180        16.02801
     2020.89253        -2.09979        14.73533
     2020.89527         2.57462        15.47431
     2020.89801         3.11603        15.55642
     2020.90075         4.60244        14.69112
     2020.90349        -3.51315        15.37325
     2020.90622       -54.60674        16.24697
     2020.90896        13.46167        14.88692
     2020.91170        10.10308        15.30167
     2020.91444        10.36949        14.92692
     2020.91718         6.05090        14.43216
     2020.91991         2.76831        15.08061
     2020.92265         3.35872        14.81323
     2020.92539        -0.14487        14.80060
     2020.92813        -1.26646        15.29746
     2020.93086        -1.60805        15.12061
     2020.93360        -4.31564        14.53532
     2020.93634         7.25177        14.80270
     2020.93908         4.44418        15.44273
     2020.94455        -5.10100        14.08267
     2020.94729        -9.45359        14.15004
     2020.95003        -7.80818        15.43220
     2020.95277       -45.45277        16.17749
     2020.95551       -48.86136        16.30803
     2020.95824        -0.12195        15.77327
     2020.96098       -11.52454        15.31220
     2020.96372        -8.31214        16.16486
     2020.96646         1.53227        15.61747
     2020.96919       -14.67032        16.25118
     2020.97193        -3.72391        15.70590
     2020.97467         4.71850        14.96271
     2020.97741        -0.45009        13.95214
     2020.98015        -0.56368        14.97323
     2020.98288         7.70173        15.54168
     2020.98562         5.77414        14.93534
     2020.98836       -11.69645        14.33953
     2020.99110        -1.40504        14.38584
     2020.99384         2.14437        14.59217
     2020.99657        -1.46222        14.73112
     2020.99931       -29.94381        15.04482
     2021.00205       -45.88240        15.51641
     2021.00479        10.27001        16.04696
     2021.00752       -16.48758        16.49961
     2021.01026        -1.81217        16.27645
     2021.01300        -0.05576        16.05538
     2021.01574         1.93965        15.69326
     2021.01848       -26.37694        15.77116
     2021.02121        -9.80853        16.53961
     2021.02395       -18.09412        15.87853
     2021.02669       -35.57371        17.23017
     2021.02943        21.62470        17.11437
     2021.03216       -25.10489        18.54601
     2021.03490        -5.94548        17.85756
     2021.03764         8.76193        14.87428
     2021.04038        -1.52866        14.87639
     2021.04312         6.15375        15.27009
     2021.04585        11.10116        14.64270
     2021.04859         1.13257        15.45957
     2021.05133         9.80098        14.35426
     2021.05407         2.74739        15.13114
     2021.05681         6.46780        15.25746
     2021.05954        -1.05279        14.20899
     2021.06228         7.58562        13.91424
     2021.06502         4.78602        14.10373
     2021.06776         1.52543        13.38370
     2021.07049         0.58584        13.33948
     2021.07323        10.54825        13.92898
     2021.07597        -1.69734        14.72270
     2021.07871        -1.48093        14.99429
     2021.08145        -8.61252        14.81323
     2021.08418        -0.52911        15.34378
     2021.08692        -4.81670        15.11640
     2021.08966       -12.40129        15.05534
     2021.09240       -30.39688        14.48900
     2021.09514       -53.57447        15.70379
     2021.10061       -25.35665        16.55435
     2021.10335       -14.71324        14.48690
     2021.10609        -8.39283        14.96481
     2021.10882       -10.12342        14.34795
     2021.11156        -4.73601        14.41111
     2021.11430        -4.98560        14.90797
     2021.11704         1.72881        15.07850
     2021.11978       -20.24978        15.65116
     2021.12251       -14.22537        15.12271
     2021.12525       -32.35896        15.96064
     2021.12799       -48.00955        16.92910
     2021.13073       -38.04514        16.21328
     2021.13347       -39.98773        16.67436
     2021.14442         5.24691        16.11644
     2021.14715        -4.77068        15.20061
     2021.14989        -9.94427        13.76687
     2021.15263        -7.51386        14.99429
     2021.15537         1.82155        14.50374
     2021.15811         5.18896        14.73112
     2021.16084        -0.64863        14.77954
     2021.16358        -3.15222        14.50164
     2021.16632         5.49718        14.58164
     2021.16906         2.36559        14.63427
     2021.17180         1.97800        14.56059
     2021.17453        -4.99159        14.94797
     2021.17727        -2.93218        15.58379
     2021.18001       -24.38377        14.67217
     2021.18275       -12.11336        15.07640
     2021.18548        -0.94195        13.99425
     2021.18822        -2.05454        14.17110
     2021.19096         0.29387        14.67217
     2021.19370       -24.89372        15.13114
     2021.19644        -6.77831        14.55848
     2021.19917         5.91610        14.92692
     2021.20191        -5.26749        14.60690
     2021.20465        -6.09208        14.08267
     2021.20739         7.00333        14.78375
     2021.21013         8.66574        14.93744
     2021.21286       -15.26185        14.97745
     2021.21560       -19.42244        14.42584
     2021.21834       -34.40103        15.71221
     2021.22108       -10.10462        14.71428
     2021.22381       -13.28221        15.94591
     2021.22655       -25.75180        14.90165
     2021.22929       -21.01239        14.13952
     2021.23203       -20.27498        15.41536
     2021.23477        -3.41257        14.90797
     2021.23750         3.76584        14.71428
     2021.24024         2.18325        14.53532
     2021.24298        -1.83234        14.17531
     2021.24572        -1.30393        14.63638
     2021.24846        -0.97952        15.63642
     2021.25119         0.99389        16.50593
     2021.25393         4.12330        14.80902
     2021.25667        -3.05229        15.02797
     2021.25941         7.88012        15.19851
     2021.26214         2.34653        15.06798
     2021.26488         1.85994        14.88902
     2021.26762         1.83134        14.91218
     2021.27036         4.99675        15.91854
     2021.27310         2.58516        15.08061
     2021.27583        -3.15843        14.86797
     2021.27857        -2.09702        14.97534
     2021.28131        -7.34961        14.53953
     2021.28405        -2.56220        15.13324
     2021.28679        -0.97579        14.55638
     2021.28952         5.94362        15.38799
     2021.29226         2.19603        14.94587
     2021.29500         9.62644        14.80691
     2021.29774        -0.59215        15.03008
     2021.30047        -2.03274        15.26377
     2021.30321        -1.55433        14.86165
     2021.30595        10.42508        15.68063
     2021.30869        14.29149        15.36693
     2021.31143        -2.29710        16.39856
     2021.31416         3.72431        15.22377
     2021.31690        -2.67128        15.29535
     2021.31964        -2.68487        14.97113
     2021.32238         3.22654        15.96064
     2021.32512        -2.82405        15.00060
     2021.32785         1.83136        15.94169
     2021.33059         1.09677        15.59010
     2021.33333        -1.92182        15.21114
     2021.33607        -9.30541        15.08271
     2021.33880         4.03500        14.42795
     2021.34154         9.70541        15.17114
     2021.34428        -0.99218        15.07850
     2021.34702        -2.85977        15.64484
     2021.34976        -6.00436        14.25952
     2021.35249        -2.89495        14.86797
     2021.35523         2.67246        14.60269
     2021.35797        -8.47313        15.32272
     2021.36071        -6.40372        15.81958
     2021.36344         3.11069        14.89744
     2021.36618        -4.48890        14.96902
     2021.36892        -7.05350        15.12482
     2021.37166         1.03691        15.34167
     2021.37440        -5.75068        15.91854
     2021.37713        -5.06627        15.42378
     2021.37987         5.95714        15.29956
     2021.38261        -3.74245        15.24904
     2021.38535        19.27696        17.24701
     2021.38809        16.41637        15.17114
     2021.39082        10.92678        16.59225
     2021.39356        -2.42881        16.34171
     2021.39630        -5.23140        15.90169
     2021.39904         5.57101        15.19640
     2021.40177         7.39842        17.10595
     2021.40451        11.37783        17.05963
     2021.40725         2.07124        16.87857
     2021.40999         1.60565        17.79230
     2021.41273         8.05306        15.40273
     2021.41546         8.16547        15.47010
     2021.41820         9.71188        15.12693
     2021.42094        14.04729        15.59010
     2021.42368        -1.65430        15.51852
     2021.42642        11.55511        16.91858
     2021.42915         4.72752        15.19219
     2021.43189        15.72093        15.59852
     2021.43463         8.85834        16.63225
     2021.43737         5.31975        16.25329
     2021.44010       -10.25684        16.48909
     2021.44284         5.79657        16.28908
     2021.44558        14.76798        16.67646
     2021.44832        15.65139        16.62593
     2021.45106        13.31480        17.02174
     2021.45379         9.67621        16.50593
     2021.46201        12.74244        15.65537
     2021.46475         5.02785        15.40904
     2021.46748        16.42826        15.59431
     2021.47022        20.48666        15.99012
     2021.47296        30.74807        15.87432
     2021.47570        11.10848        15.89538
     2021.48117         7.14930        15.74379
     2021.48391        -3.00629        16.18592
     2021.48665        25.61112        16.63857
     2021.48939         8.18753        15.38588
     2021.49299         4.09103        26.38422
     2021.49486         6.05735        15.38799
     2021.49760         9.36676        15.89959
     2021.50034         2.38417        15.67853
     2021.50308        14.68058        15.89748
     2021.50581        16.54099        16.06802
     2021.50855        12.80940        15.38167
     2021.51129         7.33081        15.59431
     2021.51403        10.02522        15.49326
     2021.51676         8.03463        14.86165
     2021.51950        17.89704        15.69537
     2021.52224       -11.41455        15.15429
     2021.52498        13.26386        15.43431
     2021.52772        10.01727        15.21956
     2021.53045         6.29568        15.83011
     2021.53319        14.06009        15.44694
     2021.53593         1.46150        16.00696
     2021.53867        11.00291        16.27855
     2021.54141         0.42232        15.87432
     2021.54414         0.49773        15.69537
     2021.54688         0.72414        15.61747
     2021.54962         6.64755        15.60694
     2021.55236         5.88896        15.41957
     2021.55509        -1.49963        15.56063
     2021.55783        -7.00422        15.75011
     2021.56057        11.55219        15.47010
     2021.56331        11.23360        15.87853
     2021.56605        10.09801        15.11850
     2021.56878        10.83542        15.32693
     2021.57152        -6.44618        15.24693
     2021.57426        -6.10377        15.13535
     2021.57700        15.02964        16.03644
     2021.57974        11.52705        15.34799
     2021.58247        -9.56654        15.72695
     2021.58521         3.16287        15.50799
     2021.58795        -6.58772        15.54589
     2021.59069         3.59769        15.11008
     2021.59342        10.78910        16.18381
     2021.59616        19.41451        16.01328
     2021.59890         0.95592        15.12903
     2021.60164         8.44133        15.70169
     2021.60438         4.21574        15.11850
     2021.60711        12.38615        15.66589
     2021.60985         9.30556        15.87432
     2021.61259        11.32197        15.31009
     2021.61533         9.17138        15.75432
     2021.61807         7.68579        15.41957
     2021.62080         2.01820        15.30588
     2021.62354         7.65161        15.89117
     2021.62628        20.02302        16.05117
     2021.62902        14.52543        15.21956
     2021.63175        13.32684        15.38378
     2021.63449        14.17025        15.67642
     2021.63723         6.33366        16.41119
     2021.63997         9.74707        15.60063
     2021.64271        13.66648        15.45746
     2021.64544         6.98989        15.17535
     2021.64818        10.75230        14.99008
     2021.65092        19.33971        15.46168
     2021.65366         7.80812        15.35641
     2021.65639        12.72553        15.29325
     2021.65913         6.22994        15.65326
     2021.66187         7.50835        15.12271
     2021.66461        18.42676        15.13535
     2021.66735        20.69017        15.45536
     2021.67008         8.98957        15.67011
     2021.67282        19.03198        15.80274
     2021.67556        16.54039        15.71853
     2021.67830         8.62880        15.53536
     2021.68104        11.03321        14.88060
     2021.68377        14.18762        15.12271
     2021.68651        15.09403        15.86590
     2021.68925        19.42644        15.18377
     2021.69199         6.91585        15.35430
     2021.69472        17.03626        15.04271
     2021.69746         4.39467        15.27219
     2021.70020        20.62208        15.24061
     2021.70294        19.72249        14.88481
     2021.70568        16.25290        14.86797
     2021.70841        15.17431        15.09745
     2021.71115        26.64672        14.97745
     2021.71389        12.20113        15.64905
     2021.71663       -12.84246        15.85117
     2021.71937         7.02895        15.36693
     2021.72210        10.38236        14.93323
     2021.72484        15.31977        15.17114
     2021.72758         4.06618        15.00060
     2021.73032         9.92559        15.94380
     2021.73305        10.54200        15.07219
     2021.73579        21.64941        14.99850
     2021.73853        15.69582        15.11008
     2021.74127        56.64023        16.87647
     2021.74401        12.75764        15.45115
     2021.74674         1.09705        14.89744
     2021.74948        -6.91754        15.37536
     2021.75222        -3.80613        14.83428
     2021.75496        13.55128        15.49115
     2021.75770        22.35169        15.31851
     2021.76043        16.44910        15.48905
     2021.76317        -2.84349        15.09745
     2021.76591         6.18192        14.72059
     2021.76865         6.25033        15.03850
     2021.77138         4.86673        15.22167
     2021.77412        12.61814        15.35641
     2021.77686        -2.27545        14.80902
     2021.77960        17.45996        14.58164
     2021.78234        -7.74463        14.99008
     2021.78507         9.74978        14.59427
     2021.78781         5.23919        14.97745
     2021.79055         9.72260        15.01534
     2021.79329         9.16701        14.94376
     2021.79603         2.98942        14.87849
     2021.79876        -6.02117        15.12271
     2021.80150        30.34924        15.97328
     2021.80424        60.07765        16.64909
     2021.80698        26.84406        16.40698
     2021.80971       -28.75953        15.66589
     2021.82067       -18.18689        17.68913
     2021.82340         2.38552        15.59431
     2021.82614        16.88893        15.53957
     2021.82888         2.67234        16.15012
     2021.83162         4.26775        15.90169
     2021.83436        51.15516        17.98599
     2021.83709         2.45557        15.99012
     2021.83983         8.37698        15.24061
     2021.84257       -18.81361        16.18381
     2021.84531        -8.58820        15.78590
     2021.84804        17.39921        15.39430
     2021.85078        13.67462        14.86586
     2021.85352        -0.32897        15.01534
     2021.85626        16.25844        15.12061
     2021.85900        10.63385        15.22167
     2021.86173         0.93826        15.81958
     2021.86447         0.49667        15.32693
     2021.86721         9.78808        15.65537
     2021.86995        -0.01151        15.34588
     2021.87269         1.29789        15.08482
     2021.87542         6.28030        15.55010
     2021.87816        11.80171        14.49743
     2021.88090        15.51812        14.67638
     2021.88364       -27.75747        16.21118
     2021.88637       -12.04006        15.23219
     2021.88911         0.57935        14.82376
     2021.89185         0.37576        15.18798
     2021.89459        12.85517        14.59427
     2021.89733        -7.74142        14.57743
     2021.90006         6.73499        14.62375
     2021.90280        -2.43760        15.20693
     2021.90554        -4.13319        16.24697
     2021.90828        16.09022        15.79011
     2021.91102        17.91363        15.32272
     2021.91375         7.32304        14.84481
     2021.91649        -5.08855        15.02166
     2021.91923         9.11786        15.51220
     2021.92197         6.00027        15.88485
     2021.92470         3.73068        15.40273
     2021.92744        12.04809        15.38378
     2021.93018         3.66850        15.69537
     2021.93292         4.40991        16.39013
     2021.93566        14.12632        16.05117
     2021.93839         7.98973        14.60269
     2021.94113        21.14214        14.91007
     2021.94387        22.14355        14.79428
     2021.94661         8.60196        15.08903
     2021.94935        -5.69363        15.77958
     2021.95208       -18.06422        15.28693
     2021.95482       -24.94681        15.72274
     2021.95756       -27.90240        15.67642
     2021.96030       -21.83399        16.09117
     2021.96303        20.69342        15.54589
     2021.96577        23.75283        16.48066
     2021.96851        15.90924        16.57119
     2021.97125         8.72365        16.20276
     2021.97399        15.14305        15.94169
     2021.97672        -3.46754        15.76274
     2021.97946       -28.16213        16.01117
     2021.98220       -50.65172        16.40487
     2021.99315       -30.05808        16.18802
     2021.99589        26.65633        15.87643
     2021.99863        12.85374        15.80906
     2022.00136         2.45315        16.70594
     2022.00410        18.33256        15.85117
     2022.00684        -1.09103        16.14170
     2022.00958        -4.03362        15.05955
     2022.01232        19.93579        18.54391
     2022.01779         7.40861        15.34588
     2022.02053        18.85602        15.48694
     2022.02327       -20.20857        16.83226
     2022.02600       -27.84516        15.23851
     2022.02874       -12.87675        15.36272
     2022.03148        -7.24834        14.95639
     2022.03422        -0.57593        15.16272
     2022.03696        -8.78552        15.43431
     2022.03969        -3.08211        15.27009
     2022.04243         9.07730        14.80270
     2022.04517         6.32971        14.85323
     2022.04791        -2.72588        15.61747
     2022.05065         7.13353        15.14798
     2022.05338        -7.55406        15.46378
     2022.05612        -7.97465        15.39009
     2022.05886        -0.93424        14.81112
     2022.06160         0.75217        14.98587
     2022.06433        -2.97042        15.49957
     2022.06707        -3.05601        15.39430
     2022.06981         6.55940        15.00271
     2022.07255         1.54181        14.93534
     2022.07529         3.34321        14.84481
     2022.07802        -4.40238        14.96692
     2022.08076         9.90303        14.67006
     2022.08350        -1.43056        14.70796
     2022.08624        -7.23515        14.00899
     2022.08898         0.24226        14.03636
     2022.09171        -6.52133        14.60059
     2022.09445         4.13108        15.13114
     2022.09719        -8.68151        14.76691
     2022.09993        -1.50710        15.13324
     2022.10266        -2.44769        14.89113
     2022.10540        -6.10528        15.17324
     2022.10814         4.29013        15.57958
     2022.11088         2.58354        15.22377
     2022.11362        -1.93605        14.75638
     2022.11635        17.09936        14.79217
     2022.11909         1.28977        14.72480
     2022.12183        14.00718        14.85744
     2022.12457         6.73859        14.78165
     2022.12731        -1.98200        14.69112
     2022.13004        -3.84659        14.59848
     2022.13278         3.96182        14.65743
     2022.13552         7.70923        14.67428
     2022.13826         4.21664        14.50374
     2022.14099         4.35305        13.98372
     2022.14373       -13.64954        14.68270
     2022.14647        -6.77713        14.53322
     2022.14921       -30.88772        15.33535
     2022.15195       -22.83731        15.06166
     2022.15468         0.69510        14.37742
     2022.15742         5.47951        15.44062
     2022.16290        16.62733        15.31009
     2022.16564         6.94674        15.02797
     2022.16837        13.33815        14.89113
     2022.17111        -0.53444        14.55217
     2022.17385        12.58197        14.43848
     2022.17659         0.91537        14.23215
     2022.17932         9.57478        14.90165
     2022.18206         3.13719        14.72480
     2022.18480         0.70460        14.85744
     2022.18754         3.84701        14.65322
     2022.19028         4.06742        15.05745
     2022.19301         4.69083        14.77533
     2022.19575        15.49024        14.49111
     2022.19849       -11.65835        15.09956
     2022.20123        -7.85294        15.56273
     2022.20397         6.61447        15.65116
     2022.20670        -9.56512        15.56273
     2022.20944         1.48529        14.88481
     2022.21218         1.86270        14.89323
     2022.21492         3.24911        14.57953
     2022.21765         7.68252        14.75849
     2022.21951       -18.88216        26.36738
     2022.26492         3.02339        21.92509
     2022.26694        11.14190        15.17324
     2022.26967         1.40031        14.20057
     2022.27241         6.14672        14.25952
     2022.27515        11.02413        14.82797
     2022.27789        10.85953        14.52901
     2022.28062       -35.56906        14.92271
     2022.28610       -46.13124        15.67853
     2022.29158       -18.91342        14.58375
     2022.29979       -11.59119        14.55006
     2022.30253        -8.87978        15.37746
     2022.30527         1.47563        15.15429
     2022.30800         7.24804        14.98376
     2022.31074         6.97645        14.52690
     2022.31348         6.43186        14.88902
     2022.31622        -1.80573        14.91218
     2022.31895       -21.77232        14.76691
     2022.32169        -1.06191        14.70796
     2022.32443         7.37950        14.83428
     2022.32717         2.22291        15.98170
     2022.32991        10.97832        14.84691
     2022.33264        -9.56827        15.12903
     2022.33538        -5.85586        15.73958
     2022.33812         4.71055        15.49326
     2022.34086        13.13096        16.07854
     2022.34360        -0.27163        15.78800
     2022.34633       -11.84322        16.12697
     2022.34907       -25.40281        15.08692
     2022.35181       -20.72340        15.10166
     2022.35455       -28.47999        15.04903
     2022.35728       -47.75458        15.43641
     2022.36550        14.26265        18.16915
     2022.36824         9.37006        15.30799
     2022.37097         7.95447        14.92060
     2022.37371         0.44788        14.76270
     2022.37645        -7.80471        14.71849
     2022.37919         5.71469        15.80274
     2022.38193        -5.04590        14.84691
     2022.38466        -0.67649        15.17956
     2022.38740       -15.06108        15.01745
     2022.39014         8.50833        15.08061
     2022.39288         1.30474        15.25114
     2022.39561        -9.65685        15.17956
     2022.39835         6.37756        15.31851
     2022.40109        -0.62303        15.47641
     2022.40383        -5.01062        15.82169
     2022.40657        -8.04821        15.71011
     2022.40930       -11.13580        15.69326
     2022.41204         2.13161        15.30167
     2022.41478        -6.41298        14.88060
     2022.41752        -3.78857        15.32904
     2022.42026         6.59584        15.71432
     2022.42299         5.35725        16.01117
     2022.42575         2.84368        16.10591
     2022.42847        12.80207        15.23219
     2022.43121         5.16848        15.35430
     2022.43394        16.97989        15.16693
     2022.43668        -1.11270        15.27430
     2022.43942        10.19371        15.59431
     2022.44216        13.92312        16.59856
     2022.44490        17.89053        18.17757
     2022.44763        -5.72006        16.05538
     2022.45037        17.60235        15.91643
     2022.45311        -9.37924        15.81116
     2022.45585        16.13617        15.10587
     2022.45859       -14.33542        16.53330
     2022.46132         0.82599        15.86590
     2022.46406        -0.84460        15.66589
     2022.46680        -4.52819        16.28066
     2022.46954         7.89422        15.44904
     2022.47227         1.50363        16.11854
     2022.47501        26.39204        15.41746
     2022.47775        14.07445        16.16486
     2022.48049        -6.68215        16.14170
     2022.48323        13.70126        15.88906
     2022.48596        20.45567        15.68484
     2022.48870        13.10808        15.80906
     2022.49144         4.76749        15.43641
     2022.49418        10.86790        16.75646
     2022.49692         5.62231        16.38592
     2022.49965        -8.45328        16.34171
     2022.50239        -5.64787        16.09539
     2022.50513         6.59854        16.73962
     2022.50787        15.63795        17.21333
     2022.51060        -6.50364        16.34803
     2022.51334         0.59177        16.17960
     2022.51608         2.38718        16.40487
     2022.51882        -3.50241        16.02591
     2022.52156        10.25100        15.51641
     2022.52429         3.82541        15.90590
     2022.52703        16.67782        15.90590
     2022.52977        13.25123        16.58804
     2022.53251         8.84764        15.46378
     2022.53525         0.01005        16.09749
     2022.53798         5.82646        15.53747
     2022.54072        10.25287        15.81327
     2022.54346        -0.64472        15.16061
     2022.54620         9.89069        14.87007
     2022.54893        18.49410        16.37540
     2022.55167        12.78251        17.13964
     2022.55441         1.93692        15.56273
     2022.55715        10.33833        15.39009
     2022.55989         4.69274        15.62589
     2022.56262         3.59515        15.34588
     2022.56536        -2.52044        16.12907
     2022.56810         8.03397        16.62804
     2022.57084         0.68438        16.42171
     2022.57357        10.87779        16.05959
     2022.57631        -9.82080        16.00696
     2022.57905        -2.55339        15.94169
     2022.58179         8.74701        15.91433
     2022.58453        14.95242        18.07020
     2022.58726        -5.24617        17.28912
     2022.59000        11.31024        17.88283
     2022.59274        -1.78035        15.60273
     2022.59548         6.63006        15.17745
     2022.59822       -14.11253        16.26592
     2022.60095        -5.82012        16.43856
     2022.60369         8.76829        16.04696
     2022.60643         1.53370        16.01749
     2022.60917        10.05911        16.46803
     2022.61190        11.57552        16.28487
     2022.61464        13.43693        16.04065
     2022.61738        16.28234        15.32693
     2022.62012        12.57975        16.01117
     2022.62286        14.29916        15.79222
     2022.62559         8.05257        17.56071
     2022.62833         8.37898        15.76695
     2022.63107        12.48939        16.48909
     2022.63381        15.09980        16.21750
     2022.63655         8.40121        16.29329
     2022.63928        22.00062        16.13960
     2022.64202        18.98503        17.02384
     2022.64476        23.51244        16.89331
     2022.64750         7.02085        17.54808
     2022.65023        22.68326        15.83432
     2022.65297        24.42667        16.95858
     2022.65571         8.05308        17.29543
     2022.65845        21.05349        15.53957
     2022.66119         9.85790        15.66168
     2022.66392        18.01431        15.90590
     2022.66666        19.82572        15.44904
     2022.66940        19.02513        16.31013
     2022.67214        17.14054        16.58593
     2022.67488        20.17095        15.22377
     2022.67761        21.55036        15.93748
     2022.68035        30.16876        16.66804
     2022.68309        18.19817        15.57326
     2022.68583        11.01958        17.32912
     2022.68856         9.03699        15.24904
     2022.69130        20.81240        15.69537
     2022.69404        22.57981        15.62168
     2022.69678        22.79222        16.42593
     2022.69952        16.82963        15.83222
     2022.70225         7.61604        16.08275
     2022.70499        14.85945        16.67225
     2022.70773        18.11186        15.63221
     2022.71047        13.74327        15.38799
     2022.71321        24.19968        15.66800
     2022.71594        29.76609        16.13539
     2022.71868        11.49450        16.23855
     2022.72142        21.24891        16.41961
     2022.72416        13.80932        16.31013
     2022.72689        18.48773        16.34171
     2022.72963        18.43714        15.74169
     2022.73237         0.86555        15.77537
     2022.73511        18.98496        15.20272
     2022.73785        12.55137        15.53536
     2022.74058        30.20078        16.55435
     2022.74332        36.71119        15.83011
     2022.74606        19.92560        16.03433
     2022.74880        15.30001        15.44062
