# ================= DQRFIT RESULTS ================
# INPUT FILE: series/CLWZ.rad
# OUTPUT: LDETRENDED
# FILTER FUNCTION: f(t)
# f(t)=+line(t)+annual(t)
# line(t)=+P 1+P 2*t
# annual(t)=+P 3*sin(2*pi*t+P 4)
# heav(t)=(t<0?0:1)
# TOTAL OBSERVATIONS MTOT= 3450
# INITIAL TIME INTERVAL= 2022.7488 - 2009.5989 = 13.1499
# TOTAL OBSERVATIONS AFTER PREFILTER M= 3437
# TIME-SPAN= 2022.7488 - 2009.5989 = 13.1499
# OBSERVATIONS: USED M=  3437 REJECTED MTOT-M=    13 %USED=   99.6232
# N=  4 PARAMETERS
# MAXSIG= 175.00000
# MAXRES=  72.14077
# SCALE FACTOR FOR LENGTHS: SCL=  10.00000
# SCALE FACTOR FOR SIGMAS: SCLSIG=   1.00000
# CHI^2=   5751.362 DOF=  3433 CHI^2/DOF=   1.67532
# RMS=     11.826 SDEV=     11.827 MEAN=    0.10321
#  P #       PARAMETER +-    SIGMA %error PARAMETER NAME
# P 1 =      1078.09692 +-   91.353   8.47 YZERO                              
# P 2 =        -0.53424 +-    0.045   8.48 SLOPE                              
# P 3 =         6.57845 +-    0.266   4.04 ANNUAL AMPLITUDE                   
# P 4 =         2.79705 +-    0.054   1.92 ANNUAL PHASE                       
#       T            LDETRENDED       SIG_OBS
     2009.59890        -8.04332        11.34748
     2009.60164        -6.69986        11.37337
     2009.60438        -1.89840        11.66071
     2009.60711         0.74507        12.06325
     2009.60985        -6.65447        11.31124
     2009.61259         2.70199        12.20175
     2009.61533        -8.69355        12.14868
     2009.61807        -5.71108        11.59599
     2009.62080       -15.08562        11.75649
     2009.62354        12.63684        11.56881
     2009.62628         4.47431        11.33971
     2009.62902         9.09477        12.87092
     2009.63175        10.27623        14.96516
     2009.63449       -26.98531        20.87900
     2009.63723        11.63516        11.74355
     2009.63997       -12.51238        11.78756
     2009.64271       -20.03192        11.91181
     2009.64544         5.93154        11.63482
     2009.64818         5.49901        11.61670
     2009.65092         1.52447        11.61411
     2009.65366        -0.58507        11.68919
     2009.65639       -12.41460        11.92734
     2009.65913        10.46886        11.43938
     2009.66187        -6.68368        11.47433
     2009.66461         4.29578        11.77461
     2009.66735        -8.24975        11.82898
     2009.67008        -1.33229        11.89369
     2009.67282        -2.62883        11.23876
     2009.67556         2.18263        11.54681
     2009.67830        -1.90890        12.08137
     2009.68104         9.89656        11.86263
     2009.68377       -15.24798        11.39278
     2009.68651         3.29248        11.50539
     2009.68925         5.26495        11.28924
     2009.69199        -6.22959        11.32548
     2009.69472        12.04287        11.55975
     2009.69746        -1.95166        11.72802
     2009.70020        10.92780        12.32988
     2009.70294         8.02426        11.67883
     2009.70568         7.27872        11.57528
     2009.70841       -21.77481        11.67754
     2009.71115       -12.07535        11.80697
     2009.71389        -5.45589        11.93511
     2009.71663       -17.54143        11.91570
     2009.71937        -0.89296        11.19734
     2009.72210        -4.51050        11.79144
     2009.72484        -1.95404        12.43990
     2009.72758        -8.12858        12.03478
     2009.73032        -4.32611        11.57011
     2009.73305        -6.97865        12.55251
     2009.73579         8.24581        11.55457
     2009.73853         7.53628        11.79144
     2009.74127        -3.59426        12.43473
     2009.74401       -10.44680        12.44896
     2009.74674        -7.46334        11.63482
     2009.74948        -8.33287        11.58046
     2009.75222       -14.61741        11.97912
     2009.75496        -0.38295        11.63741
     2009.75770       -12.48749        11.24523
     2009.76043        -3.05302        11.44067
     2009.76317        -2.54456        11.34101
     2009.76591       -12.88610        11.23617
     2009.76865        -4.32564        11.67754
     2009.77138         6.12383        11.11579
     2009.77412         4.60329        11.21546
     2009.77686        -0.26725        11.81603
     2009.77960        -8.39278        11.97653
     2009.78234        -8.09332        11.86133
     2009.78507        -6.55386        11.92993
     2009.78781        -3.47140        11.96229
     2009.79055        -6.24693        11.38243
     2009.79329       -13.13347        11.75390
     2009.79603       -15.14201        11.83933
     2009.79876        -2.87155        11.95453
     2009.80150       -13.43008        11.83286
     2009.80424        -6.06562        11.84968
     2009.80698        -9.45816        11.96229
     2009.80971        -2.50870        12.18362
     2009.81245        -8.20923        12.28717
     2009.81519         9.26023        11.57658
     2009.81793       -17.58931        12.43343
     2009.82067         3.44916        11.69695
     2009.82340        10.59162        11.23876
     2009.82614        -0.66092        12.90587
     2009.82888       -24.75746        12.15515
     2009.83162         2.15901        12.54733
     2009.83436        -5.50853        11.99594
     2009.83709       -16.88607        11.85745
     2009.83983        -7.49061        11.88463
     2009.84257        14.09286        11.64777
     2009.84531        11.27932        12.06454
     2009.84804       -10.20922        12.96023
     2009.85078         2.92525        12.16421
     2009.85352        18.35971        11.83027
     2009.85626         2.99317        12.00889
     2009.85900        11.15863        11.84451
     2009.86173         5.22610        11.69177
     2009.86447         4.96156        11.79403
     2009.86721        -4.23298        11.29700
     2009.86995         9.25948        11.49115
     2009.87269        -5.05905        11.68401
     2009.87542         2.16541        11.96229
     2009.87816        -0.93213        11.74225
     2009.88090        -7.32167        11.40573
     2009.88364        14.66880        11.44973
     2009.88637         8.74726        11.43679
     2009.88911         9.76772        11.00966
     2009.89185        -0.19081        10.84010
     2009.89459         9.34765        11.27500
     2009.89733        -4.33489        11.50668
     2009.90006        -4.19743        11.80309
     2009.90280         0.75204        11.33842
     2009.90554        -6.93950        12.31306
     2009.90828        -5.75304        11.47821
     2009.91102       -12.28858        11.36560
     2009.91375        -5.65111        11.29053
     2009.91649        13.47035        12.16550
     2009.91923        -1.57819        11.56105
     2009.92197        -6.23973        11.38113
     2009.92470        -8.00926        11.56364
     2009.92744        -7.27380        11.07179
     2009.93018        -6.08934        10.70160
     2009.93292        -4.19287        10.65889
     2009.93566        -4.74941        10.61618
     2009.93839         0.02205        10.91388
     2009.94113       -14.85249        11.15333
     2009.94387        -5.12402        11.82768
     2009.94661         4.55644        12.38684
     2009.94935         2.21990        11.42255
     2009.95208        -2.59664        11.24134
     2009.95482        -2.35217        11.53516
     2009.95756        -8.92371        11.88722
     2009.96030        -9.96225        12.19657
     2009.96303       -31.22979        12.22375
     2009.96577       -27.95932        12.09173
     2009.96851       -34.11686        11.71896
     2009.97125       -39.33240        12.03736
     2009.97399        -1.34593        11.23746
     2009.97672       -24.95547        11.05884
     2009.97946       -17.49101        11.32289
     2009.98220        -4.44755        11.03037
     2009.98494        -5.53308        11.10285
     2009.98767         0.93338        11.13003
     2009.99041        -9.10516        11.28535
     2009.99315        -8.93970        10.83622
     2009.99589        -6.57023        10.91776
     2009.99863       -20.49277        11.51704
     2010.00410       -41.14684        11.66330
     2010.00684       -33.43338        11.49115
     2010.00958        -5.94892        11.50280
     2010.01232       -22.76346        11.89240
     2010.01505       -43.74699        12.04125
     2010.01779       -38.30253        11.80309
     2010.02053        -4.35607        11.47433
     2010.02327       -14.63561        11.49762
     2010.02600         1.21686        11.14815
     2010.02874        -9.18568        11.69177
     2010.03148       -22.51022        12.17198
     2010.03422       -39.07376        12.92528
     2010.03696       -19.78229        12.24187
     2010.03969         8.99017        11.88463
     2010.04243         3.95863        11.12615
     2010.04517        12.51810        11.30477
     2010.04791         1.71156        11.31253
     2010.05065        18.66302        11.38890
     2010.05338        12.97248        11.54163
     2010.05612        14.44595        11.13780
     2010.05886         9.68741        10.94753
     2010.06160        -5.28813        11.27629
     2010.06433         4.97433        11.00060
     2010.06707        -3.18820        11.32936
     2010.06981        -0.97474        11.59858
     2010.07255       -13.37228        11.65812
     2010.07529        -9.38382        11.32030
     2010.07802         4.73565        11.74873
     2010.08076         7.06911        11.22064
     2010.08350         8.64457        11.28147
     2010.08624        -1.01996        11.11709
     2010.08898        -4.65350        12.40366
     2010.09171        -4.82204        11.59470
     2010.09445         9.05642        12.05937
     2010.09719         8.88189        12.02830
     2010.09993        -8.84765        12.04901
     2010.10266       -19.36619        11.53128
     2010.10540       -14.39273        11.74225
     2010.10814        11.33574        11.78108
     2010.11088        -0.74680        11.78497
     2010.11362        18.36466        12.10985
     2010.11635         1.32212        12.19268
     2010.11909       -16.23541        11.94935
     2010.12183         7.67405        11.94547
     2010.12731       -13.92502        12.16680
     2010.13004        -6.45056        11.54422
     2010.13278         5.68690        11.69177
     2010.13552         6.32136        11.37078
     2010.13826        -0.57017        11.17274
     2010.14099         7.46929        10.96953
     2010.14373        -3.28125        11.15851
     2010.14647        12.98621        12.24705
     2010.14921         1.18568        11.80050
     2010.15195       -17.54886        11.45491
     2010.15468        -8.74140        11.65942
     2010.15742         8.11507        11.83156
     2010.16016        11.41153        11.53645
     2010.16290        18.61599        11.96618
     2010.16564         2.34845        12.16421
     2010.16837         6.02692        11.69048
     2010.17111         1.52038        11.68530
     2010.17385        -2.83816        11.07437
     2010.17659        15.63630        11.53128
     2010.17932         7.10377        11.40831
     2010.18206        16.27023        11.17274
     2010.18480         4.62369        10.90999
     2010.18754         3.60715        10.59417
     2010.19028        15.64562        10.88022
     2010.19301        16.14508        11.23099
     2010.19575         0.69054        10.83233
     2010.19849         7.49401        10.88799
     2010.20123         3.86347        11.35784
     2010.20397         8.32393        11.31512
     2010.20670        -5.11361        11.65553
     2010.20944         7.97786        11.00966
     2010.21218        13.99632        11.34360
     2010.21492        -4.12822        11.52998
     2010.21765       -10.24376        11.55975
     2010.22039        -1.30429        11.12874
     2010.22313         0.79017        11.28924
     2010.22587        10.71663        11.78756
     2010.22861        -4.90991        11.32548
     2010.23134        -8.05844        10.69513
     2010.23408        -5.81498        10.87505
     2010.23956       -25.58905        12.33895
     2010.24230        -1.65159        11.09120
     2010.24503        -8.01313        10.95659
     2010.24777        -0.19567        10.74561
     2010.25051         8.77280        10.95659
     2010.25325         4.08526        10.55923
     2010.25598        -2.55628        10.71973
     2010.25872        11.83818        10.75208
     2010.26146         1.31265        11.43291
     2010.26420         1.98911        11.77979
     2010.26694         9.70957        11.10803
     2010.26967        -2.00797        11.15333
     2010.27241         9.98950        11.50151
     2010.27515       -15.28404        11.65812
     2010.27789        15.15542        11.86133
     2010.28062       -11.13611        11.36948
     2010.28336        -3.06865        11.86392
     2010.28610        -2.39019        11.97135
     2010.28884        -5.86973        11.59988
     2010.29158        -8.25926        11.59858
     2010.29431         5.98520        11.28665
     2010.29705        -0.07734        11.39667
     2010.29979       -12.32388        12.04642
     2010.30253        -3.97841        11.39667
     2010.30527        13.94105        11.93123
     2010.30800         2.45051        11.35913
     2010.31074        -1.21202        11.41090
     2010.31348       -10.15756        11.54422
     2010.31622         3.21790        11.45232
     2010.31895       -13.14564        12.93693
     2010.32169         9.40483        11.38113
     2010.32443         8.70529        11.22840
     2010.32717         4.06875        11.06402
     2010.32991        -6.56179        11.68013
     2010.33264         2.63468        11.33971
     2010.33538       -22.48186        12.53051
     2010.33812        -9.70140        11.41737
     2010.34086         3.23606        10.99930
     2010.34360        -4.90747        10.93847
     2010.34633        -3.36201        11.38890
     2010.34907         3.16045        11.72543
     2010.35181        -5.64708        11.20381
     2010.35455       -21.14762        11.43161
     2010.35728       -18.65316        11.19345
     2010.36002        -3.77270        11.43161
     2010.36276        -7.23823        11.27888
     2010.36550       -13.33477        11.77591
     2010.36824        -8.27231        11.65812
     2010.37097         1.34415        11.53904
     2010.37371        -1.02338        11.21805
     2010.37645        -2.89092        11.49115
     2010.37919        -7.88846        11.97265
     2010.38193        -7.81300        11.82121
     2010.38466        -5.11653        11.48597
     2010.38740        10.30393        11.10285
     2010.39014        -6.31261        11.07567
     2010.39288        -5.36914        11.11968
     2010.39561        -5.42268        11.57011
     2010.39835       -34.42122        12.06454
     2010.40109       -14.47176        11.95711
     2010.40383         0.39071        11.54163
     2010.40657         2.98917        11.65683
     2010.40930        -8.41637        12.41661
     2010.41204        -2.82891        12.41661
     2010.41478         9.12956        11.85874
     2010.41752         1.66202        12.11632
     2010.42026        -0.43052        11.65683
     2010.42299         0.61594        11.77332
     2010.42573       -15.69959        11.51186
     2010.42847        -3.21713        11.67107
     2010.43121         7.35833        11.55328
     2010.43394        -1.70720        11.25947
     2010.43668       -24.03474        11.44585
     2010.43942       -18.07028        11.98688
     2010.44216         8.81518        11.89628
     2010.44490         5.42765        11.23228
     2010.44763        -4.49289        11.28147
     2010.45037        -8.80943        11.34619
     2010.45311       -12.90197        11.42644
     2010.45585       -19.39250        11.10673
     2010.45859         5.92296        11.18051
     2010.46132         1.49442        11.44197
     2010.46406       -16.29411        11.47821
     2010.46680        -4.76365        11.24652
     2010.46954         8.22081        11.82250
     2010.47227         5.76427        11.53257
     2010.47501       -18.39826        11.39278
     2010.47775       -19.28080        11.90275
     2010.48049        -0.38134        11.56881
     2010.48323         6.95412        11.25040
     2010.48596         3.43259        11.29182
     2010.48870        -5.05595        11.55328
     2010.49144        -9.65549        11.64906
     2010.49418         0.72797        15.87638
     2010.49692         3.42044        11.41220
     2010.49965        -8.89010        11.69954
     2010.50239        -1.29064        11.39796
     2010.50513        -7.51717        11.43032
     2010.50787        -8.03471        11.22840
     2010.51060         4.57875        11.25170
     2010.51334        -1.70679        11.46527
     2010.51608       -13.05732        11.35007
     2010.51882        -6.58586        11.27241
     2010.52156        -3.69540        11.28017
     2010.52429        21.88006        11.93252
     2010.52703        11.24453        11.62576
     2010.52977        -3.00001        11.25558
     2010.53251       -12.73355        11.23358
     2010.53525        -2.45309        11.38890
     2010.53798        -6.57162        11.37725
     2010.54072       -14.23916        11.57140
     2010.54346        -7.16170        11.55328
     2010.54620        -6.26523        11.32548
     2010.54893         5.58423        11.24134
     2010.55167        -0.55031        11.84839
     2010.55441         1.73515        11.66848
     2010.55715         1.03562        11.74484
     2010.55989        -7.31592        11.91828
     2010.56262       -11.73746        11.95582
     2010.56536       -26.67100        11.82509
     2010.56810         7.20847        12.33506
     2010.57084         6.58493        12.22634
     2010.57357        -8.42961        13.32005
     2010.57631        -2.40715        12.72466
     2010.57905       -14.93268        12.57969
     2010.58179         3.08378        12.35189
     2010.58453         6.08824        12.22763
     2010.58726        -9.71529        12.02054
     2010.59000       -16.24183        12.59264
     2010.59274        -0.79637        12.10855
     2010.59548        -3.05591        12.14997
     2010.59822        -0.16844        11.89758
     2010.60095       -30.31598        13.90769
     2010.60369        -1.80152        11.82380
     2010.60643        -1.33306        11.57528
     2010.60917        -9.10559        12.04642
     2010.61190         2.75787        20.12311
     2010.61464        -6.53167        11.74614
     2010.61738         4.35580        12.08655
     2010.62012        -4.06474        11.85616
     2010.62286        -5.46028        11.57528
     2010.62559        -1.36682        11.96359
     2010.62833        -6.49135        11.58564
     2010.63107        -7.73489        12.19657
     2010.63381         5.03057        12.25093
     2010.63655        -0.80097        12.10855
     2010.63928        -0.06350        11.86910
     2010.64202        -0.62404        12.12797
     2010.64476         9.88442        11.87169
     2010.64750         1.13988        12.23151
     2010.65022       -10.73566        11.95323
     2010.65297         3.99581        11.93252
     2010.65571        -6.44573        11.77979
     2010.65845         4.68074        13.36924
     2010.66008       -32.33039        25.58781
     2010.66380        23.85659        34.07609
     2010.71970        -4.12654        23.40555
     2010.72142        -3.12362        11.37984
     2010.72416        16.10484        11.74873
     2010.72689        -2.97770        12.00501
     2010.72963         6.34576        11.33324
     2010.73237         2.06323        11.66459
     2010.73511         6.11269        11.39019
     2010.73785         6.64215        12.16680
     2010.74058         9.53562        11.89499
     2010.74332         1.71508        11.58434
     2010.74606         8.06954        11.34101
     2010.74880         7.14600        11.24911
     2010.75154        -5.36753        11.55069
     2010.75427         6.13193        11.49115
     2010.75701         3.99939        11.37854
     2010.75975        10.14785        11.05108
     2010.76249        -0.90768        12.20692
     2010.76522        -0.71522        11.58176
     2010.76796         9.76024        11.75261
     2010.77070       -11.55329        12.20951
     2010.77344         8.37017        11.84062
     2010.77618         4.82363        11.75261
     2010.77891        11.24009        11.29441
     2010.78165        -1.96244        11.50668
     2010.78439        -1.01898        11.69307
     2010.78713         1.06248        11.90922
     2010.78987        11.11294        11.62965
     2010.79260         4.58141        11.62447
     2010.79534         3.44287        11.45879
     2010.79808         8.70833        11.81344
     2010.80082         2.06579        11.47691
     2010.80355         4.23426        11.75649
     2010.80629        17.22472        11.66589
     2010.80903         1.75918        12.05678
     2010.81177       -19.48035        12.06713
     2010.81451         4.44611        11.83415
     2010.81724         6.78257        11.27759
     2010.81998        12.72403        11.86910
     2010.82272         8.51950        11.77073
     2010.82546         7.53696        12.29105
     2010.82820         2.27442        11.31512
     2010.83093         4.81988        13.37312
     2010.83367         0.28035        11.87816
     2010.83641       -10.72519        11.20381
     2010.83915        10.12027        12.00112
     2010.84188        -8.32027        11.60894
     2010.84462         4.46220        11.73967
     2010.84736        14.05866        11.55199
     2010.85010        17.90212        13.20356
     2010.85284         9.79859        10.83104
     2010.85557         0.68805        11.53257
     2010.85831       -15.44249        11.05496
     2010.86105         3.20697        11.04978
     2010.86379        -9.31256        11.59470
     2010.86653       -21.17310        11.67754
     2010.86926       -25.85864        11.88981
     2010.87200       -32.84718        11.47433
     2010.87474        -9.20071        12.06196
     2010.87748         1.39275        11.06143
     2010.88021         7.21821        11.23487
     2010.88295        -3.84933        10.60712
     2010.88569         6.03514        10.72361
     2010.88843         2.90060        11.06661
     2010.89117        -3.31894        10.93459
     2010.89390         1.51353        10.78574
     2010.89664         3.83899        10.28483
     2010.89938         3.09845        10.79997
     2010.90212         7.85891        11.22970
     2010.90485         0.00438        11.59082
     2010.90759        -4.95016        10.96565
     2010.91033        -3.29470        11.25817
     2010.91307       -11.90024        10.97730
     2010.91581       -12.56077        12.81138
     2010.91854        40.14669        17.00763
     2010.92128       -27.34985        10.95530
     2010.92402       -18.07838        11.76944
     2010.92676         0.92408        11.24393
     2010.92950       -12.22246        11.52610
     2010.93223       -23.27600        11.48727
     2010.93497        55.07547        12.75702
     2010.93771         1.41093        11.68660
     2010.94045       -13.66161        12.17974
     2010.94318        -5.98415        11.90016
     2010.94592        -5.88068        11.57011
     2010.94866       -19.54422        11.79014
     2010.95140        -3.32376        11.18828
     2010.95414        -8.96730        10.75856
     2010.95687         7.09617        10.88152
     2010.95961        -2.62037        11.13003
     2010.96235       -10.54891        11.19993
     2010.96509         4.45756        11.08732
     2010.96783        -9.66198        10.89317
     2010.97056        -8.71652        10.91776
     2010.97330         3.83294        11.10932
     2010.97604         6.08641        11.04849
     2010.97878        -0.45013        11.38761
     2010.98151        -3.18667        10.99024
     2010.98425        -2.73921        10.83492
     2010.98699        -7.70574        10.75985
     2010.98973        -8.53728        11.25817
     2010.99247        10.82618        10.60065
     2010.99520       -10.03536        10.65242
     2010.99794         2.24111        10.80645
     2011.00342        -4.67897        10.79997
     2011.00616        -0.81750        11.05496
     2011.00889        -4.06004        11.00448
     2011.01163         1.09742        11.16757
     2011.01437        -5.49312        11.24393
     2011.01711        -1.99165        10.94106
     2011.01984        -6.20819        10.97342
     2011.02258       -14.07473        10.57217
     2011.02532        -1.03927        10.58253
     2011.02806        12.21520        11.20640
     2011.03080       -12.37634        11.35784
     2011.03353        38.40712        13.98664
     2011.03627       -13.34842        11.53775
     2011.03901       -44.13695        11.38761
     2011.04175       -10.61749        11.58693
     2011.04449         3.48397        11.37725
     2011.04722        -5.75756        11.25429
     2011.04996       -12.19210        11.47433
     2011.05270       -10.39264        11.03037
     2011.05544       -12.62318        11.07308
     2011.05817        -0.15471        11.00319
     2011.06091         3.17575        11.16239
     2011.06365       -10.58379        11.36560
     2011.06639        -1.01733        11.40314
     2011.06913         0.38014        12.09302
     2011.07186        -2.62240        11.08344
     2011.07460         1.63406        11.20510
     2011.07734        -5.56247        11.49374
     2011.08008        -9.65001        11.29959
     2011.08282       -11.81855        11.31901
     2011.08555        -6.85609        11.15204
     2011.08829         8.55338        11.27888
     2011.09103        -6.00616        11.02131
     2011.09377        -4.18670        11.27759
     2011.09650       -27.75624        11.56234
     2011.09924         5.52223        11.41867
     2011.10198        -2.38231        11.79403
     2011.10472        -5.62385        10.33531
     2011.10746        -3.24239        10.76632
     2011.11019       -10.78092        11.37984
     2011.11293        -3.57546        11.19216
     2011.11567        15.65100        11.26982
     2011.11841        18.06347        11.93252
     2011.12115         1.53493        11.25817
     2011.12388        -4.31261        11.44326
     2011.12662         7.17985        11.07179
     2011.12936        -3.31368        10.58382
     2011.13210        -6.58322        10.67572
     2011.13483         2.42924        10.61747
     2011.13757         3.97770        10.58253
     2011.14031        -4.72883        10.56182
     2011.14305       -21.64437        10.77020
     2011.14579       -15.41091        10.49710
     2011.14852        -0.72145        10.14763
     2011.15126         8.21502        10.29000
     2011.15400         2.78948        10.55405
     2011.15674         9.91294        10.61877
     2011.15948        14.20941        10.50616
     2011.16221         9.69587        11.10544
     2011.16495         1.75833        10.90223
     2011.16769        -6.35121        10.86728
     2011.17043        -1.28474        11.01095
     2011.17316       -25.56528        11.29571
     2011.17590       -35.95782        11.95323
     2011.17864       -19.37736        12.36224
     2011.18138        -9.25789        11.49245
     2011.18685         2.56203        11.33971
     2011.18959        -3.77251        11.00189
     2011.19233         4.34696        11.45103
     2011.19507         3.70542        11.25299
     2011.19780         1.25288        11.15204
     2011.20054       -12.91265        11.94288
     2011.20328         7.12881        11.50410
     2011.20602        -7.03273        11.26594
     2011.20876       -10.82727        11.14945
     2011.21149       -10.11780        10.77538
     2011.21423        -0.76734        11.17533
     2011.21697        -1.55788        11.06402
     2011.21971        -4.17142        10.98507
     2011.22245         1.90305        11.37466
     2011.22518        -6.78849        11.51057
     2011.22792        -6.76603        10.84010
     2011.23066        -2.40557        10.81162
     2011.23340         2.34290        11.00319
     2011.23613         3.19936        11.25947
     2011.23887        -7.13518        11.69954
     2011.24161       -26.85071        11.80568
     2011.24435       -21.04025        11.63482
     2011.24709       -10.45579        11.20899
     2011.24982       -10.14233        11.38631
     2011.25256        -5.46286        10.65371
     2011.25530       -28.37040        11.63482
     2011.25804        -0.45594        13.30970
     2011.26078       -22.44448        11.27888
     2011.26351         6.38699        10.69513
     2011.26625       -13.86855        10.83233
     2011.26899         5.03191        11.02390
     2011.27173        -7.05362        12.00112
     2011.27446       -17.61616        11.60894
     2011.27720       -17.26570        11.20640
     2011.27994        -2.96924        11.31124
     2011.28268        -4.48077        11.00966
     2011.28542       -29.54631        12.72984
     2011.28815       -14.92585        11.91828
     2011.29089       -23.71839        11.93123
     2011.29363       -17.75692        11.51186
     2011.29637        -8.29146        11.29571
     2011.29911        -5.92900        11.72672
     2011.30184       -12.95254        11.44197
     2011.30458       -16.20607        11.31512
     2011.30732        -3.89461        11.08344
     2011.31006       -22.27715        11.63741
     2011.31279         9.45332        12.05678
     2011.31553       -17.62822        11.03684
     2011.31827       -18.44176        11.64518
     2011.32101        -2.96630        10.97600
     2011.32375        -5.00483        10.88540
     2011.32648       -23.86137        11.11062
     2011.32922       -16.76691        11.34619
     2011.33196        -3.59945        11.72154
     2011.33470        -9.24898        11.40702
     2011.33744       -14.05152        11.56364
     2011.34017        -8.72406        11.65165
     2011.34291       -11.33360        11.88981
     2011.34565       -21.73013        12.00501
     2011.34839       -18.96867        11.17663
     2011.35112        -8.37021        11.22711
     2011.35386       -11.23974        11.49115
     2011.35660       -17.50128        11.19993
     2011.35934       -45.61982        12.11373
     2011.36208       -10.27136        11.86781
     2011.36481       -19.94989        11.95453
     2011.36755       -20.34743        11.66201
     2011.37029        -3.77897        11.76426
     2011.37303       -16.87251        11.85227
     2011.37577       -13.99904        12.48132
     2011.37850        -7.61558        11.71248
     2011.38124       -14.50312        11.78238
     2011.38398       -25.40666        11.79014
     2011.38672        -3.11119        12.03607
     2011.38945       -18.84273        12.00112
     2011.39219         0.95273        11.44585
     2011.39493       -32.89480        12.32212
     2011.39767        -1.41934        12.03219
     2011.40041       -42.28688        11.77202
     2011.40314       -16.46742        11.56234
     2011.40588       -12.67695        11.73061
     2011.40862        -0.03249        11.42385
     2011.41136       -38.24803        12.30788
     2011.41410       -15.75457        11.62188
     2011.41683       -13.59010        11.39149
     2011.41957       -14.79664        11.53645
     2011.42231       -15.98018        11.79921
     2011.42505       -19.09071        11.56364
     2011.42778       -24.72625        11.55716
     2011.43052       -27.57479        11.57917
     2011.43326       -19.50533        11.44067
     2011.43600       -16.30886        11.79273
     2011.43874       -19.02640        11.71766
     2011.44147       -31.71694        11.62447
     2011.44421       -32.31748        11.61929
     2011.44695       -12.67001        11.73061
     2011.44969       -19.15655        11.32548
     2011.45243       -30.60509        11.62965
     2011.45516       -20.35363        11.66718
     2011.45790       -18.40216        11.89628
     2011.46064       -18.49470        11.45232
     2011.46338       -27.16924        11.86004
     2011.46611       -23.33577        11.38631
     2011.46885       -18.19031        11.72802
     2011.47159       -26.58985        11.73708
     2011.47433       -21.95939        11.50668
     2011.47707        -9.51692        11.59341
     2011.47980       -15.50046        11.25040
     2011.48254       -27.47800        11.93511
     2011.48528       -20.29254        11.27500
     2011.48802       -18.56507        11.83674
     2011.49076       -22.59961        11.54293
     2011.49349       -18.42015        11.30218
     2011.49623         5.20631        11.22581
     2011.49897       -12.72422        11.50280
     2011.50171       -11.00576        12.39201
     2011.50444       -28.80030        11.70472
     2011.50718        -8.85483        11.17792
     2011.50992       -24.41237        11.70342
     2011.51266        -1.58091        12.40366
     2011.51540       -17.04245        11.39019
     2011.51813       -16.63098        11.57011
     2011.52087       -10.09952        11.75779
     2011.52361        -6.15706        11.95582
     2011.52635         9.68240        12.00371
     2011.52908         2.28687        12.19139
     2011.53182       -23.14967        11.95323
     2011.53456       -22.10421        11.38631
     2011.53730       -27.16075        11.67107
     2011.54004       -14.57728        12.03219
     2011.54277       -21.46582        11.89628
     2011.54551       -15.86436        12.07619
     2011.54825        -0.69089        11.80697
     2011.55099       -18.70743        11.72284
     2011.55373       -33.05697        11.95064
     2011.55646        -5.38751        11.72802
     2011.55920        -9.31404        11.50410
     2011.56194        -6.03258        11.70990
     2011.56468        -9.79812        11.36431
     2011.56741       -21.08066        14.03841
     2011.57015       -10.74919        11.92605
     2011.57289        -2.72473        11.68271
     2011.57563       -11.08227        11.50151
     2011.57837         1.96620        11.72154
     2011.58110       -22.14934        11.73061
     2011.58384       -18.42088        12.03736
     2011.58658        -0.87642        12.31047
     2011.58932       -24.39595        12.07361
     2011.59206        -6.52349        11.89628
     2011.59479       -23.75403        11.60247
     2011.59753        -9.51857        12.14091
     2011.60027        -5.63810        11.56234
     2011.60301       -11.70564        11.16498
     2011.60516       -21.22749        15.40265
     2011.61231        -4.90167        49.42697
     2011.61396        -3.50479        12.15256
     2011.61670        -6.69233        11.94547
     2011.61943       -13.03486        11.95841
     2011.62217         3.48660        12.38295
     2011.62491       -17.71994        12.03478
     2011.62765       -12.20548        12.94470
     2011.63039         6.48199        11.91570
     2011.63312        -2.74155        11.40314
     2011.63586        -5.64309        11.98041
     2011.63860         6.21137        11.89758
     2011.64134       -15.87016        12.13573
     2011.64407         2.62930        11.72025
     2011.64681         3.40676        11.57528
     2011.64955        -3.18978        12.31824
     2011.65229        -4.85631        12.52404
     2011.65503       -21.86685        12.28329
     2011.65776        -8.76739        11.77979
     2011.66050        -1.37392        11.96100
     2011.66324       -12.49946        13.00035
     2011.66598       -10.68000        12.13832
     2011.66872        -3.33854        12.83727
     2011.67145       -12.31107        11.44973
     2011.67419         5.22639        12.54733
     2011.67693         9.73585        12.09302
     2011.67967        -8.47169        12.37778
     2011.68240       -10.54522        11.58046
     2011.68514        -1.53776        12.37519
     2011.68788       -11.50230        11.85874
     2011.69062         3.09116        11.79014
     2011.69336       -14.10837        11.89628
     2011.69609       -12.06091        11.80179
     2011.69883        -5.59745        11.56881
     2011.70157       -15.64798        11.58046
     2011.70431        10.17248        11.56881
     2011.70705         1.50494        12.42308
     2011.70978        -9.60460        11.66459
     2011.71252        -7.99613        11.43808
     2011.71526       -21.81967        12.56545
     2011.71800       -13.93721        12.79973
     2011.72073        -9.15175        12.15644
     2011.72347        11.94772        12.02313
     2011.72621         2.81718        11.76814
     2011.72895        -1.51236        11.83156
     2011.73169         5.60411        12.93822
     2011.73442        -8.63143        12.20304
     2011.73716        -0.81797        12.58099
     2011.73990        -1.60151        11.31642
     2011.74264         7.40696        11.80179
     2011.74538        -1.93258        11.66848
     2011.74811        -5.50412        11.70860
     2011.75085        10.69134        12.11891
     2011.75359        -4.16119        12.00501
     2011.75633        -0.21673        12.20045
     2011.75906       -24.74827        13.02753
     2011.76180       -10.16481        11.51316
     2011.94798         9.79866        11.53775
     2011.95071         0.60012        11.65553
     2011.95345        -0.80042        11.69954
     2011.95619        -5.47096        11.97653
     2011.95893        -3.73749        11.39537
     2011.96167         3.45497        11.20640
     2011.96440        16.46843        11.30736
     2011.96714         1.73490        11.83674
     2011.96988        -8.39464        11.73837
     2011.97262         3.81582        11.05108
     2011.97535         0.70528        11.29959
     2011.97809        -4.38725        11.63224
     2011.98083        -3.60179        11.51704
     2011.98357        -0.50833        11.01225
     2011.98631       -13.83087        11.36819
     2011.98904        -6.05540        11.62965
     2011.99178       -17.17494        11.54293
     2011.99452        -6.65948        12.21728
     2011.99726        -0.03702        11.03943
     2012.00273         6.96091        11.32807
     2012.00547         4.70737        11.66718
     2012.00821         2.18684        10.94235
     2012.01095        -0.30570        11.36560
     2012.01368        14.97376        11.36301
     2012.01642        -7.35978        10.87764
     2012.01916         8.12869        11.32030
     2012.02190        -0.06985        11.01354
     2012.02464         2.78461        11.10026
     2012.02737         2.12807        11.07308
     2012.03011        -2.62746        11.15462
     2012.03285        -6.01200        11.13391
     2012.03559        -3.01154        11.46138
     2012.03833         0.69293        10.92682
     2012.04106         8.12039        10.40908
     2012.04380        -0.72215        10.60712
     2012.04654        -0.22669        10.88152
     2012.04928       -35.14522        12.47097
     2012.05201       -13.74476        11.51186
     2012.05475        -4.32130        11.88593
     2012.05749        -2.89484        11.33065
     2012.06023        -4.68837        11.79921
     2012.06297        -2.24691        11.84968
     2012.06570         1.43355        12.06843
     2012.06844        13.31001        13.55692
     2012.07118       -16.12552        10.64077
     2012.07392       -15.06306        10.86469
     2012.07666       -14.68060        11.83415
     2012.07939         1.83787        11.79662
     2012.08213        -5.02067        11.12744
     2012.08487         2.43579        10.90482
     2012.08761        -4.86175        11.31253
     2012.09034        -1.90228        11.39925
     2012.09308        -4.87582        11.47044
     2012.09582        10.25264        11.98300
     2012.09856         3.72310        11.15074
     2012.10130        -2.22243        11.65165
     2012.10403         1.46903        11.47950
     2012.10677         6.68049        11.85616
     2012.10951         3.96695        11.96876
     2012.11225       -24.44758        12.02442
     2012.11498        -6.91812        11.34360
     2012.11772        -6.07566        11.07826
     2012.12046        -8.49419        11.23358
     2012.12320         0.58227        10.78315
     2012.12594        -5.68327        11.25688
     2012.12867       -19.48281        11.96488
     2012.13141        -3.98434        11.48597
     2012.13415        -6.70388        10.75726
     2012.13689        -2.52742        11.37207
     2012.13963        -4.01096        11.96488
     2012.14236       -14.18849        12.00371
     2012.14510        -1.70703        11.60505
     2012.14784       -11.66557        11.48080
     2012.15058        -6.58111        10.82198
     2012.15331        -5.82964        10.73008
     2012.15605        -0.35218        10.99154
     2012.15879       -10.25272        11.34877
     2012.16153         0.29175        10.45439
     2012.16427        -6.62979        10.54370
     2012.16700        -6.91933        10.89576
     2012.16974       -11.80887        11.44714
     2012.17248       -11.08940        11.34101
     2012.17522         2.01006        11.33583
     2012.17796         0.95252        10.68996
     2012.18069        -6.09202        10.58253
     2012.18343        -8.66355        11.08085
     2012.18617        -0.08309        11.50539
     2012.18891       -12.35463        11.61153
     2012.19164         3.49084        11.00836
     2012.19438         5.02730        10.47768
     2012.19712        -6.68424        10.73137
     2012.19986         7.04322        10.78056
     2012.20260        30.25869        13.54656
     2012.20807       -10.39839        11.28535
     2012.21081         0.49707        10.86857
     2012.21355         7.87854        10.57605
     2012.21629        -3.87600        10.98765
     2012.21902         1.03246        12.61723
     2012.22176       -19.84008        11.22840
     2012.22450       -18.86061        10.98118
     2012.22724       -15.99715        11.37854
     2012.22997        -4.53669        11.15462
     2012.23271        -7.83122        11.08991
     2012.23545        -2.18876        11.04202
     2012.23819        -8.43930        11.14039
     2012.24093        -9.89884        11.77461
     2012.24640        -5.25691        11.49504
     2012.24914       -17.59045        10.89576
     2012.25188       -20.63399        11.53775
     2012.25462       -16.89452        10.98118
     2012.25735       -22.45306        10.98636
     2012.26009       -17.40060        10.73137
     2012.26283       -23.33514        10.50487
     2012.26557       -11.79867        11.22064
     2012.26830        -9.19621        11.31383
     2012.27104       -12.94375        11.66071
     2012.27378       -20.49828        11.61929
     2012.27652       -13.72582        11.35136
     2012.27926       -11.35336        11.26982
     2012.28199       -14.35290        11.57140
     2012.28473       -22.60043        12.01277
     2012.28747         8.63803        11.33713
     2012.29021       -39.24051        11.62965
     2012.29295       -27.54605        11.36948
     2012.29568       -35.75058        11.29830
     2012.29842       -31.32312        11.52869
     2012.30116       -13.76866        11.60376
     2012.30390       -29.63520        11.48339
     2012.30663       -23.64373        11.33713
     2012.30937       -12.39627        11.43420
     2012.31211         0.93019        11.64906
     2012.31485         7.11366        12.16162
     2012.31759       -30.75188        11.54810
     2012.32032       -10.42342        11.57270
     2012.32306       -28.49296        11.60376
     2012.32580       -10.39749        11.52739
     2012.32854       -14.58703        11.71248
     2012.33128       -11.41457        11.82898
     2012.33401       -20.89711        11.49374
     2012.33675       -24.19964        12.05031
     2012.33949       -11.22618        11.63482
     2012.34223       -19.46372        11.58046
     2012.34496        -9.27625        11.80179
     2012.34770       -14.20679        11.97782
     2012.35044       -12.44133        11.53645
     2012.35318         1.31313        11.80697
     2012.35592       -19.08640        11.72931
     2012.35865       -10.75094        11.50410
     2012.36139       -15.02348        11.68271
     2012.36413       -17.80402        11.72672
     2012.36687       -14.75455        11.64777
     2012.36961       -16.14809        12.08525
     2012.37234        -4.65463        11.82768
     2012.37508        -1.29017        11.96229
     2012.37782       -19.24770        12.20563
     2012.38056       -13.82924        11.94676
     2012.38329        -6.81778        12.23281
     2012.38603       -10.71931        12.11244
     2012.38877        -7.64085        11.97524
     2012.39151       -27.86039        11.91440
     2012.39425       -27.34993        12.35707
     2012.39698       -37.42546        12.11244
     2012.39972       -13.21700        12.08008
     2012.40246       -20.13154        11.89887
     2012.40520        -8.94608        11.43679
     2012.40794       -32.23661        11.80827
     2012.41067       -31.26815        11.71119
     2012.41341       -13.00769        11.70860
     2012.41615         0.10377        11.63612
     2012.41889       -12.04276        12.04384
     2012.42162       -24.28930        11.91828
     2012.42436       -18.47884        11.91570
     2012.42710       -29.10037        13.27734
     2012.42984       -11.91491        11.53257
     2012.43258       -15.76845        11.90275
     2012.43531        -5.65599        11.73449
     2012.43805       -20.55152        11.32677
     2012.44079       -21.53706        11.75002
     2012.44353       -19.47660        11.51445
     2012.44626       -24.23314        11.66459
     2012.44900       -14.55367        11.80956
     2012.45174       -15.59921        11.56881
     2012.45448       -12.69875        11.61541
     2012.45722         3.71471        11.67495
     2012.45995       -39.43582        12.34283
     2012.46269       -10.58036        11.51445
     2012.46543       -25.36190        11.65165
     2012.46817        -3.10743        11.61023
     2012.47091       -12.24797        11.46009
     2012.47364       -13.66951        11.82509
     2012.47638       -51.64005        12.15385
     2012.47912       -16.09958        11.69177
     2012.48186        -6.38012        12.05419
     2012.48459       -10.39066        12.07361
     2012.48733       -21.17720        11.58952
     2012.49007       -20.26673        11.73190
     2012.49281        -6.71727        11.83156
     2012.49555        -8.82881        12.24964
     2012.49828       -16.85334        12.13703
     2012.50102        -3.40988        12.05548
     2012.50376        -7.37342        11.75261
     2012.50650       -20.72896        11.78756
     2012.50924         2.18951        12.00889
     2012.51197        -8.62603        12.97835
     2012.51471        -9.92857        12.18621
     2012.51745        -0.34211        11.68919
     2012.52019        -2.91064        11.86651
     2012.52292       -29.90918        11.86133
     2012.52566        -2.12972        13.52197
     2012.52840       -21.04826        11.24393
     2012.53114        -6.50979        11.36690
     2012.53388         0.72667        12.34283
     2012.53661        -2.78387        11.57787
     2012.53935       -10.74240        11.66977
     2012.54209         9.25706        11.97653
     2012.54483        -0.89448        11.35654
     2012.54757        -5.43502        12.39848
     2012.55030       -13.62255        11.76944
     2012.55304         3.89191        11.59470
     2012.55578        -0.64963        12.11761
     2012.55852        -9.24917        11.50410
     2012.56125        -2.51470        11.76296
     2012.56399        -6.18224        11.55328
     2012.56673        -6.42178        11.24523
     2012.56947         3.84568        11.75390
     2012.57221        -0.27285        11.93252
     2012.57494       -10.17239        11.91052
     2012.57768        -4.91593        11.48209
     2012.58042       -17.21746        12.04901
     2012.58316        -9.96600        11.66718
     2012.58590        -7.24654        11.40961
     2012.58863        -5.11208        11.64130
     2012.59137        -0.35361        11.65553
     2012.59411        -2.22915        11.91570
     2012.59685        -2.35169        12.05419
     2012.60599       -49.93980        27.82055
     2012.60780        20.42316        12.51239
     2012.61054        12.41562        11.41479
     2012.61327        12.96209        11.86651
     2012.61601         9.78655        11.74096
     2012.61875        20.97301        11.47044
     2012.62149        26.21748        11.38113
     2012.62423         8.41594        11.83286
     2012.62696         2.66640        11.46785
     2012.62970         6.42186        13.05083
     2012.63244        13.89033        11.99724
     2012.63518         9.39679        11.49762
     2012.63791        12.68525        11.35525
     2012.64065        16.44871        11.38890
     2012.64339        10.93718        12.25611
     2012.64613        26.05364        11.91828
     2012.64887         9.91410        11.83545
     2012.65160        11.02856        11.39796
     2012.65434        15.38503        11.99077
     2012.65708        10.66249        12.30918
     2012.65982        21.96695        12.29235
     2012.66256        20.31042        11.33713
     2012.66529         1.41188        11.49374
     2012.66803        19.47734        11.26594
     2012.67077        17.51280        11.42385
     2012.67351         9.27227        11.60505
     2012.67624        13.17073        11.51704
     2012.67898        15.95319        11.35525
     2012.68172        16.96265        11.57399
     2012.68446        20.44912        11.62835
     2012.68720         8.69858        11.91052
     2012.68993        23.30504        11.60764
     2012.69267        14.65351        11.89887
     2012.69541        13.31397        11.67495
     2012.69815        12.73043        11.26723
     2012.70089        18.22489        11.73190
     2012.70362        11.69936        11.74743
     2012.70636        16.73282        11.73708
     2012.70910        20.39928        11.42385
     2012.71184        17.31674        11.59988
     2012.71457        20.82721        11.31512
     2012.71731        22.26667        11.26594
     2012.72005        23.69713        11.48080
     2012.72279        24.36359        11.27370
     2012.72553         5.85506        11.36560
     2012.72826        29.34552        11.71248
     2012.73100        32.49498        11.76296
     2012.73374        20.46145        11.52222
     2012.73648        18.42491        11.34877
     2012.73921        13.41837        11.74225
     2012.74195        10.91883        12.16033
     2012.74469        22.09230        11.76555
     2012.74743        10.61976        11.62059
     2012.75017         8.63522        11.94029
     2012.75290        19.73168        11.68271
     2012.75564        16.27715        11.52351
     2012.75838         7.37761        11.67236
     2012.76112        19.51207        11.77591
     2012.76386         8.86053        11.61929
     2012.76659        16.55500        11.76555
     2012.76933        18.20646        12.16033
     2012.77207        19.01392        11.87557
     2012.77481        11.48239        11.77073
     2012.77754        12.77385        11.79273
     2012.78028         9.93131        11.73319
     2012.78302        12.09177        12.15515
     2012.78576         9.61024        11.18828
     2012.78850        26.38770        11.57270
     2012.79123        23.34316        11.94158
     2012.79397        14.34862        11.59858
     2012.79671        17.68209        11.56752
     2012.79945        18.19155        11.82121
     2012.80219        19.65101        11.26723
     2012.80492        16.87747        11.64777
     2012.80766        16.46594        11.78885
     2012.81040        20.15840        11.89758
     2012.81314        12.50086        12.05419
     2012.81587         5.75533        11.71507
     2012.81861         1.09779        12.12667
     2012.82135         0.50625        12.24187
     2012.82409         3.54171        12.23281
     2012.82683        12.23218        11.88334
     2012.82956        20.31164        11.49245
     2012.83230        17.07710        11.45750
     2012.83504         1.72156        12.30400
     2012.83778        15.83803        12.06454
     2012.84052         6.73749        12.02183
     2012.84325        16.98795        12.17974
     2012.84599         4.18542        12.77384
     2012.84873        -5.50912        11.94547
     2012.85147        10.25234        11.79791
     2012.85420        20.26080        12.10467
     2012.85694        15.48927        11.63612
     2012.85968        21.57573        11.27500
     2012.86242        19.73919        11.80309
     2012.86516        -4.96335        11.96100
     2012.86789        21.51712        12.20304
     2012.87063         2.77758        11.67236
     2012.87337         8.85104        11.92605
     2012.87611        20.02950        12.05807
     2012.87885         5.25997        12.29753
     2012.88158        27.55243        11.78367
     2012.88432        24.34089        12.41790
     2012.88706         6.30536        12.84633
     2012.88980        15.92982        12.70524
     2012.89253         3.86628        11.83674
     2012.89527        19.23874        11.88075
     2012.89801        18.18621        12.32082
     2012.90075        13.87467        11.87557
     2012.90349         2.92313        11.79662
     2012.90622        19.36659        12.21857
     2012.90896        18.37006        12.57063
     2012.91170        14.89952        12.24316
     2012.91444        16.74698        13.05472
     2012.91718        12.00044        12.25870
     2012.91991        28.76291        12.34671
     2012.92265        27.90737        11.73061
     2012.92539        21.96583        12.10985
     2012.92813        17.56830        12.13962
     2012.93086       -19.21824        12.54604
     2012.93360        -4.85478        12.18492
     2012.93634         1.50668        11.47950
     2012.93908        14.20915        11.74614
     2012.94182         6.99561        12.09820
     2012.94455        20.50207        11.89110
     2012.94729        13.39553        11.88722
     2012.95003        11.22100        12.22375
     2012.95277        12.74546        11.49892
     2012.95551        22.26992        11.63482
     2012.95824        13.25138        11.82639
     2012.96098        10.28585        12.04384
     2012.96372        21.41231        11.26464
     2012.96646        11.41177        10.84787
     2012.96919         1.63924        11.96876
     2012.97193         9.39670        11.68142
     2012.97467         8.35516        11.33583
     2012.97741         6.31862        11.39408
     2012.98015        25.59909        15.09848
     2012.98288        19.04255        11.29700
     2013.46310         9.30810        27.33776
     2013.46475         7.16898        11.66848
     2013.46748        -1.76056        10.99413
     2013.47022         2.36991        11.13909
     2013.47296         0.65537        11.14686
     2013.47570         6.68883        11.55457
     2013.47843        11.90529        11.89110
     2013.48117        11.40776        11.48209
     2013.48391        10.41322        11.33065
     2013.48665         6.97168        11.28406
     2013.48939         7.88314        11.10285
     2013.49212        -3.08939        11.37984
     2013.49486        16.60007        11.88204
     2013.49760        21.08753        11.56234
     2013.50034        11.69200        11.63612
     2013.50308        -1.74954        11.20640
     2013.50581        10.53692        11.07308
     2013.50855        23.95838        11.26853
     2013.51129        13.82485        10.99542
     2013.51403        11.30931        11.48727
     2013.51676         5.24677        11.38890
     2013.51950        17.72223        11.65424
     2013.52498        19.19916        11.57270
     2013.52772        -5.92038        11.47562
     2013.53045        -2.14792        11.44067
     2013.53319         6.99055        11.43161
     2013.53593        15.91801        11.74225
     2013.53867        31.82347        11.85616
     2013.54529        31.68301        38.00701
     2013.54962        16.06432        11.57787
     2013.55236        17.96779        11.47433
     2013.55509         8.30125        11.55328
     2013.55783        10.91871        11.26205
     2013.56057        13.83417        12.26258
     2013.56331        13.82564        11.71766
     2013.56818         9.65224        15.64081
     2013.57569       -27.85675       193.42749
     2013.57974         9.35941        11.39667
     2013.58247        28.99388        12.07231
     2013.58686        -1.08978        34.93942
     2013.60077        23.57165        18.93102
     2013.63358        44.69818        22.23547
     2013.64178        23.76756        22.09698
     2013.64544        33.76452        11.40184
     2013.64695         7.97932        90.10420
     2013.65092        18.41244        11.51704
     2013.65247       -23.50873        54.46454
     2013.65521       -61.05027        45.21389
     2013.68528        -1.84020        69.99145
     2013.68925        29.67992        11.62576
     2013.69568        17.21435        21.76692
     2013.70841        20.32916        11.70084
     2013.71389        23.89008        11.25170
     2013.71547        13.54093        38.81597
     2013.71820        39.40938        36.78127
     2013.72210        28.64647        11.46138
     2013.72699        55.62908        15.51396
     2013.72938        25.97236        21.28672
     2013.73693        37.35039        40.13231
     2014.64641        24.30728        30.10635
     2014.64904        -3.88232        36.64407
     2014.65168        -0.66091        80.04976
     2014.65571         9.45725        12.32988
     2014.65845        14.14971        11.76167
     2014.66119         6.97417        11.67624
     2014.66268         7.22497        76.47868
     2014.66564        34.85855        25.27976
     2014.66828        32.00196        32.88918
     2014.67214         1.16902        10.91517
     2014.68035         9.99241        11.01484
     2014.68489         3.99483        22.12157
     2014.68856         7.00580        11.86651
     2014.69015        18.31164        34.42427
     2014.69279       -28.41895        58.33721
     2014.70451         6.59532        12.66512
     2014.70676        36.91452        22.88652
     2014.70939        28.51792        27.15526
     2014.71215        18.67240        26.02400
     2014.72638        14.08800        13.59446
     2014.72863        58.14020        23.73561
     2014.73126        30.34361        30.93085
     2014.73390        29.39602        44.52142
     2014.74880        16.43398        10.72879
     2014.75154        13.06944        10.73137
     2014.75427        13.38490        10.39873
     2014.75701         9.00836        10.63430
     2014.75975        16.18383        10.94624
     2014.76249        14.20229        10.85822
     2014.76522         9.21175        10.15280
     2014.76796         6.38222        10.56182
     2014.77070        14.41968        11.04331
     2014.77344        19.97414        10.99930
     2014.77618         4.37160        11.12356
     2014.77892         9.31907        10.94106
     2014.78165        12.29553        10.56440
     2014.78439        30.40999        10.92941
     2014.78713         7.73345        11.78756
     2014.78987         9.01992        10.36378
     2014.79260        19.45838        10.31071
     2014.79534        15.94184        11.08344
     2014.79808        19.28731        11.05755
     2014.80082        15.16777        10.01819
     2014.80355         9.79023        11.73319
     2014.80629         8.30969        10.97989
     2014.80903        10.65316        11.43161
     2014.81177        16.36862        11.35913
     2014.81451        14.03408        11.08602
     2014.81725        11.93455        11.38372
     2014.81998        14.15101        11.14945
     2014.82272        25.68147        11.75908
     2014.82546        13.60693        11.27370
     2014.82820        28.14139        10.42720
     2014.83093        10.65086        10.61100
     2014.83367        13.31032        10.43238
     2014.83641         2.26878        10.23046
     2014.83915         6.81724        10.61747
     2014.84188         8.26271        10.98118
     2014.84462        12.32717        11.45232
     2014.84736         9.30063        11.50539
     2014.85010         4.29210        11.52739
     2014.85284        11.35156        10.74302
     2014.85558        17.44302        11.00060
     2014.85789         4.34526        13.27993
     2014.85986        50.89431        42.92032
     2014.86248       -10.14729       188.21519
     2014.87424        15.84999        14.17691
     2014.87685        15.37439        14.27010
     2014.87948         9.05779        15.06741
     2014.88174        70.86400        43.05234
     2014.88569        16.22711        10.95012
     2014.88826        19.37948        12.21598
     2014.89350        18.29329        13.13367
     2014.89610        20.66967        15.34181
     2014.89872        13.57107        17.17719
     2014.90136         3.10948        16.22585
     2014.90361        43.08569        45.32779
     2014.91537        19.87997        13.57116
     2014.91798        16.72936        13.20098
     2014.92059         9.76776        15.41300
     2014.92323        27.95516        16.01487
     2014.92549        65.54037        51.49662
     2014.93724        22.59365        13.17509
     2014.93985        14.13704        12.99518
     2014.94246         6.29144        17.23932
     2014.94510        22.73885        17.21861
     2014.95577        34.21855        25.67842
     2014.95911        24.08934        11.72025
     2014.96172         6.19073        13.27605
     2014.96434        11.13513        16.99080
     2014.96783         4.03999        11.25429
     2014.97057        16.07846        10.89705
     2014.97311        14.42681        11.40961
     2014.97495        -5.18121        24.47338
     2014.97765         0.01424        24.88369
     2014.98099        -1.99498        13.20227
     2014.98359        -7.83259        14.31281
     2014.98621         6.81981        14.76972
     2014.98885        16.10622        16.95068
     2014.99682         2.13648        21.57406
     2014.99952        10.72192        24.99759
     2015.00286        16.25671        13.70318
     2015.00546        -9.53990        13.95040
     2015.00809       -10.71350        15.79872
     2015.01071        -3.22610        17.23932
     2015.01336       -11.93468        18.40552
     2015.01602        -1.32626        21.48087
     2015.01869         2.68316        21.49252
     2015.02139         5.59861        30.53090
     2015.02473         5.83939        13.81838
     2015.02734         1.39779        15.04929
     2015.02995        19.62918        16.39929
     2015.03259        -6.19141        18.12982
     2015.03523        -3.95900        21.25565
     2015.03789        -7.69658        23.21140
     2015.04056        20.27485        34.37768
     2015.04326        32.20029        41.92238
     2015.04661        10.57208        15.73659
     2015.04921       -13.00153        16.61545
     2015.05182        -6.32513        18.05346
     2015.05446         5.92227        21.95978
     2015.05711         4.63169        24.94323
     2015.05977        13.78511        25.98517
     2015.06243        36.09453        35.28889
     2015.06513        -7.56503        56.19249
     2015.06847        23.54576        14.64287
     2015.07186        12.70857        10.08550
     2015.07460        10.57604        10.49969
     2015.07734        -1.78250        10.21234
     2015.08008        11.04096        10.57735
     2015.08282        11.83642        10.22270
     2015.08556        14.81689        10.44274
     2015.08829        31.59135        11.39278
     2015.09103        20.83781        11.18957
     2015.09377        12.37127        10.82974
     2015.09650        24.10074        11.58564
     2015.09924        29.58620        11.55846
     2015.10198         8.68966        11.18051
     2015.10351        13.31648        37.09061
     2015.10618        14.70590        54.11248
     2015.10888        69.94735       116.81161
     2015.11222        21.25913        16.66204
     2015.11567        10.65198        10.80127
     2015.11765        -6.26097        14.52509
     2015.12115        13.45690        10.76762
     2015.12358        12.47620        12.06843
     2015.12538        -2.74784        46.06557
     2015.12805        36.39359       160.37393
     2015.13483         2.99321        10.59935
     2015.13757         9.46568        10.73785
     2015.14031        13.17314        10.36896
     2015.14305         9.82260        10.20717
     2015.14579         7.21806        10.06738
     2015.14852         8.20053        10.51910
     2015.15126         8.33099        10.77020
     2015.15400         0.88245        10.44144
     2015.15674        -5.31108        10.85693
     2015.15948         7.17338        10.29130
     2015.16222        11.86684         9.59753
     2015.16495        11.90230        10.21493
     2015.16769         6.73677        10.35084
     2015.17043         4.75923        10.19940
     2015.17316        -2.36231        10.28483
     2015.17590         4.02115        10.78703
     2015.17864        14.35462        10.75079
     2015.18138         9.24808        10.38967
     2015.18412        17.17954        10.30165
     2015.18685        10.86301        10.33013
     2015.18959         5.76547        10.73267
     2015.19233         4.94193        10.98895
     2015.19507         8.45439        10.01431
     2015.19780        15.51786        10.64336
     2015.20055        -3.18568        10.77927
     2015.20328        -2.51722        10.82845
     2015.20602        17.26324        10.76503
     2015.20876         7.95171        10.45697
     2015.21149        -2.35783        10.51134
     2015.21423         1.03863        10.74691
     2015.21697        -4.99491        10.82327
     2015.21971         6.89756        10.94753
     2015.22245         6.07402        10.48674
     2015.22518        18.17048        11.20769
     2015.22792         2.13295        10.94235
     2015.23066         7.05741        10.62783
     2015.23340        19.85687        11.36690
     2015.23613         6.11733        11.35136
     2015.23888         7.30680        11.10803
     2015.24161         4.11426        11.39408
     2015.24435         1.22972        11.53387
     2015.24709        -1.88882        10.69902
     2015.24982        -2.26435         9.92500
     2015.25256         6.55411        10.80645
     2015.25530         3.48557        11.05367
     2015.25804         6.42404         9.88229
     2015.26078         0.03450        10.16834
     2015.26351         9.39196         9.99748
     2015.26625        -2.85558        10.52946
     2015.26899        -3.01211         9.89005
     2015.27173         8.47235        10.58382
     2015.27446        10.97681        10.13598
     2015.27721         0.92228         9.64025
     2015.27994         7.82074        10.77279
     2015.28268        -1.98580         9.84734
     2015.28542         9.36166        10.03373
     2015.28815        -2.36588         9.99360
     2015.29089         5.12159        10.33142
     2015.29363        16.31205        10.67960
     2015.29637         3.61551        10.47898
     2015.29911         9.98497        10.51651
     2015.30184         5.31744        10.47510
     2015.30458        12.00890        10.47121
     2015.30732        10.89536        10.76244
     2015.31006        -4.79217        10.30295
     2015.31279         5.09829        10.26282
     2015.31554         3.74975        10.26541
     2015.31827         8.47121        10.51522
     2015.32101        18.85868        10.95659
     2015.32375        14.32214        10.26023
     2015.32648         6.30960        10.37155
     2015.32922        14.40706        11.10156
     2015.33196        15.34153        10.60971
     2015.33470         2.16699        10.50487
     2015.33744         0.37145        10.35860
     2015.34017         8.23392        11.00189
     2015.34291        -1.33862        10.78444
     2015.34565        15.51584        10.60971
     2015.34839        12.38430        10.58770
     2015.35112        13.20177        10.69384
     2015.35387        16.57523        10.74950
     2015.35660        11.23169        10.81292
     2015.35934        -2.95685        10.85563
     2015.36208         3.55362        10.52946
     2015.36481         7.87008        10.67183
     2015.36755        12.77454        10.63300
     2015.37029        16.35700        10.92294
     2015.37303        -5.57253        10.48804
     2015.37577        -1.43807        10.26800
     2015.37850         7.40839        11.14556
     2015.38124         6.07486        10.98377
     2015.38398         6.06732        10.77797
     2015.38672        -0.34122        10.46992
     2015.38945        -2.17476        10.57476
     2015.39220        12.29071        10.50875
     2015.39493        13.32517        10.69772
     2015.39767         4.30563        10.74302
     2015.40041        -0.75691        10.46862
     2015.40314        -2.36344        10.92553
     2015.40588        11.58202        10.72879
     2015.40862        13.56148        11.00448
     2015.41136        22.48695        10.53205
     2015.41410         9.41841        11.17145
     2015.41683        13.95587        11.35784
     2015.41957        -3.60167        10.78833
     2015.42231         0.29380        10.72620
     2015.42505        13.58826        11.04719
     2015.42778         8.63272        10.60841
     2015.43053        15.57119        11.09120
     2015.43326         7.70465        11.05884
     2015.43600        18.06011        10.62265
     2015.43874        22.13557        10.18646
     2015.44147        11.18003        10.79091
     2015.44421         1.36250        10.52946
     2015.44695         9.19496        10.55793
     2015.44969        -0.84758        10.74043
     2015.45243        11.41788        10.92423
     2015.45516        11.92135        11.12744
     2015.45790        20.05581        11.12874
     2015.46064        14.25127        11.47691
     2015.46338        13.95174        11.35136
     2015.46611         9.95120        10.92423
     2015.46886        17.05866        11.06014
     2015.47159        13.04812        11.02778
     2015.47433        12.94659        11.27888
     2015.47707        18.50405        11.74614
     2015.47980        14.72351        11.29830
     2015.48254        14.37697        10.93976
     2015.48528        17.14544        10.65760
     2015.48802         7.95590        10.31848
     2015.49076        18.06736        11.30606
     2015.49349         7.87283        10.65501
     2015.49623        11.66529        11.03684
     2015.49897         9.24475        11.44197
     2015.50171         8.44321        10.68607
     2015.50444        27.14868        11.11838
     2015.50719         1.22814        11.58046
     2015.50992         6.27860        11.57399
     2015.51266         6.01806        11.06920
     2015.51540        15.26953        11.29053
     2015.51813        11.24899        11.44067
     2015.52087        13.33245        11.00966
     2015.52361        -0.06609        11.54940
     2015.52635         5.70438        10.64077
     2015.52908        12.74784        10.50487
     2015.53182         7.54230        11.42773
     2015.53456        13.89977        10.85434
     2015.53730         9.87723        10.85175
     2015.54004        10.79769        10.22270
     2015.54277        16.19515        10.96436
     2015.54552        28.09962        10.80903
     2015.54825        19.51208        10.98895
     2015.55099        10.68554        11.45491
     2015.55373        19.48200        10.74950
     2015.55646        12.57347        11.02131
     2015.55920        19.81293        10.88928
     2015.56194        25.77839        11.01484
     2015.56468        22.87286        10.80256
     2015.56741        31.62032        10.72102
     2015.57015        20.79778        11.10156
     2015.57289        15.48324        11.48209
     2015.57563        15.54571        10.94753
     2015.57837        22.58317        10.24470
     2015.58110        22.12863        10.96177
     2015.58385        24.63810        10.79609
     2015.58658        25.93756        10.67701
     2015.58932        11.19002        11.12097
     2015.59206        15.33948        11.13262
     2015.59479        24.64694        10.78962
     2015.59753        27.50841        10.92423
     2015.60027        22.46187        11.45232
     2015.60301         7.28933        11.06531
     2015.60574        12.97979        10.99024
     2015.60848        14.53426        10.24600
     2015.61122        22.73772        10.26412
     2015.61396        26.05218        10.48804
     2015.61670        23.85165        10.81162
     2015.61943         8.75711        10.98765
     2015.62218        22.29157        10.71067
     2015.62491        27.57803        10.84528
     2015.62765        29.75450        11.11709
     2015.63039        24.17996        11.27241
     2015.63312        17.10642        10.79997
     2015.63586         3.90088        10.85693
     2015.63860        20.95235        10.54111
     2015.64134        26.43081        10.96177
     2015.64407        18.52227        10.62912
     2015.64681        15.26873        11.10414
     2015.64955        10.43320        10.53463
     2015.65229         9.99866        10.48027
     2015.65503        24.24912        10.55017
     2015.65776        21.47659        11.24264
     2015.66051        15.51105        10.96177
     2015.66324        10.34251        10.49580
     2015.66598         5.48297        10.65113
     2015.66872        33.63544        11.10156
     2015.67145        21.42990        10.89834
     2015.67419        18.44636        10.61100
     2015.67693         4.96782        10.56829
     2015.67967        15.94229        10.31589
     2015.68240        20.00075        10.65242
     2015.68514        13.91321        10.29648
     2015.68788        23.61168        10.41038
     2015.69062        19.03014        10.47639
     2015.69336        10.79660        11.13650
     2015.69609        17.59606        10.88540
     2015.69884        32.07953        11.37466
     2015.70157        33.77599        11.06920
     2015.70431        19.94545        10.87764
     2015.70705        29.25191        10.83104
     2015.70978        12.89338        11.22581
     2015.71252        14.11484        10.99283
     2015.71526        17.12730        10.78185
     2015.71800        30.01477        10.64595
     2015.72073        25.66623        10.48933
     2015.72347        19.04269        10.55664
     2015.72621        11.85615        10.91647
     2015.72895        15.95362        10.71714
     2015.73169        24.02108        10.87116
     2015.73442        18.40754        10.95012
     2015.73717        14.23401        10.30554
     2015.73990        21.53147        10.71196
     2015.74264        17.59393        10.54370
     2015.74538        29.41839        10.75856
     2015.74811        12.84585        11.12356
     2015.75085        22.95532        10.51781
     2015.75359        27.79878        10.75726
     2015.75633        26.33824        10.60971
     2015.75906        20.96270         9.80722
     2015.76180        18.45417         9.86417
     2015.76454        13.10863        10.27318
     2015.76728        22.17209        10.23694
     2015.77002        20.52756         9.87840
     2015.77275        25.93902        10.28871
     2015.77550        13.52748        10.84139
     2015.77823        11.88594        10.14374
     2015.78097        24.06541        10.03502
     2015.78371        16.34787         9.66354
     2015.78644        36.10633        10.49451
     2015.78918        20.51979         9.75156
     2015.79192        26.65526         9.83957
     2015.79466        15.04872        10.29518
     2015.79739        18.12818        10.20976
     2015.80013        24.81364        10.59159
     2015.80287        22.24711        10.24470
     2015.80561        14.42657        10.23435
     2015.80835        12.22003         9.97677
     2015.81108        14.35750        10.24729
     2015.81383        34.30696        10.79997
     2015.81656        21.71342        11.65036
     2015.81930        24.53688        10.48933
     2015.82203        18.87835        11.17663
     2015.82477         3.98181        11.20122
     2015.82751        23.45227        11.00707
     2015.83025        36.86673        11.52222
     2015.83299        26.23520        10.89834
     2015.83572        13.80966        10.97471
     2015.83846        10.38012        10.40779
     2015.84120        19.46359        10.25376
     2015.84394        13.41305        10.83751
     2015.84668        22.16651        10.47639
     2015.84941        23.10297        10.60712
     2015.85216        17.55344        10.90611
     2015.85489         9.79590        10.91776
     2015.85763        17.52536        10.93847
     2015.86036        17.90882        11.14686
     2015.86310        25.20529        11.02648
     2015.86584        23.73575        11.17145
     2015.86858        23.27921        10.58900
     2015.87132         7.40068        10.53722
     2015.87405         6.88514        10.92553
     2015.87679        11.03160        11.71766
     2015.87953        29.25906        11.25558
     2015.88227        11.11253        11.58823
     2015.88501        14.26699        11.02390
     2015.88774        20.28245        11.11191
     2015.89049        29.35192        10.70290
     2015.89322        24.63038        10.87634
     2015.89596        32.28284        10.60712
     2015.89869        22.16930        10.55664
     2015.90143        14.85976        10.47768
     2015.90417        17.51523        10.89834
     2015.90691        24.40269        10.53722
     2015.90965        20.92115        10.89705
     2015.91238        30.56261        10.88540
     2015.91512        19.29308        10.72749
     2015.91786         8.64254        11.83156
     2015.92060        28.56000        11.73967
     2015.92334        18.55847        11.41608
     2015.92607        21.42893        10.89058
     2015.92882        12.54639        10.84528
     2015.93155        26.44785        11.43032
     2015.93429        32.64532        11.59988
     2015.93702        35.91978        12.25740
     2015.93976        46.14224        12.82173
     2015.94250        29.50170        10.84010
     2015.94524        38.02917        10.96436
     2015.94798        37.64163        12.12020
     2015.95071        32.11109        11.42514
     2015.95345        28.14055        10.99671
     2015.95619        12.52002        10.85822
     2015.95893         2.80648        11.45750
     2015.96167        11.90994        11.49115
     2015.96440        12.23141        10.35731
     2015.96715        16.47887        10.86599
     2015.96988        20.07833        10.84916
     2015.97262        15.03979        10.82716
     2015.97535        14.39326        10.26282
     2015.97809        10.39672         9.68037
     2015.98083         1.44118        10.66148
     2015.98357        -0.64736        10.38320
     2015.98631         0.81811        10.41167
     2015.98904        -1.26843        10.48027
     2015.99178        11.07403        10.55146
     2015.99452        -9.74950        10.52299
     2016.00000         5.26142        10.27059
     2016.00273         2.80388        10.36766
     2016.00548        17.40135        10.34437
     2016.00821        22.58881        10.47380
     2016.01095        17.23227        10.26541
     2016.01368        11.84273        10.06220
     2016.01642         8.19320        10.43497
     2016.01916         6.43866        10.05055
     2016.02190         5.36212        10.47510
     2016.02464         2.33159        10.40391
     2016.02737         8.98205        10.18775
     2016.03011         7.80251        10.43885
     2016.03285         1.23897        10.69125
     2016.03559        -0.65156        10.31719
     2016.03833        -0.71410        10.34696
     2016.04106         0.07736        11.57140
     2016.04381         3.07783        11.12485
     2016.04654         1.22229        11.59858
     2016.04928         1.61975        10.53334
     2016.05201         3.07321        11.05367
     2016.05475         1.78667        10.92941
     2016.05749         3.91814        11.02390
     2016.06023         4.88960        10.98248
     2016.06297        -9.99694        10.93588
     2016.06570         0.88752        11.12874
     2016.06844        -8.72801        10.56182
     2016.07392        -3.14809        10.71455
     2016.07666        10.80938        11.88722
     2016.07939        26.16484        10.99283
     2016.08214        14.57530        10.79868
     2016.08487         5.68676        10.71843
     2016.08761       -14.10177        10.36119
     2016.09034       -16.69331        10.25117
     2016.09308        -6.05585        11.42644
     2016.09582        -6.39439        11.78238
     2016.10403        -7.16700        11.26723
     2016.10677       -10.79954        10.79868
     2016.10951        -7.74207        11.10026
     2016.11225         2.23539        11.11709
     2016.11498        -1.32515        10.80903
     2016.11772       -17.76868        10.51263
     2016.12047       -13.44022        11.38890
     2016.12320       -16.59276        11.58823
     2016.12594        -9.98130        10.33142
     2016.12867         1.43417        10.90611
     2016.13141         7.40063        10.02725
     2016.13415         0.08609        10.79868
     2016.13689        -0.65345         9.82663
     2016.13963         1.71902         9.94959
     2016.14236       -11.31052        10.20070
     2016.14510        -3.40306        10.62783
     2016.14784       -10.45459        10.07903
     2016.15058        -5.22613        11.10285
     2016.15331         7.96533        10.98248
     2016.15605         2.11979        11.45491
     2016.15880         5.57426        11.25558
     2016.16153         1.13072        11.08991
     2016.16427         0.12518        10.92294
     2016.16700         1.93864        11.07955
     2016.16974        -2.81489        11.34748
     2016.17248         8.92457        11.61800
     2016.17522        -1.68797        11.66589
     2016.17796        -0.54850        10.82974
     2016.18069        -1.72604        11.25299
     2016.18343         5.21442        11.51833
     2016.18617         8.40988        11.01484
     2016.18891         1.71935        11.25170
     2016.19164         8.46481        10.91776
     2016.19438         5.65427        10.22270
     2016.19713        11.34274        10.66925
     2016.19986         6.85420        11.14039
     2016.20260       -18.16634        10.46603
     2016.20533       -10.85388        11.92087
     2016.20807         4.09758        11.39667
     2016.21081        -5.95395        11.38113
     2016.21355         6.67251        11.25170
     2016.21629         0.22497        10.85563
     2016.21902         1.44443        10.35860
     2016.22176        -3.37110        10.68866
     2016.22450        -6.19164        10.04667
     2016.22724        -3.13318        10.94494
     2016.22997        -6.54471        10.52299
     2016.23271       -14.31225        10.19293
     2016.23546        -4.11479        10.70419
     2016.23819        -2.24433         9.98842
     2016.24366         1.95160        10.67183
     2016.24640         5.92006        10.16704
     2016.24914        -2.60548        11.19345
     2016.25188        -2.08701         9.79298
     2016.25462         6.59945        10.90482
     2016.25735         0.60991        10.52687
     2016.26009        -5.41163        10.29518
     2016.26283       -10.59516        11.25688
     2016.26557         3.03330        10.73914
     2016.26830       -11.12524        10.56570
     2016.27104         6.44123        10.50228
     2016.27379        11.98269        10.64595
     2016.27652       -11.29285        10.07644
     2016.27926         1.31761        11.29312
     2016.28199        -9.57292        10.28612
     2016.28473         4.92254        10.30942
     2016.28747        -5.09200        10.70678
     2016.29021        -4.24754        10.62912
     2016.29295        -1.41707         9.71661
     2016.29568         6.95639         9.87193
     2016.29842         8.15685        11.38631
     2016.30116        11.04432        11.18180
     2016.30390        -1.40422        10.31201
     2016.30663        -3.54676        10.48286
     2016.30937        -9.52730        10.58900
     2016.31211        -0.10883        11.04719
     2016.31485         1.48563        10.86469
     2016.31759         7.63509         9.77874
     2016.32032        -0.60345        10.16316
     2016.32306         2.81402        11.02778
     2016.32580       -12.67152        10.85045
     2016.34770        14.39318        11.17404
     2016.35044        -3.82135        12.28976
     2016.35318        -4.30489        11.20381
     2016.35592       -10.84443        10.52428
     2016.36139        -0.80251        11.04849
     2016.36413         6.39996        10.69254
     2016.36687        -5.55458        11.25429
     2016.36961        -6.06612        10.63948
     2016.37234        12.93334        11.70601
     2016.37508        -1.58319        10.56829
     2016.37782        -6.18173        10.70031
     2016.38056        -4.93827        10.44533
     2016.38329         6.70820        10.38967
     2016.38603         3.72166        10.51910
     2016.38877         1.14112        11.25558
     2016.39151         3.49058        11.25947
     2016.39425       -12.43195        10.03114
     2016.39698        -6.75049        10.25117
     2016.39972         9.86097        10.94753
     2016.40246         1.44243        10.70678
     2016.40520         3.46890        10.77020
     2016.40794       -15.60764        10.63948
     2016.41067        -6.65918        11.03296
     2016.41341        -2.91472        10.87246
     2016.41615        -9.16025        10.99413
     2016.41889         4.39521        10.84787
     2016.42162        -1.62133        11.04202
     2016.42436        -3.74486        10.80903
     2016.42710         1.70760        10.68737
     2016.42984        -6.69794        11.22322
     2016.43258         0.20652        10.81421
     2016.43531        17.30199        11.09379
     2016.43805         2.64145        11.04590
     2016.44079        -0.88809        11.02519
     2016.44353       -10.20963        10.81810
     2016.44627        -1.45016        10.72749
     2016.44900         1.05230        11.07049
     2016.45174         5.06176        11.08085
     2016.45448         1.48623        10.79739
     2016.45722         1.04669        11.02260
     2016.45995       -14.98085        11.01225
     2016.46269       -10.22539        11.11450
     2016.46543       -10.04592        10.35731
     2016.46817        -3.62246        10.60841
     2016.47091         5.52100        10.27965
     2016.47364        -9.79954        10.66795
     2016.47638         5.59793        11.00060
     2016.47912         4.14839        10.98636
     2016.48186         1.82085        10.87375
     2016.48460         0.82532        10.06997
     2016.48733        -5.45022        10.58382
     2016.49007         1.92624        10.87246
     2016.49281         8.10770         9.97030
     2016.49555         8.36617        10.49063
     2016.49828        -5.10737        10.62265
     2016.50102       -11.70091        10.73396
     2016.50376         1.04956        10.79350
     2016.50650         4.64402        11.05884
     2016.50924         7.94848        10.06738
     2016.51197         7.04794        10.85304
     2016.51471        -9.16260        10.30036
     2016.51745         1.55787        11.61153
     2016.52019        -0.99167        11.72802
     2016.52293         5.91179        10.64854
     2016.52566         6.85825        10.80515
     2016.52840       -15.55328        10.42850
     2016.53114        -6.11582        10.50487
     2016.53388        17.77764        11.10544
     2016.53661         6.62711        10.99801
     2016.53935         2.47157        10.84916
     2016.54209        -1.48097        10.77538
     2016.54483        -1.38251        10.97989
     2016.54757        -3.99004        11.04460
     2016.55030         8.13542        11.19345
     2016.55304         7.83388        10.97212
     2016.55578        21.01134        11.22452
     2016.55852        -5.65819        11.07308
     2016.56126        -3.41273        10.48933
     2016.56399        -1.79327        10.24729
     2016.56673         5.07019        11.43032
     2016.56947        -1.85234        10.71067
     2016.57221         3.91212        11.04849
     2016.57494        -3.55542        11.73449
     2016.57768        -0.30995        11.15851
     2016.58042         1.97551        11.11709
     2016.58316         0.03597        10.99024
     2016.58590         0.40643        11.30218
     2016.58863        -4.85610        11.10285
     2016.59137         4.45736        10.73137
     2016.59411         1.18782        10.80645
     2016.59685         0.52428        11.46138
     2016.59959         1.91175        11.01742
     2016.60232         3.29721        11.06143
     2016.60506         1.71367        11.19604
     2016.60780        11.05414        11.11968
     2016.61054        -2.13340        10.93070
     2016.61327         1.90606        11.24005
     2016.61601       -10.32648        10.68996
     2016.61875        -0.22501        10.56311
     2016.62149         4.95845        10.91647
     2016.62423         5.91091        11.31124
     2016.62696         2.94537        11.39925
     2016.62970         7.90984        10.82974
     2016.63244        12.17830        11.39278
     2016.63518         9.50076        11.21805
     2016.63792         0.66223        10.70031
     2016.64065         3.21969        11.12485
     2016.64339         9.30615        11.12356
     2016.64613         4.79061        11.10285
     2016.64887        12.93108        10.82327
     2016.65160        14.90554        10.76373
     2016.65434         3.87600        11.16498
     2016.65708        -7.26353        10.65113
     2016.65982        17.75293        10.75597
     2016.66256        -2.42761        10.95788
     2016.66529        13.33985        11.86263
     2016.66803         0.98331        11.27370
     2016.67077         4.43178        11.97135
     2016.67351        11.89524        11.24393
     2016.67625         9.37470        10.51910
     2016.69267        14.73448        11.40314
     2016.69541         7.47594        11.62706
     2016.69815        19.01140        11.18957
     2016.70089        10.08387        11.20510
     2016.70362        12.19133        11.80438
     2016.70636        15.52979        12.11891
     2016.70910        15.78825        11.76555
     2016.71184         6.15372        10.92682
     2016.71458         4.95318        10.77279
     2016.71731         1.00464        11.02260
     2016.72005        12.04210        10.69384
     2016.72279         8.26957        11.22840
     2016.72553        12.55803        11.38243
     2016.72826         2.60649        11.42255
     2016.73100         3.55196        11.61153
     2016.73374        11.67442        11.09250
     2016.73648        23.98288        11.02390
     2016.73921        11.01734        10.85693
     2016.74195        10.12281        10.37414
     2016.74469        -3.86773        10.13339
     2016.74743         9.26973        10.58770
     2016.75017        28.60819        10.96565
     2016.75291         8.03266        10.17869
     2016.75564        10.21012        10.99413
     2016.75838        14.99858        10.85045
     2016.76112         4.23605        10.94235
     2016.76386         0.37651        11.13391
     2016.76659         5.58297        10.51910
     2016.76933        10.91043        10.99542
     2016.77207        12.22790        11.21805
     2016.77481         8.99036        11.22711
     2016.77754         4.46882        10.99413
     2016.78028        12.51728        11.12874
     2016.78302        16.70275        11.09508
     2016.78576        18.20521        11.78756
     2016.78850        18.87467        11.61282
     2016.79124        -8.60486        11.66718
     2016.79397        12.06260        11.60635
     2016.79671         6.41706        11.64259
     2016.79945        11.44552        11.15851
     2016.80219         4.11099        10.79221
     2016.80492        14.99645        10.82198
     2016.80766         8.00291        10.92164
     2016.81040         1.05038        10.76632
     2016.81314         6.35384        10.22270
     2016.81587         5.55830        10.27447
     2016.81861         3.66176        10.46733
     2016.82135        13.64422        10.45827
     2016.82409        21.76769        10.87375
     2016.82683         0.04315        10.67442
     2016.82957         8.66861        11.10285
     2016.83230        10.36107        11.36431
     2016.83504         7.59354        10.93070
     2016.83778         6.61300        11.32289
     2016.84052         9.60046        10.35084
     2016.84325         9.57793        11.43161
     2016.84599         6.72039        10.33401
     2016.84873        15.66985        10.82327
     2016.85147         2.76231        10.94235
     2016.85420        21.11978        11.30347
     2016.85694         7.17124        10.53334
     2016.85968        11.34670        10.88281
     2016.86242        14.19516        10.80645
     2016.86516         9.16463        11.51445
     2016.86790         5.12709        10.57864
     2016.87063        16.87355        10.71843
     2016.87337         8.60101        11.38113
     2016.87611         3.00148        10.54499
     2016.87885         6.43394        10.85175
     2016.88158        10.25540        10.68090
     2016.88432         4.73387        11.34748
     2016.88706         7.80033        11.42126
     2016.88980         1.16179        11.14427
     2016.89253         5.91525        10.96953
     2016.89527         9.29472        10.82327
     2016.89801        12.63018        10.85822
     2016.90075         6.40064        11.08344
     2016.90349        16.25410        10.50228
     2016.90623         1.24757        10.33790
     2016.90896        15.09603        10.11786
     2016.91170        10.69049        10.32883
     2016.91444         1.72896        10.26153
     2017.58247       -10.58215        10.45827
     2017.58521        -4.73269        10.84398
     2017.58795        -1.48323        11.22581
     2017.59069       -12.22576        11.13521
     2017.59342       -11.20530        11.22711
     2017.59617         2.95716        11.06531
     2017.59890        -3.46538        10.95659
     2017.60164         5.93409        11.38243
     2017.60438        -0.29645        10.79480
     2017.60711        -1.14399        10.92164
     2017.60985       -12.95152        11.28924
     2017.61259        -6.25406        10.79091
     2017.61533        -3.17060        10.74432
     2017.61807         5.44186        11.16498
     2017.62080         3.44233        10.74691
     2017.62354        -1.00921        10.81680
     2017.62628         6.56025        11.42514
     2017.62902        -4.39629        11.16886
     2017.63175        -2.71482        11.51833
     2017.63450         5.64364        10.91258
     2017.63723         2.87910        10.85563
     2017.63997       -10.94144        11.33324
     2017.64271         1.71303        11.38372
     2017.64544        -2.18751        10.92682
     2017.64818         8.75995        11.43550
     2017.65092        14.03642        11.03296
     2017.65366         1.21288        11.29182
     2017.65639         4.78034        11.07308
     2017.65913         8.51680        10.30554
     2017.66187        -7.17473        10.37025
     2017.66461        -0.80627        11.13909
     2017.66735        -2.17581        10.75079
     2017.67008        -5.17935        10.65242
     2017.67283         9.09812        10.77538
     2017.67556        13.00558        10.93588
     2017.67830        12.17004        10.72490
     2017.68104         0.88250        10.82327
     2017.68377         3.33197        11.42126
     2017.68651        15.94943        11.18698
     2017.68925         9.26989        10.46474
     2017.69199        15.57436        11.26205
     2017.69472        11.88282        10.87505
     2017.69746         3.68428        10.68478
     2017.70020        15.64874        10.95400
     2017.70294         8.81921        11.14168
     2017.70568        12.77367        10.78962
     2017.70841        12.24713        10.67701
     2017.71116       -12.91140        11.03684
     2017.71389        10.32606        10.58900
     2017.71663       -14.73648        12.02571
     2017.71937        28.48598        11.67107
     2017.72210        15.12245        10.98636
     2017.72484         0.63291        10.92035
     2017.72758         1.29037        10.89446
     2017.73032         3.17184        10.81162
     2017.73305        14.22430        10.48286
     2017.73579         5.63076        10.56052
     2017.73853        11.92722        10.80774
     2017.74127         7.39268        10.38967
     2017.74401         5.72615        10.95918
     2017.74674         6.06361        10.46086
     2017.74949       -16.49193        10.88799
     2017.75222         8.75953        11.23876
     2017.75496        12.81200        10.88540
     2017.75770        13.54946        11.05367
     2017.76043         3.99292        11.04978
     2017.76317        24.17539        11.12615
     2017.76591         4.91485        10.56829
     2017.76865         6.91831        11.01354
     2017.77138        12.92177        11.14815
     2017.77412         3.68424        11.03166
     2017.77686        -5.44030        10.98248
     2017.77960        -0.02684        10.68737
     2017.78234         6.79562        11.60505
     2017.78507         7.22309        11.04072
     2017.78782        -0.28245        10.89058
     2017.79055         4.31801        11.36172
     2017.79329         2.27247        11.58434
     2017.79603        15.82194        11.02260
     2017.79876        16.99040        11.26594
     2017.80150         5.16586        11.65683
     2017.80424         4.54433        11.63871
     2017.80698        19.09279        11.75649
     2017.80971        14.89825        11.58305
     2017.81245         7.90471        11.07049
     2017.81519         3.11418        10.91905
     2017.81793         6.64764        11.05755
     2017.82067         3.98310        11.28924
     2017.82340         5.18456        10.95012
     2017.82615         6.56503        10.38061
     2017.82888         7.85749        10.49451
     2017.83162        11.17395        10.94624
     2017.83436        -4.97259        11.08085
     2017.83709        11.07488        11.42902
     2017.83983         0.86134        10.61488
     2017.84257       -15.92620        10.94753
     2017.84531        -2.92073        10.34566
     2017.84804        -6.44927         9.77745
     2017.85078        -1.66081        10.70549
     2017.85352         7.03565        10.44533
     2017.85626        -7.28288        11.24264
     2018.52429       -11.21599        10.67701
     2018.52977       -13.12406        10.66148
     2018.53251         4.32540        10.59159
     2018.53525         1.04686        10.84657
     2018.53798         3.14532        10.71325
     2018.54072         4.44279        10.91905
     2018.54620        -0.25429        10.70678
     2018.54893        -2.81483        10.84528
     2018.55167        -0.11536        10.88411
     2018.55441        -1.93590        10.83880
     2018.55715       -17.99344        11.54293
     2018.55989       -11.42198        11.05237
     2018.56262        -3.20151        10.73137
     2018.56536       -10.28705        10.97342
     2018.56810        -1.04859        10.73526
     2018.57357        -8.17866        10.83751
     2018.57631         0.55080        11.75908
     2018.57905       -10.20074        11.88593
     2018.58179         5.81873        11.39278
     2018.58453       -10.92981        11.73967
     2018.58726         6.98465        10.94753
     2018.59000         5.96911        10.81810
     2018.59274         4.43458        11.14039
     2018.59548         6.94604        11.37854
     2018.59822         3.86950        11.33195
     2018.60095         0.06196        11.39537
     2018.60369         7.15243        11.37854
     2018.60643         3.92289        11.39149
     2018.60917        -2.24565        11.52739
     2018.61190         1.41082        10.84528
     2018.61464        20.01328        11.29830
     2018.61738        11.50274        11.00836
     2018.62012         3.11620        11.11838
     2018.62286        10.14567        11.50668
     2018.62559         3.60613        11.52610
     2018.62833         3.63759        11.14297
     2018.63655        14.65398        11.18569
     2018.64476         7.31837        11.41737
     2018.64750        10.58183        10.99283
     2018.69404        -0.08630        12.73372
     2018.70225         9.82208        11.50410
     2018.70499         8.79655        11.17663
     2018.70773         5.64701        11.00060
     2018.71047         0.57647        10.88670
     2018.71321         6.76793        10.99542
     2018.71868        -4.82014        10.94365
     2018.72142         2.09632        11.07179
     2018.72689         9.73825        10.86081
     2018.72963        14.63771        10.91129
     2018.73237         7.42917        11.30218
     2018.73511        -1.27636        10.92941
     2018.73785         7.51910        10.92811
     2018.74058         8.31956        11.05496
     2018.74332         9.62302        10.96047
     2018.74880         2.43895        10.94882
     2018.79260         4.80735        10.90093
     2018.79534         3.37481        10.95788
     2018.79808         1.38628        10.67183
     2018.80082        12.31574        10.63171
     2018.80355        12.31020        11.06143
     2018.80629         6.93267        10.91647
     2018.80903        10.43513        10.92423
     2018.81177         8.81159        11.18569
     2018.81451        16.05505        10.87116
     2018.81724         7.35552        11.23358
     2018.81998        16.81898        11.24911
     2018.82272         8.83944        12.02054
     2018.82546         0.22790        10.94753
     2018.82820         8.95837        11.45879
     2018.83367         7.97829        10.75208
     2018.83641         9.94876        10.27965
     2018.84188         1.85968        10.67831
     2018.84462        -4.04486        11.02260
     2018.84736         0.43861        10.81680
     2018.85010         8.54407        10.68866
     2018.85284        -0.11247        10.70160
     2018.85557        -3.98301        10.94106
     2018.85831        -5.46054        10.30165
     2018.86379         3.32738        11.04202
     2018.86653         9.21384        10.67442
     2018.86926        -3.03269        10.43626
     2018.87200        -7.14223        10.49451
     2018.87474         2.68523        10.79997
     2018.87748        11.63070        11.06531
     2018.88021        -0.13284        10.53981
     2018.88295         7.54562        11.38631
     2018.88569         4.57508        11.20769
     2018.88843         4.76055        11.03684
     2018.89390        -5.31353        11.60894
     2018.89664         0.50093        11.52869
     2018.89938         5.23540        10.70160
     2018.90212         5.57386        10.90093
     2018.90485        12.86432        10.92811
     2018.90759         6.70578        10.93847
     2018.91033         1.53325        10.52040
     2018.91307        -2.79929        10.61877
     2018.91581         8.14817        10.70808
     2018.91854         6.40164        10.36378
     2018.92128        11.97010        10.73914
     2018.92402         4.31856        10.73396
     2018.92676         6.50602        10.68866
     2018.92950         8.74949        10.71714
     2018.93223         4.56495        11.11968
     2018.93497         1.42841        11.11320
     2018.93771        20.59887        10.97600
     2018.94045         0.14134        10.94106
     2018.94318         9.60180        10.92164
     2018.94592         4.38626        11.40961
     2018.94866        -0.16228        11.17922
     2018.95140         7.65019        11.55328
     2018.95414        15.69065        10.77020
     2018.95687         9.53311        11.05108
     2018.95961        -7.23342        11.15333
     2018.96235         5.45104        12.05031
     2018.96509        -0.00550        10.91647
     2018.97056         0.64943        11.17274
     2018.97330        -1.36811        10.44533
     2018.97604        -8.27465        11.18439
     2018.97878        -8.54019        11.59988
     2018.98151       -19.43172        11.76167
     2018.98425         6.20574        12.03219
     2018.98699        -6.57180        11.21546
     2018.98973        -2.82933        10.81292
     2018.99247       -10.19287        11.23358
     2018.99520         3.84459        11.79403
     2019.00068       -13.38648        10.65760
     2019.00342        -5.66602        11.41608
     2019.00616        -0.60056        11.30606
     2019.00889         0.77190        11.00319
     2019.01163        -2.88263        11.49633
     2019.01437         4.05783        10.90093
     2019.01711        10.20529        10.47898
     2019.01984        -8.18125        11.10803
     2019.02532         0.44268        11.25170
     2019.02806        -2.65686        11.01484
     2019.03080         3.11761        10.97083
     2019.03353        -2.10193        10.82327
     2019.03627       -12.34147        11.25040
     2019.03901         4.54999        11.18439
     2019.04175         4.08046        10.88022
     2019.04449        -1.45108        11.14297
     2019.04722        -3.75362        11.36042
     2019.04996        -0.89316        11.69177
     2019.05270        -5.64969        12.20175
     2019.05544        -4.98323        11.45750
     2019.05817        -4.78577        11.55328
     2019.06091         8.03469        11.79144
     2019.06639        -2.21438        11.20899
     2019.06913         2.87908        11.71637
     2019.07186        -3.06845        11.35136
     2019.07460        -6.86999        11.00319
     2019.07734         4.00347        11.03684
     2019.08008         3.50693        11.38243
     2019.08282        -4.78360        11.88593
     2019.08555         4.25686        11.35525
     2019.08829       -10.30168        11.80179
     2019.09103         7.43478        11.19863
     2019.09377         1.53725        10.57864
     2019.09650         1.25171        10.18646
     2019.09924        -5.15683        10.14374
     2019.10198        -4.41137        10.08032
     2019.10472        -5.98490        10.47380
     2019.10746       -12.01544        10.18387
     2019.11019        -7.33298         9.95348
     2019.11293        -0.01251        10.37284
     2019.11567         4.96195        11.19345
     2019.11841         8.77141        10.52428
     2019.12115        -2.89013        11.48339
     2019.12388         4.06034        10.78962
     2019.12662         5.17880        10.51393
     2019.12936       -11.85274        10.63948
     2019.13210        -9.50628        10.39226
     2019.13483       -11.39381        10.66407
     2019.13757         3.19265        10.34437
     2019.14031        -2.11189        10.03761
     2019.14305        -0.01742        10.37673
     2019.14579        -5.71496        10.75467
     2019.14852       -14.70850        10.92423
     2019.15126         2.74996        10.82457
     2019.15400        -5.91257        10.20717
     2019.15674        -4.14611        10.86340
     2019.15948        -1.05865        10.37543
     2019.16221       -16.06119        10.77797
     2019.16495        -7.55872        10.48286
     2019.16769        -8.10826        10.62265
     2019.17043        -6.98680        10.44921
     2019.17316        -3.59334        10.54240
     2019.17590         1.22913        11.49245
     2019.18138       -18.79295        11.03425
     2019.18412       -19.27148        10.84269
     2019.18685       -12.61102        10.84657
     2019.19780        -9.72717        10.73008
     2019.20054       -11.49671        11.17404
     2019.20328       -14.14225        10.75856
     2019.20602        -9.56978        10.63042
     2019.20876         2.01268        11.09379
     2019.21149       -12.81686        11.13133
     2019.22245         1.89599        10.71455
     2019.22518       -14.54754        10.85822
     2019.22792        -2.72608        11.29053
     2019.23613         1.86531        10.86987
     2019.23887       -16.01623        10.97989
     2019.24161       -20.58677        11.63612
     2019.24435        -8.73331        11.35007
     2019.25256        -5.25792        11.35007
     2019.27725        -8.37773        11.89240
     2019.27994        -4.98129        10.11268
     2019.28268        -7.24283        11.13650
     2019.28542        -1.49937        10.18775
     2019.28815       -18.17090        10.32366
     2019.29089        -0.01744        10.87634
     2019.29363        -7.08898        10.26282
     2019.29637        -6.29951        10.69254
     2019.30184        -6.40559        10.02078
     2019.30458       -18.76913        11.17016
     2019.30732       -16.32866        11.23617
     2019.31006        -4.12620        10.62912
     2019.31553        -2.23028        10.82068
     2019.31827        -2.82581        11.23358
     2019.32101        -3.57335        10.63300
     2019.32375       -11.92489        11.21287
     2019.32648        -8.58343        11.17404
     2019.32922        -8.97296        10.75467
     2019.33196       -11.23850        11.59858
     2019.33470        -4.56504        11.18828
     2019.33744       -13.47057        10.38837
     2019.34017       -19.11711        10.84269
     2019.34291        -5.76165        10.96047
     2019.34565        -8.62419        11.01484
     2019.34839       -15.81272        10.89317
     2019.35112        -1.21326        10.77150
     2019.35386        -6.27280        10.50228
     2019.35660       -11.68334        10.54499
     2019.35934       -12.46687        11.01613
     2019.36208         4.56359        11.06014
     2019.36481         4.16305        11.23099
     2019.36755        -5.89849        10.45050
     2019.37029         0.29598        11.24393
     2019.37303        -4.87056        10.46992
     2019.37577        -0.47910        10.35343
     2019.37850        -1.53463        10.80903
     2019.38398         7.72929        11.04460
     2019.38672       -10.92225        11.29830
     2019.38945       -12.39778        10.48157
     2019.39493        -3.07486        10.05443
     2019.39767       -11.21140        10.98377
     2019.40041         6.05607        11.08473
     2019.40314         1.43453        10.92423
     2019.40588         3.24199        10.49192
     2019.40862        -9.67855        11.06273
     2019.41136       -12.05508        10.76503
     2019.41410         3.38638        10.90740
     2019.41683        -8.82016        11.12744
     2019.41957        -7.95469        10.97471
     2019.42231       -14.09823        10.99283
     2019.42505        -8.19577        10.91388
     2019.42778         1.08269        11.18051
     2019.43052        -5.38684         9.77745
     2019.43326        -5.85438        10.89964
     2019.43600        -2.38392        10.26282
     2019.43874       -13.86746        10.95788
     2019.44147        -9.40399        11.21675
     2019.44421        -6.36953        11.01872
     2019.44695        -0.91207        10.96694
     2019.44969        -7.64860        11.01354
     2019.45790        -4.44222        10.90352
     2019.46338        -2.55429        11.23228
     2019.46885        -8.08337        10.96306
     2019.47159        -8.22090        11.47044
     2019.47980         3.51248        11.12615
     2019.48254        -1.01405        11.23617
     2019.48528         0.73641        10.70031
     2019.49349         0.06580        11.06014
     2019.49623         1.50626        11.01872
     2019.50444        -2.13335        10.53463
     2019.50992         4.82557        10.74691
     2019.51266        -7.14196        10.81033
     2019.51540        -4.34550        10.64207
     2019.51813        -6.30104        10.72231
     2019.52087         1.18042        10.91905
     2019.52361        -5.70311        10.54370
     2019.52635         0.84935        11.21416
     2019.52908        -5.17719        11.21157
     2019.53182       -18.50172        11.07567
     2019.53730         9.69420        11.29830
     2019.54004         0.62066        11.21287
     2019.54277         3.70613        11.64647
     2019.54551         5.22959        11.77332
     2019.55099        -5.25549        11.31253
     2019.55373        -5.23402        11.25040
     2019.55646         4.91744        11.72931
     2019.55920        -6.56310        11.70342
     2019.56194         3.77936        10.97212
     2019.56468         2.52683        11.55587
     2019.56741        -0.40271        11.15462
     2019.57289         0.55722        11.07567
     2019.57563         3.48068        11.00448
     2019.57837        -1.32586        11.00707
     2019.58110        10.32860        10.99671
     2019.58384        -6.16593        11.66977
     2019.58658         4.30253        11.16757
     2019.58932         1.35699        11.00060
     2019.59206         3.64545        11.40573
     2019.59479        -2.00008        11.23228
     2019.59753        -4.31862        11.65553
     2019.60027        -0.56016        11.66459
     2019.60301        -0.42269        11.02001
     2019.60574         4.99877        11.74225
     2019.60848        -0.07677        12.17845
     2019.61122        -2.43631        11.01484
     2019.61670        12.36862        10.77020
     2019.61943        -2.28292        11.54163
     2019.62217        -3.40746        11.37854
     2019.62491        -0.36099        11.35654
     2019.62765        -3.16653        11.33713
     2019.63039         0.34193        11.57917
     2019.63312         0.35839        11.07696
     2019.63586        -5.09714        11.87039
     2019.63860        12.94032        11.45750
     2019.64134        -0.01922        11.66718
     2019.64681         2.39171        11.62835
     2019.64955        -6.14283        11.82898
     2019.65229        -4.83737        11.79273
     2019.65503        -9.64290        12.21598
     2019.65776       -11.11644        12.04513
     2019.66050       -16.30398        12.19139
     2019.66598        -9.14905        11.83674
     2019.66872       -10.99359        11.69177
     2019.67145       -10.24213        11.66848
     2019.67419        -2.39067        11.50668
     2019.67693        -0.14920        12.67030
     2019.67967         0.92326        11.99077
     2019.68240        -1.67528        12.04384
     2019.68514       -10.15881        11.60894
     2019.68788        -5.71935        11.67883
     2019.69062        -1.97489        11.45362
     2019.69336         1.54857        10.73008
     2019.69563        -1.67921        13.60740
     2019.69883       -16.20150        10.55534
     2019.70157       -25.66404        10.37284
     2019.70431       -10.44158        10.40002
     2019.70705         1.24389        10.33272
     2019.70978        -0.21565        10.13210
     2019.71252        -0.25719        10.20717
     2019.71800        -9.06326        11.14556
     2019.72073       -11.89780        10.83104
     2019.72347       -15.94334        10.31589
     2019.72621       -17.13987        10.47898
     2019.72895       -13.02541        10.24988
     2019.73169        -2.03195        10.41426
     2019.73442        -8.86149        10.51910
     2019.73716        -8.54202        10.85563
     2019.73990       -26.62156        10.57735
     2019.74264       -15.26410        10.16316
     2019.74811        -2.65317        10.31719
     2019.75085        -1.65971        10.59676
     2019.75359        -8.28425        11.05237
     2019.75633        -1.23478        10.53852
     2019.75906        -6.31832        10.50616
     2019.76728        -4.03793        10.51651
     2019.77002       -16.12947        10.21234
     2019.77275         3.95599        10.41426
     2019.77549         0.92745        10.57605
     2019.77823        -0.70408        10.15280
     2019.78097        10.25738        10.43756
     2019.78371        -4.80216        10.16057
     2019.78644        -9.82170        10.53334
     2019.78918        -1.38623        10.47768
     2019.81108        -6.65653        10.43885
     2019.84120        -6.30344        10.61488
     2019.87679       -12.17443        10.28871
     2019.90143        -4.92126         9.73214
     2019.90417         3.62120         9.89394
     2019.90965        -0.09388         9.32443
     2019.91238        -2.39441         9.85899
     2019.91512         6.83405         9.99231
     2019.91786         5.19251        10.33531
     2019.92060         3.54698        10.34825
     2019.92607        -4.20010        10.42462
     2019.92881       -10.90864        10.38967
     2019.93155       -11.23017        10.63559
     2019.93429        -2.70871        10.45568
     2019.93702        -2.72225        10.35731
     2019.93976        -1.46579        10.30295
     2019.94250        -6.99632        10.62006
     2019.94524        -8.22386        10.86340
     2019.94798       -20.21340        10.73526
     2019.95071       -34.83593        11.46138
     2019.95345       -34.04947        10.73526
     2019.95619        -4.52101        10.19940
     2019.95893        -2.69455        10.27059
     2019.96167        -5.11408         9.90429
     2019.96440        -7.46562        10.25894
     2019.96714       -12.54116        10.84269
     2019.96988       -14.92370        10.30165
     2019.97262        -5.85223        10.16963
     2019.97535        -9.53777         9.82275
     2019.97809       -18.91731        10.09844
     2019.98083       -19.67485        10.11527
     2019.98357        -0.96338         9.75803
     2019.98904       -12.78146        10.32625
     2019.99452        -2.45753         9.91076
     2019.99726       -13.85607        10.31330
     2020.00000         0.66539        10.18257
     2020.00273         3.02386        10.42332
     2020.00547        -9.98068        10.49580
     2020.00821       -11.42922         9.91723
     2020.01095       -14.58176        10.22529
     2020.01368       -15.24229        10.06997
     2020.01642        -4.94483        10.23305
     2020.01916       -10.59037         9.94442
     2020.02190       -23.16491         9.97677
     2020.02464        -9.11844        10.21752
     2020.02737       -14.72598         9.82663
     2020.03011        -4.06752         9.66096
     2020.03285        -2.48405        10.30295
     2020.03559        11.04441         9.70367
     2020.03833        -0.85713         9.64025
     2020.04106         1.11533        10.35602
     2020.04380        -7.84920        10.15928
     2020.04654       -10.18074        10.36249
     2020.04928        -4.14128        10.05573
     2020.05201        -9.63782         9.96124
     2020.05475        -1.69235         9.86546
     2020.05749       -14.88689        10.09585
     2020.06023       -13.32143        10.15410
     2020.06297       -24.98797        10.17481
     2020.06570         1.88850        10.15928
     2020.06844        -1.74004         9.96124
     2020.07118        -8.32858         9.78651
     2020.07392        -6.42111         9.80592
     2020.07666       -12.61465         9.80592
     2020.07939       -17.96619         9.97160
     2020.08213        -9.68873         9.90688
     2020.08487       -14.49126         9.80463
     2020.08761       -25.48180        10.22140
     2020.09034       -23.81934         9.21959
     2020.09308        -4.43288         9.59494
     2020.09582        -8.77441        10.07256
     2020.09856        -5.49895        10.15022
     2020.10130       -27.81249         9.76709
     2020.10403       -19.25302         9.73991
     2020.10677       -15.14356         9.33478
     2020.10951       -13.52810         9.82663
     2020.11225        -8.77664         9.99878
     2020.11498       -13.54817         9.67131
     2020.11772       -11.26871         9.97677
     2020.12046       -13.80825         9.79427
     2020.12320       -20.75879         9.24677
     2020.12594        -5.84532         9.67390
     2020.12867       -10.52986         8.98531
     2020.13141        -4.68140         9.24029
     2020.13415       -11.21494         9.30889
     2020.13689       -13.81047         9.83569
     2020.13963        -6.80101         9.81498
     2020.14236       -11.28755         9.86028
     2020.14510         3.92692         9.59106
     2020.14784       -21.52062         9.48234
     2020.15058       -15.57116        10.25635
     2020.15331       -10.45670         9.76839
     2020.15605       -11.91723         9.87711
     2020.16974       -11.57792         9.74509
     2020.17248       -14.25846         9.55094
     2020.17522       -10.59700         9.56129
     2020.17796        -5.58453         9.98325
     2020.18069        -2.72907         9.46810
     2020.18343        -4.19661         9.39562
     2020.18617        -7.52914         9.71402
     2020.18891        -9.65968         9.54835
     2020.19164         1.29478        10.05832
     2020.19438        -3.43676        10.03114
     2020.19712         0.07771         9.92371
     2020.19986         0.40117         9.49010
     2020.20260       -19.24237         9.33996
     2020.20533       -15.35891         9.80333
     2020.20807         5.54556         9.95218
     2020.21081         0.76802         9.97419
     2020.21355         0.99348        10.96177
     2020.21629         1.94394        10.35602
     2020.21902        -3.56659        10.44144
     2020.22176       -17.39713        10.16575
     2020.22450       -13.75867         9.88099
     2020.22724       -14.72420         9.48234
     2020.22997        -6.96274         9.46680
     2020.23545       -10.43282         9.77486
     2020.23819        -9.29735         9.82404
     2020.24093       -12.65789        13.42878
     2020.24366        16.55357        13.96075
     2020.24640        21.83703        13.98535
     2020.24914       -13.76550        12.83209
     2020.25188         0.42496        13.64493
     2020.25462       -13.18758        13.29935
     2020.25735        -5.62611        12.97317
     2020.26009        -0.45165        13.73295
     2020.26283         0.15081        14.21186
     2020.26557        -0.01473        14.92115
     2020.26830        -9.03126        13.67470
     2020.27104       -10.07080        13.35889
     2020.27378        -2.27334        13.44949
     2020.27652       -19.54888        12.99000
     2020.27926         2.95459        14.16008
     2020.28199         8.55405        13.72259
     2020.28473       -15.61349        13.78084
     2020.28747       -32.10603        14.01382
     2020.29021       -18.60156        14.10701
     2020.29295        -3.08310        13.63070
     2020.29568        -4.23564        13.92063
     2020.29842        -1.63717        13.97499
     2020.30116       -12.66071        14.00476
     2020.30390       -22.07125        14.36329
     2020.30663         1.59621        14.24163
     2020.30937       -23.69932        14.05265
     2020.31211       -38.51986        14.14973
     2020.31485       -34.84340        13.50773
     2020.31759       -10.63094        14.19762
     2020.32032         2.81253        14.08113
     2020.32306        -3.62401        14.30764
     2020.32580        -8.81055        13.63458
     2020.32854       -21.33909        13.58410
     2020.33128       -12.21062        13.51162
     2020.33401        -8.25716        13.58669
     2020.33675         2.05130        14.20409
     2020.33949       -10.95123        12.88386
     2020.34223       -16.06977        14.06430
     2020.34496       -34.28831        14.15232
     2020.34770       -18.00585        13.96205
     2020.35044       -11.68838        14.36718
     2020.35318         1.69908        13.74330
     2020.35592        -8.99146        13.59704
     2020.35865       -21.74500        14.27787
     2020.36139        -5.73153        13.76919
     2020.36413        -6.52507        14.03194
     2020.36687       -15.26961        14.37494
     2020.36961       -14.30415        14.57427
     2020.37234       -26.33568        13.86238
     2020.37508       -13.68322        10.14245
     2020.37782       -20.41676        10.14763
     2020.38056       -21.85529         9.63636
     2020.38329       -12.52683         9.61695
     2020.38603       -19.43937         9.52246
     2020.38877       -17.39091         9.78909
     2020.39151       -18.63144         9.41115
     2020.39425       -19.09798         9.63248
     2020.39698       -18.94152         9.80851
     2020.39972       -16.99006         9.66096
     2020.40246        -9.49059         9.59106
     2020.40520       -14.03813        10.04020
     2020.41067       -13.00620         9.67260
     2020.41341        -3.82474        10.32754
     2020.41889       -23.78382         9.63895
     2020.42436        -6.98189        10.23435
     2020.42984       -13.42997         9.64931
     2020.43258       -23.98650         9.90170
     2020.43531       -21.61504         9.78909
     2020.43805       -14.99158         9.71402
     2020.44079       -15.02312         9.77486
     2020.44353         1.82835        10.19163
     2020.44626       -16.26819        10.22658
     2020.44900       -10.74673        10.02078
     2020.45174       -13.97526        10.03243
     2020.45448       -13.75380         9.96642
     2020.45722        -5.36134        10.08809
     2020.45995       -10.18088         9.74120
     2020.46269       -10.75241         9.81757
     2020.46543       -13.91895         9.83181
     2020.46817       -16.26249        10.16186
     2020.47091        -2.08203        10.20717
     2020.47364        -7.90556         9.83310
     2020.47638        -4.10210        10.23953
     2020.47912        -9.66364         9.98325
     2020.48733       -13.23525        10.29259
     2020.49007       -22.38079        10.19811
     2020.49281        -4.68332        10.20328
     2020.49555        -9.12486        10.07773
     2020.49828        -6.42640         9.97677
     2020.50102        -3.36894        10.15669
     2020.50376        -7.23747        10.02596
     2020.50924       -21.50555         9.59624
     2020.51197       -13.29809         9.97936
     2020.51745         0.44284        10.11139
     2020.52019        -5.23470         9.88488
     2020.52292        -0.17324         9.65707
     2020.52566        -7.58877         9.61954
     2020.53388        -4.03338         9.75544
     2020.59137        -7.99967        10.33660
     2020.59411        11.83979        10.49710
     2020.59685       -15.51074        10.80127
     2020.59958       -13.60428        10.53205
     2020.60232        -0.30982        10.32754
     2020.60506        -7.44235        10.27318
     2020.60780         2.60511        10.17740
     2020.61054         9.00157        10.42073
     2020.61327         5.52103        10.76114
     2020.61601         0.71150        10.40520
     2020.61875       -12.32304        10.40391
     2020.62149        -4.14858        10.20587
     2020.62423        -6.28712        10.23564
     2020.62696         5.66935        10.44662
     2020.62970        -4.37619        10.27059
     2020.63244         7.25427        10.13339
     2020.63518        -5.27627        10.36508
     2020.63791        -7.12780        10.49969
     2020.64065         2.91066        10.79997
     2020.64339        -4.74788        10.81033
     2020.64613         4.37359        10.43497
     2020.64887        -4.88895        10.31460
     2020.65160        -4.48449        10.39743
     2020.65434         1.66997        10.44144
     2020.65708         0.68444        10.16963
     2020.65982         6.71790        10.16963
     2020.66256         3.04636        10.20458
     2020.66529         0.63482        10.22399
     2020.66803        -5.12771        10.15798
     2020.67077         0.35875        10.22788
     2020.67351         3.66721        10.46215
     2020.67624        -4.81533        10.20070
     2020.67898         2.22314        10.43109
     2020.68172        -0.78740        10.17999
     2020.68446       -16.29994        10.25506
     2020.68993         4.97999        10.20328
     2020.69267         0.10445        10.48286
     2020.69541         5.14791        10.77538
     2020.69815        -5.29562        10.46345
     2020.70089         0.41584        10.25376
     2020.70362         1.01930        10.25117
     2020.70636        -9.62224        11.00966
     2020.70910         3.69523        10.84528
     2020.71184         3.25169        10.22658
     2020.71457       -13.74385        10.60582
     2020.71731         4.71262        10.40391
     2020.72005        -2.79792        10.60841
     2020.72279        -0.11846        10.60712
     2020.72553         5.24000        11.01872
     2020.72826        -3.57953        10.51393
     2020.73100         4.85893        10.71325
     2020.73374        -3.42661        10.53205
     2020.73648         8.14185        10.84528
     2020.73921        10.52932        10.70419
     2020.74195        15.73978        10.39485
     2020.74469         8.92224        10.28353
     2020.74743         8.74170        10.23046
     2020.75017        12.78517        10.38061
     2020.75290         2.04763        10.12174
     2020.75564        -5.35891        10.15539
     2020.75838         3.19256        10.88022
     2020.76112        11.81602        10.50357
     2020.76386        13.20748        10.51263
     2020.76659        18.08594        11.63094
     2020.76933        13.22841        10.37414
     2020.77207        13.52387        10.71843
     2020.77481        28.93033        10.99671
     2020.77754        14.24179        10.87893
     2020.78028        16.15926        11.15980
     2020.78302         8.56672        10.64724
     2020.78576         6.85018        10.61359
     2020.78850        12.17564        10.37673
     2020.79123         8.82911        10.19422
     2020.79397         9.55257        10.18387
     2020.79671       -17.60397        10.89317
     2020.79945        -2.81450        10.69902
     2020.80219        10.97796        10.74691
     2020.80492         2.70042        10.46215
     2020.80766        12.75288        10.38320
     2020.81040        14.03935        10.23823
     2020.81314         6.59181        11.31771
     2020.81587         8.48427        10.14892
     2020.81861        11.09173        10.53463
     2020.82135        18.94820        10.39743
     2020.82409        17.82866         9.89264
     2020.82683         3.68512        10.09974
     2020.82956         7.65858        11.12356
     2020.83230        17.18505        10.27188
     2020.83504         9.68751        10.64207
     2020.83778        15.37497        10.09197
     2020.84052        20.25244        10.49322
     2020.84325         3.59590        10.57994
     2020.84599         8.09936        10.94106
     2020.84873        29.11282        10.64595
     2020.85147         4.35729        10.44533
     2020.85420         9.82475         9.46033
     2020.85694        11.99921         9.99619
     2020.85968        26.02267        10.28871
     2020.86242        15.22614        10.25765
     2020.86516        10.52060        10.75467
     2020.86789        17.55506        10.38061
     2020.87063        27.83553        10.27188
     2020.87337        18.73499        10.52687
     2020.87611        27.81845        11.41867
     2020.87885        18.10091        11.47562
     2020.88158        15.92138        11.91311
     2020.88432         3.50384        10.85175
     2020.88706        21.29930        10.19422
     2020.88980         9.03976        10.42332
     2020.89253         3.10223        10.37931
     2020.89527         2.71869        10.38320
     2020.89801         3.26815        10.43368
     2020.90075        15.00861        10.10750
     2020.90349        -3.20692        10.07773
     2020.90622        11.05754        10.23176
     2020.90896        22.29400        10.53463
     2020.91170         9.05847        10.00266
     2020.91444         9.77093        10.20587
     2020.91718        11.03339        10.37931
     2020.91991         6.79585        11.03943
     2020.92265         0.84132        10.26023
     2020.92539        -5.05122         9.95736
     2020.92813       -11.91376        10.42591
     2020.93086        -0.16630         9.95477
     2020.93360        -1.56483        10.06608
     2020.93634         2.38063         9.90041
     2020.93908        -1.55591         9.91465
     2020.94182         4.69855        10.14374
     2020.94455         4.31602         9.83957
     2020.94729        -5.89052         9.95477
     2020.95003        -7.44706        10.41167
     2020.95277       -22.29159        11.06920
     2020.95551        -7.84013        10.50357
     2020.95824         2.77933        10.22011
     2020.96098        -5.71721        10.61359
     2020.96372        -7.18074        10.99154
     2020.96919        -6.86482        10.39226
     2020.97193         1.93764        10.23564
     2020.97467         7.18011        10.33142
     2020.97741        14.91657        10.57217
     2020.98015         7.70703        11.42255
     2020.98288         6.25849        10.50616
     2020.98562        13.61196        10.13468
     2020.98836        10.77842         9.91982
     2020.99110         4.80688         9.80463
     2020.99384         1.71735        10.26541
     2020.99657        13.44781        10.38837
     2020.99931         5.98227        10.69125
     2021.00205        10.53573        10.08162
     2021.00479        28.42320        10.32107
     2021.00752        13.03466        10.05832
     2021.01026         7.87212        10.19681
     2021.01300         3.55258        10.33013
     2021.01574        11.41005        10.29000
     2021.01848        14.78451        10.05185
     2021.02121         2.21997         9.73085
     2021.02395        -2.86256         9.63895
     2021.02669        -8.14610        10.05443
     2021.02943         4.43336        10.14116
     2021.03216         2.57482        10.96436
     2021.03490         2.29629        10.99930
     2021.03764        -3.63925        10.13468
     2021.04038         2.88621        10.78833
     2021.04312         8.33267        10.23305
     2021.04585         2.54514        10.14116
     2021.04859         8.18560         9.88876
     2021.05133        -1.08194         9.81110
     2021.05407        -1.29648        10.35472
     2021.05681        -2.78201        10.67831
     2021.05954         0.03945         9.57423
     2021.06228         3.73691         9.48751
     2021.06502        -3.83362         9.29854
     2021.06776        -1.16116         9.27654
     2021.07049         7.80430         9.38138
     2021.07323        12.39876         9.38267
     2021.07597        -6.73977        10.21234
     2021.07871       -11.75831         9.98195
     2021.08145         5.63215         9.50175
     2021.08418        -3.58639         9.95218
     2021.08692         1.92908        10.72102
     2021.08966       -12.26646        10.00654
     2021.09240         4.85800         9.56647
     2021.09514        -0.73454        10.14116
     2021.09787        -9.74007        10.57994
     2021.10061        -1.30161        10.28871
     2021.10335       -14.42315        10.94365
     2021.10609       -11.37068        10.84787
     2021.10882        14.54178         9.92759
     2021.11156        -5.94376        10.04667
     2021.11430        -8.01930        10.11915
     2021.11704        -6.69783        10.63948
     2021.11978        -3.41437        10.09068
     2021.12251         3.66309         9.82275
     2021.12525        15.57055        10.37025
     2021.12799         6.34202        10.11915
     2021.13073       -10.70152         9.69849
     2021.13347        -2.36206        10.14116
     2021.13620         0.89040        10.89058
     2021.13894        -0.34713        10.36637
     2021.14168        -9.78067        10.07644
     2021.14442       -17.59121        10.22529
     2021.14715         0.00326         9.92112
     2021.14989       -22.54828        10.11139
     2021.15263        -3.26682        10.42591
     2021.15537       -20.38536        10.74173
     2021.15811         1.35811        10.49192
     2021.16084         0.61057        10.00654
     2021.16358         7.87403        10.65501
     2021.16632         2.84249        10.49710
     2021.16906       -15.62004        10.95141
     2021.17180        -1.14958        10.10491
     2021.17453        -4.13112        10.71843
     2021.17727       -10.69865        10.50745
     2021.18001        -5.96919         9.95736
     2021.18275        -7.32373        10.90740
     2021.18548        -6.94927         9.52764
     2021.18822       -11.79580        10.02337
     2021.19096        -9.42834        10.27447
     2021.19370        -2.30188        10.01172
     2021.19644        -5.49642        10.40261
     2021.19917        -4.86795        10.21493
     2021.20191        -3.94249         9.78780
     2021.20465         1.21697         9.33478
     2021.20739        -0.21757        10.26541
     2021.21013        14.13490        10.45697
     2021.21286         2.71736        10.61747
     2021.21560        -6.86818         9.89653
     2021.21834       -12.98371         9.96124
     2021.22108        -5.66525         9.93794
     2021.22381        -3.50279         9.65319
     2021.22655        -5.47233        10.65630
     2021.22929         1.71714         9.88876
     2021.23203        -1.95440         9.88488
     2021.23477        -2.89394        10.90740
     2021.23750       -11.71848        10.11009
     2021.24024         3.92999         9.98195
     2021.24298        -4.42655         9.80463
     2021.24572         0.66091        10.79221
     2021.24846         4.81637        11.05755
     2021.25119         1.34384        10.74432
     2021.25393        -8.87370        10.31201
     2021.25667       -10.28024        10.13857
     2021.25941        -5.11877        10.14245
     2021.26214         7.78169        10.49839
     2021.26488        -6.46185        10.97859
     2021.26762        -6.97539        10.49322
     2021.27036        -2.95792        10.78185
     2021.27310       -10.15346        10.39226
     2021.27583       -10.87600        10.09974
     2021.27857        -5.70654        10.78574
     2021.28131        -6.11307        10.35602
     2021.28405        -6.64561        10.60323
     2021.28679        -3.08715        10.60712
     2021.28952        -2.08769        10.21105
     2021.29226        -9.90522        10.03243
     2021.29500        -4.52076        10.18257
     2021.29774        -6.39630        10.51134
     2021.30047        -2.09183        10.59159
     2021.30321         6.74563        10.31460
     2021.30595         6.98709        11.79273
     2021.30869        12.69555        10.99801
     2021.31143        -0.86598        11.21805
     2021.31416        -1.11852        10.00396
     2021.31690        -6.33506         9.90559
     2021.31964         6.88340        10.24082
     2021.32238         5.61287        10.41297
     2021.32512        -7.97867        10.47251
     2021.32785       -15.10121        10.43885
     2021.33059       -13.16674        11.61153
     2021.33333        -3.69528        10.37802
     2021.33607        -3.77782        10.48545
     2021.33880         0.68364        10.22788
     2021.34154        -1.28389        10.27706
     2021.34428        -8.41443        10.48157
     2021.34702       -15.55197        10.40650
     2021.34976        -7.61151        10.27836
     2021.35249         6.15796        10.15798
     2021.35797       -12.76012        10.38449
     2021.36071        -9.26966        10.58641
     2021.36344       -11.46319        10.27059
     2021.36618       -12.35973        10.12303
     2021.36892       -13.09127        11.27888
     2021.37166        -7.67280        10.50745
     2021.37440       -17.33634        10.60971
     2021.37713       -14.77788        10.65113
     2021.37987         1.91958        10.25506
     2021.38261        -3.90995        11.14427
     2021.38535       -12.75949        10.63818
     2021.38809       -13.27203        10.81421
     2021.39082        -2.17757        11.51186
     2021.39356        -8.81610        10.55017
     2021.39630       -11.97964        11.36042
     2021.39904         5.03382        11.57140
     2021.40177         2.76028        11.23099
     2021.40451        -0.44025        11.48080
     2021.40725        -0.93479        10.53981
     2021.40999         4.45767        10.41297
     2021.41273        -8.21986        10.12045
     2021.41546         0.15460        11.39149
     2021.41820        -3.19094        10.42332
     2021.42094         0.64352        11.03813
     2021.42368        -7.58601        10.65630
     2021.42642        10.14345        10.66795
     2021.42915       -19.67709        12.21598
     2021.43189         4.23437        10.78315
     2021.43463        -3.38616        11.45103
     2021.43737         4.90730        10.59159
     2021.44010       -13.15624        11.36948
     2021.44284        -1.69178        11.14039
     2021.44558         5.54469        11.13780
     2021.44832         6.53815        11.37337
     2021.45106         4.77961        11.14815
     2021.45379         8.58608        11.19345
     2021.46201         2.49446        11.27111
     2021.46475         7.93093        10.83751
     2021.46748        11.85039        10.69125
     2021.47022        12.15185        11.35525
     2021.47296        24.81831        12.34542
     2021.47570         1.59978        10.66795
     2021.48117         9.06770        11.41737
     2021.48391         3.40216        11.13391
     2021.48665        22.32563        12.22763
     2021.49212        12.08355        11.57140
     2021.49610        -4.46932        47.08292
     2021.49760         8.17548        11.14815
     2021.50034        15.35094        10.72749
     2021.50308        -7.73760        10.72879
     2021.50581        -6.80513        10.74302
     2021.50855         0.50233        10.65113
     2021.51129         5.86879        10.75467
     2021.51403         2.36325        10.75208
     2021.51676         6.41672        10.91129
     2021.51950        12.49518        10.42591
     2021.52224        -5.75736        10.68478
     2021.52498        -5.70789        10.78444
     2021.52772         2.98757        10.61618
     2021.53045        -3.70297        10.89576
     2021.53319         2.08949        10.59547
     2021.53593       -17.60304        10.93847
     2021.53867        -0.61458        11.69695
     2021.54141        -8.92912        10.92682
     2021.54414         0.22434        10.65113
     2021.54688       -13.18819        10.35990
     2021.54962       -11.81773        10.49710
     2021.55236       -15.95127        10.53463
     2021.55509        -6.67881        10.66795
     2021.55783        -6.15134        10.79997
     2021.56057         7.27212        10.49969
     2021.56331        -1.19442        10.53852
     2021.56605        11.53805        10.88799
     2021.56878        -5.73949        10.83363
     2021.57152         8.69297        10.90870
     2021.57700        17.68490        10.78574
     2021.57974         3.08036        10.65371
     2021.58247        -3.64118        10.58900
     2021.58521        -7.15972        10.72361
     2021.58795        -7.96225        10.74820
     2021.59069        -6.45379        10.23046
     2021.59342         8.47767        10.72620
     2021.59616        15.61113        11.18180
     2021.59890        -2.55540        10.52040
     2021.60164       -10.69694        11.12874
     2021.60438         0.36852        10.22529
     2021.60711         0.83999        10.49192
     2021.60985        12.86445        10.84916
     2021.61259        14.04991        10.93459
     2021.61533       -15.03063        11.00189
     2021.61807        -2.36916        10.33013
     2021.62080        -3.11470        10.43497
     2021.62354        -5.16824        10.55664
     2021.62902        -6.04731        10.79868
     2021.63175         5.63315        10.52687
     2021.63449        -5.30439        10.59935
     2021.63723         7.48507        10.84916
     2021.63997         7.41854        10.64724
     2021.64271         0.45300        10.87246
     2021.64544         8.69446        10.70031
     2021.64818         2.09393        10.19293
     2021.65092         5.02639        10.50875
     2021.65366         2.52985        10.67183
     2021.65639         5.05431        10.48286
     2021.65913         9.81478        11.01872
     2021.66187         9.57124        10.61618
     2021.66461        10.47670        10.43368
     2021.66735        -3.52684        10.39226
     2021.67008       -10.93837        10.73137
     2021.67282         5.48209        11.16757
     2021.67556         1.85455        11.61541
     2021.67830         2.75102        10.79221
     2021.68104         8.64648        10.47768
     2021.68377         7.92794        10.18775
     2021.68651        10.79040        10.71843
     2021.68925        12.91787        10.73267
     2021.69199         4.00833        10.77538
     2021.69472         1.94479        10.76114
     2021.69746        -5.30975        10.60841
     2021.70020         4.48172        10.49710
     2021.70294         9.40918        10.54370
     2021.70568        17.60864        10.73655
     2021.70841        19.80310        10.36637
     2021.71115        13.73357        10.43497
     2021.71389        22.15103        10.74820
     2021.71663        -5.79351        10.77538
     2021.71937        13.81796        10.49580
     2021.72210        -0.52458        10.58770
     2021.72484        -1.99212        10.53981
     2021.72758        13.25334        10.49063
     2021.73032        -1.13419        11.10544
     2021.73305        15.67627        10.40002
     2021.73579        16.29073        10.64724
     2021.73853        27.02819        10.77668
     2021.74127       -13.87634        10.97859
     2021.74401         3.72212        10.64983
     2021.74674         8.25458        10.37284
     2021.74948         7.20704        10.59288
     2021.75222         0.17051        10.53722
     2021.75496        -1.99103        10.69902
     2021.75770         5.73643        10.23823
     2021.76043        12.64190        10.47898
     2021.76591         5.19582        10.14374
     2021.76865        -5.69672        10.18905
     2021.77138        -3.70925        10.36378
     2021.77412         1.59321        10.85175
     2021.77686         1.90067        10.35602
     2021.77960         7.01613         9.82793
     2021.78234         5.70960        10.64336
     2021.78507        12.52806        10.29648
     2021.78781        10.68952        10.20328
     2021.79055         6.24298        10.19293
     2021.79329         5.13145        10.32107
     2021.79603        10.44991        10.35731
     2021.79876        -2.43463        10.48545
     2021.80150         0.73384        11.22193
     2021.80424         4.73330        10.94624
     2021.80698         6.90776        11.02390
     2021.80971        18.04622        10.66019
     2021.81245        35.58869        11.21934
     2021.81519        11.88415        10.48804
     2021.81793         6.49661        10.53334
     2021.82067         9.89807        10.98377
     2021.82340        12.55954        10.55534
     2021.82614        18.96600        10.46215
     2021.82888        13.54146        10.84787
     2021.83162         2.72193        10.67701
     2021.83436        16.64539        10.82327
     2021.83709        13.10085        10.61359
     2021.83983         4.94731        10.40520
     2021.84257        18.57278        10.62653
     2021.84531         7.05024        10.90611
     2021.84804        -3.56330        10.62265
     2021.85078         1.26016        10.59935
     2021.85352        15.52963        10.17093
     2021.85626        13.31509        10.30036
     2021.85900        15.26555        10.08291
     2021.86173        -7.96799        11.11450
     2021.86447        -3.25652        10.60065
     2021.86721         2.70994        10.74820
     2021.86995        -2.74160        10.54758
     2021.87269         3.50587        10.42850
     2021.87542         0.60333        10.67572
     2021.87816         4.56179        10.41038
     2021.88090        -5.46075        10.27188
     2021.88364         3.51472        10.66148
     2021.88637       -12.49482        10.07644
     2021.88911         0.47564        10.14374
     2021.89185        -4.39290        10.47121
     2021.89459        -7.83743        10.33013
     2021.89733        -1.41797         9.93277
     2021.90006        -2.26751        10.53593
     2021.90280        -6.22905        10.44921
     2021.90554         5.69742        10.76244
     2021.90828        -9.97312        11.04331
     2021.91102       -10.28366        10.66148
     2021.91375        -4.20519        11.01225
     2021.91649         2.54427        10.51651
     2021.91923        -4.05527        10.45697
     2021.92197         2.13019        10.66795
     2021.92470        -9.22034        10.68348
     2021.92744        -2.03688        10.79350
     2021.93018        -9.71342        11.00707
     2021.93292        17.91504        11.08602
     2021.93566         7.38851        10.85045
     2021.93839        -6.29603        10.22658
     2021.94113        -1.32657        10.62524
     2021.94387         5.48689        10.39743
     2021.94661         0.43936        10.47510
     2021.94935         9.15482        10.38708
     2021.95208        -1.27672         9.78003
     2021.95482         8.74675        10.26800
     2021.95756        -1.13979        10.21234
     2021.96030        -6.69833        10.54887
     2021.96303        12.13613        11.20381
     2021.96577         1.87760        11.04331
     2021.96851         1.85206        10.80127
     2021.97125         9.67052        11.11450
     2021.97399         3.64898        10.92294
     2021.97672        13.33745        10.85434
     2021.97946         0.61691        10.15022
     2021.98220         6.05637         9.80592
     2021.98494         4.80784        10.21493
     2021.98767         5.10530         9.55223
     2021.99041         4.75676         9.82145
     2021.99315         7.21722        10.42332
     2021.99589        19.59469        10.75597
     2021.99863        -0.95085         9.88876
     2022.00136        -7.71539        10.11915
     2022.00410        -7.83093        10.58770
     2022.00684        -0.03546        10.58770
     2022.00958        -3.30200        10.54628
     2022.01232        -8.00054        11.36431
     2022.01505         5.89292        10.98118
     2022.01779        12.35939        10.93329
     2022.02053        -3.77915        10.28871
     2022.02327       -17.58469        11.32289
     2022.02600       -11.10422        10.59159
     2022.02874        -2.78876        10.57735
     2022.03148       -14.25330        10.77279
     2022.03422        -2.73584        10.72879
     2022.03696        -1.46337        10.69254
     2022.03969        -7.25991        10.40132
     2022.04243         2.05855        10.31460
     2022.04517         1.71901        10.27447
     2022.04791        -1.38952        10.70419
     2022.05065        -7.36806        10.30813
     2022.05338       -20.25360        10.66277
     2022.05612       -11.10414        10.41297
     2022.05886       -15.57567        10.61100
     2022.06160        -7.53921        10.43109
     2022.06433         3.60425        10.54111
     2022.06707        -8.97128        10.47768
     2022.06981        -3.84282        10.28742
     2022.07255        -0.22236        10.19552
     2022.07529        -5.59490        10.33919
     2022.07802         0.49157        10.26282
     2022.08076         2.59903        10.24729
     2022.08350        -1.09651        10.01819
     2022.08624        -7.90905         9.72697
     2022.08898        -8.98558         9.75674
     2022.09171       -10.80812        10.22011
     2022.09445        -3.70366        10.04149
     2022.09719       -20.97420        10.26023
     2022.09993        -3.19973        10.49063
     2022.10266       -10.77527        10.23953
     2022.10540       -17.47481        10.55146
     2022.10814        -6.08634        10.54370
     2022.11088        -5.84488        10.32625
     2022.11362         1.17458        10.25635
     2022.11635         9.91304        10.43756
     2022.11909        -3.72049        10.42720
     2022.12183        -3.67603        10.64465
     2022.12457        -1.76557        10.28612
     2022.12731        -0.50711        10.49192
     2022.13004        -2.89664        10.79480
     2022.13278        -3.76718        10.39614
     2022.13552       -11.12072        10.47639
     2022.13826        -0.16425        10.17869
     2022.14099         2.69821         9.22735
     2022.14373        -3.54533         9.35679
     2022.14647        -3.06587         9.51211
     2022.14921        -6.97240        10.26930
     2022.15195        -3.74494        10.44274
     2022.15468       -15.77748         9.95995
     2022.15742         9.03698        10.27836
     2022.16016        -0.59655        10.52169
     2022.16290       -10.41909        10.56570
     2022.16564        -8.09663        10.57088
     2022.16837        -6.12517        10.28742
     2022.17111        -4.02970         9.76968
     2022.17385        -5.94824         9.64413
     2022.17659        -3.79478         9.65448
     2022.17932       -11.61331        10.37673
     2022.18206        -7.78185        10.38708
     2022.18480        -5.20239        10.27577
     2022.18754         1.64907        10.09844
     2022.19028        -9.63946        10.41167
     2022.19301         4.42700        10.08291
     2022.19575         1.09746        10.34566
     2022.19849       -11.60208        10.11397
     2022.20123       -16.50361        10.61100
     2022.20397       -11.90815        10.26800
     2022.20670        -7.61169        10.29518
     2022.20944       -11.89423        10.33272
     2022.21218        -3.40776        10.14374
     2022.21492        -2.66630         9.49916
     2022.21765        -6.85084        10.05702
     2022.22039        -7.85337        10.46215
     2022.22313        -4.10491        10.42979
     2022.22587       -19.47045        10.54499
     2022.22861        -2.74199        10.43497
     2022.23134         4.12048        10.14116
     2022.23408         5.72394        10.24341
     2022.23682        -1.43160        10.88022
     2022.23956        -8.89814        10.17222
     2022.24230       -12.24067        10.33919
     2022.24503         0.14279         9.90688
     2022.24777        11.04025        10.07644
     2022.25051         3.80871        10.27965
     2022.25325       -14.30382        10.68607
     2022.25598        -4.35036        10.24341
     2022.25872         5.50310         9.72308
     2022.26146        -8.14943         9.82793
     2022.26420         2.10203        10.13986
     2022.26694        -1.98651        10.87246
     2022.26967        -8.53705         9.90170
     2022.27241         6.12342         9.53282
     2022.27515         7.69488         9.51987
     2022.27789        -7.15966         9.23771
     2022.28062         1.09980         9.54705
     2022.28336         2.12727        10.09585
     2022.28610        -5.97427        10.01302
     2022.28884       -15.65581        10.18646
     2022.29158       -13.68034         9.76968
     2022.29431       -10.39588        10.05573
     2022.29705        -6.36042         9.86158
     2022.29979       -10.57396         9.75415
     2022.30253        -0.44349        10.11139
     2022.30527        -7.88103        10.32883
     2022.30800       -12.40257         9.98842
     2022.31074        -9.49211        10.06867
     2022.31348        -7.53464        10.58382
     2022.31622        -8.67518        10.09326
     2022.31895       -28.98672        10.55664
     2022.32169        -8.00126        10.62653
     2022.32443        -6.62479        10.09585
     2022.32717        -1.65833        10.78185
     2022.32991       -15.67187         9.89782
     2022.33264       -14.29140        10.35731
     2022.33538        -5.06094        10.60194
     2022.33812       -10.89148        10.21493
     2022.34086        11.53998        10.32366
     2022.34360       -10.00755        10.56699
     2022.34633        -5.20709        10.34696
     2022.34907        -9.62663         9.74379
     2022.35181        -0.42917         9.86158
     2022.35455       -20.61170         9.98066
     2022.35728       -17.96424        10.17740
     2022.36002        -4.68778        10.17093
     2022.36276         0.87668        10.34566
     2022.36550         8.00015        10.93070
     2022.36824        -1.42239        10.21234
     2022.37097       -22.43093         9.96383
     2022.37371        -9.96346        10.47768
     2022.37645       -16.87300        10.50357
     2022.37919        -5.24454        10.50228
     2022.38193        -9.64708        10.12433
     2022.38466        -6.19861         9.73214
     2022.38740       -18.69915        10.26023
     2022.39014        -8.10069        10.22011
     2022.39288        -6.26923        10.54628
     2022.39561       -14.98076        10.38837
     2022.39835        -2.61830        10.32754
     2022.40109        -3.20884        10.29906
     2022.40383        -4.26338        10.63948
     2022.40657       -10.24991        11.34619
     2022.40930       -21.99445        10.12951
     2022.41204        -7.77899        10.00913
     2022.41478       -13.54052         9.90041
     2022.41752         7.20194        10.16834
     2022.42026        -0.05960        10.48157
     2022.42299        -7.16114        10.32107
     2022.42573         8.69033        10.50616
     2022.42847        12.50479        10.00007
     2022.43121        -3.43875        10.12821
     2022.43668        -8.32482        10.26800
     2022.43942       -10.20536        10.40261
     2022.44216        10.20810        10.72102
     2022.44490        22.62057        11.24652
     2022.44763         9.22603        11.41737
     2022.45037        -9.73551        10.26541
     2022.45311       -15.38505        10.74302
     2022.45585        -7.28758        10.37284
     2022.47501        10.84765        10.63559
     2022.47775         4.13712        11.70084
     2022.48049        -8.54142        10.45309
     2022.48323        -5.18996        10.30554
     2022.48596        11.90151        10.76762
     2022.48870        -6.21603        10.34825
     2022.49144        -9.56757        10.17481
     2022.49418        12.77589        10.62783
     2022.49692       -11.45964        10.34566
     2022.49965         1.44682        11.14556
     2022.50239       -37.11072        11.11838
     2022.50513        -7.14526        11.02390
     2022.50787        -4.56479        11.99465
     2022.51060       -21.00033        11.03037
     2022.51334       -20.62487        10.70160
     2022.51608        -3.68241        10.86210
     2022.51882        -8.64694        10.60194
     2022.52156       -17.70648        10.71455
     2022.52429         3.88498        10.55276
     2022.52703         3.36945        10.41297
     2022.52977        -7.28009        10.90093
     2022.53251         1.61737        10.44662
     2022.53525       -31.60317        11.56234
     2022.53798       -20.36070        10.66019
     2022.54072       -26.17824        10.35343
     2022.54346       -11.84778        10.59676
     2022.54620       -13.67932        10.26412
     2022.54893         5.40015        10.26930
     2022.55167        -6.83939        10.59806
     2022.55441       -18.22193        10.79091
     2022.55715        -1.68547        10.74432
     2022.55989       -17.67900        10.13727
     2022.56262        -7.55354        10.44144
     2022.56536       -15.91608        10.38837
     2022.56810        -2.46661        10.79997
     2022.57084        -4.30415        10.81939
     2022.57357       -14.97269        10.40132
     2022.57631       -15.72723        10.11786
     2022.57905       -14.63476        10.75079
     2022.58179       -12.10730        10.45180
     2022.58453         3.20016        11.32418
     2022.58726       -25.19938        11.07437
     2022.59000        -6.26991        11.21287
     2022.59274       -16.99645        10.19552
     2022.59548       -13.55299        10.53205
     2022.59822       -20.75752        10.68090
     2022.60095       -18.60306        10.91129
     2022.60369       -11.50960        11.18051
     2022.60643       -14.77914        11.03166
     2022.60917         3.94933        10.76632
     2022.61190         3.87079        10.65501
     2022.61464        -1.97275        10.51522
     2022.61738        -6.71529        10.45180
     2022.62012       -21.74782        10.37931
     2022.62286         2.99464        10.73914
     2022.62559        -3.39490        10.94106
     2022.62833        -3.50144        10.35213
     2022.63107        -9.64097        10.63948
     2022.63381         4.50549        10.70031
     2022.63655        -1.65005        10.77279
     2022.63928         7.96342        10.45309
     2022.64202        -7.08412        11.13650
     2022.64476       -10.25466        11.75261
     2022.64750        -1.92020        11.33065
     2022.65023        -4.26073        11.43550
     2022.65297        -6.54927        12.02701
     2022.65571         9.69519        10.68090
     2022.65845         9.42065        10.85045
     2022.66119         2.04312        10.50745
     2022.66392        -0.51642        10.64077
     2022.66666         3.14804        10.55793
     2022.66940         2.33550        10.37931
     2022.67214         8.49297        10.53981
     2022.67488         3.82143        10.62265
     2022.67761        -2.35811        10.28353
     2022.68035         8.80836        11.17922
     2022.68309        -6.94218        10.96953
     2022.68583         2.18428        10.90999
     2022.68856        11.48774        11.04072
     2022.69130         3.72721        10.84787
     2022.69404         9.00167        11.55716
     2022.69678         7.95513        10.64207
     2022.69952        -5.16741        11.32030
     2022.70225       -12.40794        11.95194
     2022.70499         2.69252        10.82327
     2022.70773        -4.49202        11.58434
     2022.71047        -1.40456        11.45103
     2022.71321        16.38291        11.01742
     2022.71594        21.33137        10.84657
     2022.71868         5.97183        10.79997
     2022.72142        14.25730        10.98765
     2022.72416        11.55276        10.33401
     2022.72689        -3.44978        10.41426
     2022.72963        11.13968        10.76891
     2022.73237         8.46815        10.74043
     2022.73511         8.49761        10.90740
     2022.73785       -12.25593        10.41426
     2022.74058        12.68053        11.49115
     2022.74332        -1.08200        10.92682
     2022.74606         5.66046         9.91853
     2022.74880        18.29592        10.42979
