# ================= DQRFIT RESULTS ================
# INPUT FILE: series/CPUD.rad
# OUTPUT: LDETRENDED
# FILTER FUNCTION: f(t)
# f(t)=+line(t)+annual(t)+jumps(t)
# line(t)=+P 1+P 2*t
# annual(t)=+P 3*sin(2*pi*t+P 4)
# jumps(t)=+P 5*heav(t-2010.8769  )
# heav(t)=(t<0?0:1)
# TOTAL OBSERVATIONS MTOT= 3587
# INITIAL TIME INTERVAL= 2019.5589 - 2005.4319 = 14.1270
# TOTAL OBSERVATIONS AFTER PREFILTER M= 3570
# TIME-SPAN= 2019.5589 - 2005.4319 = 14.1270
# OBSERVATIONS: USED M=  3570 REJECTED MTOT-M=    17 %USED=   99.5261
# N=  5 PARAMETERS
# MAXSIG= 175.00000
# MAXRES=  57.33136
# SCALE FACTOR FOR LENGTHS: SCL=  10.00000
# SCALE FACTOR FOR SIGMAS: SCLSIG=   1.00000
# CHI^2=   8656.975 DOF=  3565 CHI^2/DOF=   2.42832
# RMS=      9.894 SDEV=      9.895 MEAN=   -0.04672
#  P #       PARAMETER +-    SIGMA %error PARAMETER NAME
# P 1 =     12865.38324 +-  137.927   1.07 YZERO                              
# P 2 =        -6.40230 +-    0.069   1.07 SLOPE                              
# P 3 =         9.16147 +-    0.223   2.43 ANNUAL AMPLITUDE                   
# P 4 =        -2.30569 +-    0.023   1.02 ANNUAL PHASE                       
# P 5 =        30.88913 +-    0.615   1.99 OFFSET 2010.8769                   
#       T            LDETRENDED       SIG_OBS
     2005.43189        -1.03281         9.25947
     2005.43463         1.03172         9.26258
     2005.43737         4.70525         9.27037
     2005.44010        -7.03422         9.70203
     2005.44284         7.34931         9.58204
     2005.44558        -8.71216         9.68021
     2005.44832        -3.62164         9.73008
     2005.45106        -1.19111         9.24077
     2005.45379        -2.05358         9.23609
     2005.45653        -5.96205         9.47919
     2005.45927        -3.57252         9.42153
     2005.46201       -10.40299         9.38413
     2005.46475        -7.31846         9.21895
     2005.46748        -5.52894         9.29687
     2005.47022        -1.03241         9.26414
     2005.47296        -5.46988         9.37011
     2005.47570        -7.22535         9.28752
     2005.47843        -6.34282         9.28440
     2005.48117       -11.33229         9.42309
     2005.48391        -9.09477         9.30310
     2005.48665         1.57976         9.34206
     2005.48939        -3.87371         9.23765
     2005.49212        -7.76118         9.23609
     2005.49486         4.54335         9.19558
     2005.49760        -6.49312         9.24388
     2005.50034         1.32841         9.17376
     2005.50308         0.10393         9.16285
     2005.50581       -10.78654         9.22363
     2005.50855        -2.70201         9.28907
     2005.51129         6.11452         9.45270
     2005.51403        -6.87195         9.39036
     2005.51676         0.71858         9.42465
     2005.51950        -0.58089         9.32803
     2005.52224        -1.09137         9.36855
     2005.52498        -5.37884         9.44490
     2005.52772         1.63069         9.39348
     2005.53045        -4.14078         9.29531
     2005.53319        -5.42125         9.30154
     2005.53593        -1.25672         9.63034
     2005.53867         4.31381         9.39036
     2005.54141        -5.29067         9.24232
     2005.54414        -2.72114         9.47607
     2005.54688         6.99139         9.36699
     2005.54962         6.16592         9.23765
     2005.55236         0.46045         9.29531
     2005.55509        -5.08002         9.80799
     2005.55783       -15.46249         9.41841
     2005.56057         6.52403         9.46984
     2005.56605        -9.26291         9.78773
     2005.56878         2.90262         9.62723
     2005.57152        -4.19085         9.78462
     2005.57426         4.89468         9.44179
     2005.57700         5.54620         9.50412
     2005.57974         0.18273         9.46672
     2005.58247        14.84726        10.06355
     2005.58521        12.64779         9.70358
     2005.58795         2.55232         9.25791
     2005.59069         4.84485         9.09273
     2005.59342       -10.22862         9.40906
     2005.59616         0.07790         9.50100
     2005.59890         0.68943         9.31712
     2005.60164         9.90996         9.19246
     2005.60438         6.70849         9.26414
     2005.60711         2.85602         9.53217
     2005.60985         2.79255         9.66463
     2005.61259        -6.45592         9.78462
     2005.61487         5.08968        11.55174
     2005.64377        -9.15729        19.36198
     2005.64544        -3.64758         9.85630
     2005.64818         6.68595         9.18311
     2005.65092         1.02148         9.33582
     2005.65366         5.12900         9.50568
     2005.65639         3.62753         9.33738
     2005.65913        11.58606        11.01100
     2005.66187        -6.41341         9.50256
     2005.66461         2.37912         9.30154
     2005.66735         4.64965         9.30777
     2005.67008         3.88718         9.31245
     2005.67282        11.35470         9.32336
     2005.67556         7.22123         9.29842
     2005.67830         5.67876         9.16441
     2005.68104         5.23329         9.23765
     2005.68377         3.42982         9.19246
     2005.68651         2.44935         9.38257
     2005.68925         8.09287         9.64281
     2005.69199        -1.05860         9.32647
     2005.69472         3.55493         9.36387
     2005.69746        -1.84854         9.37634
     2005.70020        10.30099         9.45425
     2005.70294         2.23152         9.59606
     2005.70568        -2.93795         9.65216
     2005.70841         0.21257         9.59762
     2005.71115         4.24210         9.27193
     2005.71389         6.34263         9.30777
     2005.71663         0.55216         9.44802
     2005.71937         0.44669         9.42309
     2005.72210         5.61422         9.59139
     2005.72484         6.35275         9.29063
     2005.72758         4.72227         9.26414
     2005.73032         1.38580         9.50568
     2005.73305         3.35333         9.46672
     2005.73579         1.30686         9.48230
     2005.73853         5.11939         9.46516
     2005.74167         3.07850        11.03282
     2005.75583        -0.53887        15.07663
     2005.75770         6.01609         9.45893
     2005.76043         3.82562         9.12078
     2005.76317        12.36415         9.13792
     2005.76591         1.28667         9.28128
     2005.76865         6.45320         9.26102
     2005.77138         7.37473         9.24232
     2005.77412         7.56526         9.30622
     2005.77686         4.06179         9.46205
     2005.77960         3.45332         9.45270
     2005.78234         9.03784         9.58359
     2005.78507         7.98837         9.36543
     2005.78781         8.60190         9.81422
     2005.79055        18.88343         9.22986
     2005.79329         9.53796         9.35920
     2005.79603        12.59949         9.51815
     2005.79876         7.38702         9.51659
     2005.80150        17.70654         9.47919
     2005.80424         3.78907         9.37166
     2005.80698         5.33160         9.38257
     2005.80971         5.64213         9.36543
     2005.81245         1.27466         9.19246
     2005.81422         0.94598        19.37444
     2005.81833        -3.29973        10.97672
     2005.82101        -0.49156        10.86452
     2005.83245         2.50168        15.46932
     2005.83436         0.55989        11.21982
     2005.83709        -0.17258         9.46828
     2005.83983         6.20994         9.49321
     2005.84257         1.74547         9.44958
     2005.84531        -0.81000         9.73631
     2005.84804        -1.66947         9.75189
     2005.85078        -4.15094         9.52594
     2005.85352        -4.12741         9.70826
     2005.85626         6.18812         9.48854
     2005.85900        -5.54336         9.60385
     2005.86173        -3.23283         9.71605
     2005.86447         4.08270         9.31401
     2005.86721        -1.38777         9.38101
     2005.86995        -7.05524         9.43244
     2005.87269        -6.81971         9.24232
     2005.87542        -4.98118         9.28596
     2005.87862        -6.82070        11.15281
     2005.88210        -4.59143        31.49185
     2005.88364        -0.01660         9.09117
     2005.88637         1.20093         9.30933
     2005.88911         2.27346         9.49165
     2005.89185         0.45699         9.25012
     2005.89459         2.42251         9.24232
     2005.89733         1.89004         9.42465
     2005.90006       -14.00543         9.31557
     2005.90280        -2.96690         9.25947
     2005.90554         4.74763         9.23609
     2005.90828        -7.89984         9.30466
     2005.91102         1.48269         9.06468
     2005.91375        -9.12679         9.18934
     2005.91649        -5.11626         9.33738
     2005.91924        -4.02664         9.15973
     2005.92197        -2.15520         8.92287
     2005.92470       -14.68867         8.79977
     2005.92744       -19.45214         8.90106
     2005.93018       -14.52061         8.90885
     2005.93280        -8.67382         9.23297
     2005.95756        -3.91633         9.01793
     2005.96030        -4.60380         9.04442
     2005.96303        -9.05927         8.91508
     2005.96577        -7.30374         9.17376
     2005.96851       -17.52821         9.35608
     2005.97125       -21.28769         8.93378
     2005.97399       -20.57816         9.29063
     2005.97672       -20.64863         9.57113
     2005.97946       -11.86810         9.44179
     2005.98539       -15.23612        11.67640
     2005.98767        -8.38652         9.40127
     2005.99013       -13.94281        10.35184
     2006.02418       -26.73580        17.77406
     2006.02601       -14.38105         9.79085
     2006.02875       -17.33653        11.07334
     2006.03149       -15.12700        10.19445
     2006.03423       -22.56447         9.94356
     2006.03697       -10.63594         9.58983
     2006.03970        -8.12541         9.53217
     2006.04244       -19.55888         9.61788
     2006.06243       -20.82192        15.28233
     2006.06434        -3.24166         9.39660
     2006.06708       -12.69913         8.90261
     2006.06982       -10.67260         9.10831
     2006.07256       -17.96407         9.10987
     2006.07530       -17.18654         9.20181
     2006.07803       -19.46001         9.07247
     2006.08077       -41.48548         8.80912
     2006.08351       -18.41496         9.17843
     2006.08625       -18.92943         9.30154
     2006.08898       -22.05990         9.84539
     2006.09072       -12.60982        20.44188
     2006.09446       -20.76684         9.67553
     2006.09720       -17.88331         9.10831
     2006.09994       -21.78278         9.13948
     2006.10267       -23.84526         9.24544
     2006.10541       -25.10673         9.46516
     2006.10815       -22.75320         9.61009
     2006.11089       -18.38067         9.27972
     2006.11363       -27.60614         9.11299
     2006.11636       -25.67861         9.27037
     2006.11859       -18.23234        11.36630
     2006.12184       -16.74356         9.27817
     2006.12407       -11.62128        11.28059
     2006.12836       -14.48083        19.46327
     2006.13005       -10.84997        12.55685
     2006.17933        -6.82346        11.23073
     2006.18207        -4.10993         9.41997
     2006.18481        -4.40240         9.33738
     2006.18755        -3.48087         9.25635
     2006.19029       -12.01534         9.50880
     2006.19302        -6.50581         9.42776
     2006.19576        -9.56629         9.40751
     2006.19850        -1.98376         9.32803
     2006.20124        -9.21823         9.46828
     2006.20379       -22.26786        10.76323
     2006.21602        12.15244        38.00869
     2006.22040       -26.91353        26.71563
     2006.83748       -27.52082        22.29939
     2006.83921         1.20128         9.35141
     2006.84178       -16.72828        20.18009
     2006.84818        10.49671        15.16545
     2006.85410         6.30963        48.13458
     2006.86738        -4.84441        28.09162
     2006.87018        -6.59042        17.17723
     2006.87247        -3.69782        11.69198
     2006.87475       -14.94021         9.51970
     2006.87749         1.12932         9.39036
     2006.88022        -0.39215         9.21116
     2006.88186         7.21435        21.05274
     2006.88570        -0.19910         9.15038
     2006.88844         8.37043         9.26414
     2006.89118        -2.07104         9.18155
     2006.89391       -15.39851         9.59606
     2006.89665       -10.81298         9.67086
     2006.89939         8.57155         9.03663
     2006.90145        -7.92625        12.16571
     2006.90486         1.54260         9.01170
     2006.90692         5.82978        11.93196
     2006.91034        -1.65534         9.02260
     2006.91308         1.35419         9.15973
     2006.91582        -6.91928         9.01949
     2006.91855        -9.74175         9.13324
     2006.92129        -3.81522         8.98988
     2006.92403        -4.75970         9.20493
     2006.92604        -9.41582        12.51633
     2006.92951        -4.95864         9.07559
     2006.93224        -6.68011         8.86989
     2006.93498        -3.85058         9.13168
     2006.93772        -4.13105         9.08961
     2006.94046       -29.57152         9.06156
     2006.94319        -5.09900         9.13480
     2006.94593        -2.79247         9.24700
     2006.94867       -34.45994         9.48698
     2006.95141         0.78759         9.33271
     2006.95415       -10.93388         9.63502
     2006.95679         3.19204         9.41686
     2006.95962        -4.51782         8.95560
     2006.96236        -6.46130         9.10208
     2006.96510        -8.04777         9.21895
     2006.96784        -3.20824         9.21272
     2006.97054        -2.52392         9.38101
     2006.97209       -27.27700        26.72966
     2006.97605       -12.29665         9.01481
     2006.97879        -6.49912         8.92755
     2006.98152       -21.97460         8.98520
     2006.98413       -22.34089         9.64281
     2006.98684       -38.71157        10.07290
     2006.98974       -16.36601         9.10987
     2006.99248       -22.12048         9.25323
     2006.99521       -13.03695         9.19090
     2006.99795        -7.38843         9.12857
     2007.00343       -20.15337         9.31401
     2007.00610       -14.26724         9.45114
     2007.00890       -10.22131         9.11610
     2007.01164       -16.88178         9.45425
     2007.01438       -15.03125         9.32492
     2007.01712       -27.10073         9.36699
     2007.01985       -21.97020         9.76747
     2007.02259       -14.01367         9.16285
     2007.02533       -14.26514         9.22051
     2007.03081       -13.52108         9.13168
     2007.03354       -13.33755        26.75615
     2007.03621       -18.64048         9.19869
     2007.05904       -38.14929        14.86626
     2007.06092       -10.58727         8.98520
     2007.06366       -13.75774         9.17532
     2007.06640       -22.28521         9.21272
     2007.06914       -10.44668         8.89950
     2007.07187       -13.37415         8.90573
     2007.07461       -16.17263         8.94313
     2007.07735       -12.64110         9.12389
     2007.08009       -11.89457         9.05377
     2007.08556       -12.14851         9.17376
     2007.08830       -16.73698         9.05844
     2007.09104        -6.95446         9.13168
     2007.09378       -12.69593         9.23453
     2007.09651       -13.26540         9.07091
     2007.09925       -15.64687         9.14259
     2007.10093         3.12090        19.87154
     2007.10473       -16.11881         9.20025
     2007.10747        -9.27728         9.25012
     2007.11020       -13.55876         9.17688
     2007.11294       -22.37423         9.14415
     2007.11568        -9.43770         9.03039
     2007.11842       -13.28517         8.95560
     2007.12115        -7.28764         8.85275
     2007.12389       -13.77011         9.02105
     2007.12663       -16.63358         9.40595
     2007.12937       -16.80906         9.33426
     2007.13211         1.51247         9.18155
     2007.13474       -12.78767         9.55554
     2007.13758       -13.01447         9.43088
     2007.14021        -7.81764         9.70826
     2007.14306        -9.60741        12.82020
     2007.14580        -8.14788         9.25947
     2007.14853       -18.54636         8.98676
     2007.15091       -33.63111        10.39080
     2007.15281        -5.82100        25.78532
     2007.15630         2.35737        11.34292
     2007.15920       -32.37807        10.56689
     2007.16222        -4.24971         9.56489
     2007.16496        -5.25218         9.51347
     2007.16770       -10.95766         9.27349
     2007.17044       -11.00013         9.56489
     2007.17278       -11.44912        11.31332
     2007.17591        -6.58007         9.26882
     2007.17865       -11.05254         9.33115
     2007.18139        -7.87901         9.65060
     2007.18413       -13.26948         9.33894
     2007.19062         7.74011        17.70705
     2007.19234       -16.09390         9.46672
     2007.19781       -15.17384         9.26414
     2007.20019       -17.30963        11.34916
     2007.20329       -17.54579         9.34206
     2007.20603       -15.21326         9.14259
     2007.20877        -9.68573         9.19713
     2007.21150       -17.23620         9.39504
     2007.21424       -10.68767         9.51970
     2007.21698        -9.94114         9.49321
     2007.21972        -2.20761         9.27349
     2007.22246         0.30591         9.08805
     2007.22519         2.14644         9.05844
     2007.22793         7.59097         9.08805
     2007.23067        -3.47150         9.08805
     2007.23341       -12.91797         9.23297
     2007.23614       -12.33644         9.15818
     2007.23888       -12.27891         9.23297
     2007.24162       -12.86639         9.09896
     2007.24378         2.33846        12.41036
     2007.24710        -6.67333         9.22051
     2007.24983       -11.58380         9.10364
     2007.25257       -10.77527         9.27817
     2007.25437       -21.43474        16.68169
     2007.25805       -14.23821         9.15662
     2007.26054       -16.07924        10.42508
     2007.26300       -11.01054        12.12987
     2007.26626        -3.60263         9.14415
     2007.26900         7.84490         9.21583
     2007.27174         0.07143         9.37634
     2007.27447        -2.63104         9.27661
     2007.27624         2.46225        17.33306
     2007.27995        -8.24299         9.48854
     2007.28271        11.28466        17.32683
     2007.28543        -7.77893         9.07403
     2007.28826         8.77721        74.87047
     2007.29295       -38.52979       154.95192
     2007.30410        21.53661        66.83271
     2007.30939       -30.72149       111.64809
     2007.31327        14.41534       141.86369
     2007.31489         1.69169       114.99534
     2007.32101        -5.95512         9.48698
     2007.32375         2.61341         9.32492
     2007.32648        -5.19606         9.19402
     2007.32922        -9.05553         9.06935
     2007.33196        -3.61301         9.60385
     2007.33470        -5.28748         9.41218
     2007.33744        -7.15395         9.31868
     2007.33955        -0.23344        12.82955
     2007.34291        -9.87089         9.19869
     2007.34565       -18.76336         9.19869
     2007.34839        -5.83483         9.42776
     2007.35112        -8.15831         9.37011
     2007.35386        -0.92778         9.94824
     2007.35660        -9.02025         9.99655
     2007.35934        -2.90372         9.19402
     2007.36208        -8.70719         9.26570
     2007.36481        -6.50966         9.49010
     2007.36755       -11.71213         9.30933
     2007.37029       -10.62261         9.35452
     2007.37303        -3.72508         9.49321
     2007.37577        -5.10955         9.49477
     2007.37850         9.20898         9.28284
     2007.38124        -1.09849         9.32024
     2007.38398       -12.41296         9.27037
     2007.38672       -11.80743         9.29998
     2007.38945       -12.93191         9.38725
     2007.39219        -9.55838         9.54464
     2007.39493        -4.66385         9.15662
     2007.39767        -5.75532         9.43711
     2007.40041        -1.72879         9.56489
     2007.40314        -0.80726         9.20181
     2007.40588       -10.25573         9.11454
     2007.40862        -8.90621         9.11922
     2007.41136       -12.21968         9.49477
     2007.41410        -9.29215         9.24700
     2007.41683        -7.50362         9.36387
     2007.41957        -7.17809         9.21895
     2007.42231        -3.24056         9.20804
     2007.42505        -9.65003         9.37166
     2007.42778         3.96649         9.09273
     2007.43052        -3.57098         9.25635
     2007.43326        -4.32645         9.18778
     2007.43600        -3.09592         9.13013
     2007.43874        -6.95539         9.28284
     2007.44147        -4.56186         9.17999
     2007.44421        -6.77734         9.36387
     2007.44695         4.79419         9.46516
     2007.44969        -5.02128         9.10052
     2007.45243        -5.35175         9.20181
     2007.45516       -10.28522         9.26882
     2007.45790        -5.38069         9.20804
     2007.46064         2.26484         9.22986
     2007.46805        11.64631        15.00495
     2007.47159        -4.98405         9.15038
     2007.47433        -6.51652         9.19090
     2007.47707       -14.86099         9.43867
     2007.47980       -11.84746         9.15973
     2007.48254       -12.27694         9.15038
     2007.48528       -14.38941         9.30777
     2007.48802       -12.79488         9.28907
     2007.49076        -0.48735         9.94668
     2007.49453       -25.65616        20.35462
     2007.49623        14.73471        24.66022
     2007.49926         1.46512        13.72869
     2007.50172        -3.72518        11.58446
     2007.50450        -9.64034        13.93283
     2007.50713        -9.43454         9.82202
     2007.51043         8.61564        11.52680
     2007.51266        -9.11012         9.32492
     2007.51540       -11.25459         9.46828
     2007.51813        -7.50606         9.39192
     2007.52087        -4.56454         9.07870
     2007.52361       -12.36301         9.18623
     2007.52635        -5.95248         9.30933
     2007.52908         0.58605         9.87967
     2007.53188        -5.93703         9.63969
     2007.53456        -2.63089         9.07559
     2007.53730        13.67863         9.23765
     2007.54004        -1.08284         9.42153
     2007.54277        -2.65631         9.20181
     2007.54551       -10.78578         9.29998
     2007.54825        -1.07025         9.17220
     2007.55099       -13.15972         9.44179
     2007.55373         4.16381         9.10519
     2007.55646         4.47633         9.19869
     2007.55920        -2.72314         9.31557
     2007.56194       -13.08361        10.86141
     2007.56468       -14.26508         9.26102
     2007.56741       -10.54255         9.44958
     2007.57015        -6.91402         9.38569
     2007.57289        -4.15949         9.23297
     2007.57563        -2.55097         9.39816
     2007.57837        -2.92844         9.44646
     2007.58110         0.10109         9.09896
     2007.58384        -4.09238         9.01949
     2007.58658         6.36615         9.14883
     2007.58932        -1.11732         9.31557
     2007.59206         4.62021         9.08182
     2007.59479        -4.30827         9.38257
     2007.59753         7.68626         9.42776
     2007.60027         0.06379         9.61164
     2007.60301         5.66632         9.21583
     2007.60574        13.09085         9.34361
     2007.60848        -0.78762         9.20337
     2007.61122         6.73591         9.27505
     2007.61396        -5.71457         9.13948
     2007.61670        -3.00404         9.84227
     2007.61943        -2.29351        10.03550
     2007.62303         0.01153        15.85111
     2007.62491         9.01255         9.83604
     2007.62769         0.12635         9.99655
     2007.63039         3.19161         9.79552
     2007.63312         7.84213         9.36387
     2007.63586         5.32266         9.34050
     2007.63860        -3.83581         9.74254
     2007.64134         7.06672         9.08494
     2007.64407        10.19125         9.73631
     2007.64681        -2.26222         9.79241
     2007.64955        27.52830        10.61675
     2007.65229         3.27283        10.02771
     2007.65503        -3.49364         9.42465
     2007.65776         5.26289         9.51191
     2007.66050         4.86642         9.58048
     2007.66324        15.35595         9.61944
     2007.66598        11.49448         9.56801
     2007.66872        -7.52300         9.70982
     2007.67145         4.52553         9.83292
     2007.67419         7.67106         9.40439
     2007.67693        13.88459         9.32336
     2007.67966         8.05109        10.01369
     2007.68355        -8.18205        23.29670
     2007.68520         1.76754         9.76436
     2007.68788         9.14970         9.49010
     2007.69062        12.97923         9.34050
     2007.69336         9.99676         9.31089
     2007.69609         8.45729         9.84539
     2007.69883        -3.39118         9.44646
     2007.70157         8.29735         9.75657
     2007.70431        12.75288         9.90772
     2007.70705         2.39140         9.62099
     2007.70978         1.47593         9.56334
     2007.71252         9.53646         9.43556
     2007.71526        12.14799         9.28907
     2007.71800         9.54852         9.40595
     2007.72073        12.97205         9.11143
     2007.72347        14.77058         9.37478
     2007.72621         3.78710         9.01481
     2007.72895         4.22363         9.28752
     2007.73169         9.84616         9.21272
     2007.73442        10.22569         9.37634
     2007.73716        -0.31678         9.76592
     2007.73990         6.55675         9.45425
     2007.74264         9.85128         9.27505
     2007.74538        10.79780         9.52905
     2007.74811         6.41433         9.34985
     2007.75085        12.83286        10.18354
     2007.75359         8.76839         9.58048
     2007.75633        13.37992         9.16597
     2007.75906         2.26345         9.12857
     2007.76180        13.46997         9.48854
     2007.76454         5.84350         9.46828
     2007.76728         3.29603        10.00434
     2007.77002         8.25656         9.77838
     2007.77275        14.66909         9.70982
     2007.77549        14.13062         9.05377
     2007.77823         8.32215         9.51815
     2007.78100         2.79089         9.26570
     2007.78371        -1.70480         9.41374
     2007.78644        -1.95627         9.46828
     2007.78918        -6.63974         9.48230
     2007.79192        11.24779         9.27349
     2007.79466         8.21032         9.53061
     2007.79739        14.44785         9.43867
     2007.80013         6.34737         9.66307
     2007.80258        -5.17792        10.04485
     2007.80561        -5.25557         9.33271
     2007.80835        -7.19604         9.22830
     2007.81108        -0.69351         9.57736
     2007.81382         4.73502         9.45737
     2007.81656         0.46855         9.67242
     2007.81930         1.52407         9.45581
     2007.82203        -1.48540         9.49321
     2007.82477        -7.25487         9.51659
     2007.82751         4.47666         9.34985
     2007.83025         2.97419         9.72540
     2007.83299        -2.07828         9.68800
     2007.83572        -4.19875         9.24544
     2007.83846        -3.38723         9.24232
     2007.84120         3.93333         9.29998
     2007.84400        -7.63777         9.46984
     2007.84674         0.21675         9.38101
     2007.84948         0.55228        10.10719
     2007.85221         2.55281         9.60853
     2007.85495        -2.66266         9.73319
     2007.85769         1.54587         9.52282
     2007.86027         6.36539        10.20068
     2007.86318        13.94502         9.49633
     2007.86590        -7.71455         9.59606
     2007.86864         3.36598         9.15973
     2007.87138         8.19651         9.47763
     2007.87412         3.01604         9.40906
     2007.87685         0.01057         9.67553
     2007.87959        -4.74790         9.55399
     2007.88233        -5.71537         9.29063
     2007.88507         0.53915         9.33582
     2007.88781        -5.92332         9.57736
     2007.89054        -3.75879         9.42153
     2007.89328        -5.07226         9.73319
     2007.89642         2.11282        12.06598
     2007.89876        -4.50320         9.74566
     2007.90149         4.28933         9.47607
     2007.90423        -2.42015         9.61476
     2007.90697        -3.30862         9.37011
     2007.90971        -7.94009         9.54619
     2007.91245         1.65244         9.20960
     2007.91518         4.19197         9.39348
     2007.91792         0.88150         9.21895
     2007.92066        -0.61597         9.56645
     2007.92340       -18.50945         9.43711
     2007.92614        -1.00192         9.48386
     2007.92887        -6.79839         9.57269
     2007.93161        -4.35686         9.62255
     2007.93435        -7.08333         9.72384
     2007.93709        -3.49780         9.51970
     2007.93982       -11.63227         9.80332
     2007.94256        -6.87575         9.60385
     2007.94530        -2.05722         9.64748
     2007.94804        -7.04569         9.80799
     2007.95078        -6.00516         9.74410
     2007.95345       -13.64203         9.61009
     2007.95619        -6.26850         9.23921
     2007.95893         2.95103         9.50880
     2007.96167        -9.54244         9.39971
     2007.96440        -8.62691         9.15818
     2007.96714        -8.58539         9.64748
     2007.96988        -8.90586         9.30154
     2007.97262        -2.58433         9.44802
     2007.97535       -26.08280         9.33426
     2007.97809       -16.74527         9.11454
     2007.98083       -12.34474         9.17843
     2007.98357        -9.46621         9.18934
     2007.98631        -3.27069         9.42776
     2007.98904       -16.09116         9.28128
     2007.99178       -15.19563         9.21272
     2007.99452       -15.03810         9.27193
     2007.99726       -10.72857         8.95092
     2008.00045       -21.50412        11.12788
     2008.00273       -18.23251         8.98832
     2008.00547       -15.81699         8.85119
     2008.00821       -10.17746         8.95092
     2008.01095         1.50407         9.02105
     2008.01368        -0.60940         8.66263
     2008.01642       -12.94987         8.65328
     2008.01916       -17.10834         8.68601
     2008.02190       -23.45581         8.76704
     2008.02464       -22.74429         8.79665
     2008.02737       -20.26676         8.89326
     2008.03011       -16.72223         8.84028
     2008.03285       -12.29970         8.86677
     2008.03559        -9.65317         8.92910
     2008.03833       -19.39364         8.84963
     2008.04106       -16.07911         9.01793
     2008.04380       -15.29759         8.90573
     2008.04654       -15.72306         8.97274
     2008.04928       -12.67053         8.84807
     2008.05201       -20.63500         8.81067
     2008.05456       -16.81772         9.71293
     2008.06023       -11.72242         8.89794
     2008.06297        -8.40789         8.90417
     2008.08321       -16.71225        18.37868
     2008.08487       -15.22266         8.93845
     2008.08761       -12.27813         8.87456
     2008.09034        -2.86560         8.69224
     2008.09308        -6.51307         8.63614
     2008.09582        -8.03454         9.06000
     2008.09856        -7.06102         9.07870
     2008.10130        -5.95349         9.31557
     2008.10403        -8.28796         8.71250
     2008.10677        -2.06543         9.25323
     2008.10951       -19.73190         9.29063
     2008.11225       -17.24937         9.38881
     2008.11498        -8.59784         9.22363
     2008.11772        -8.51032        12.40569
     2008.12046        -6.26379         9.26258
     2008.12320        -6.66126         9.52126
     2008.12571       -17.17219        11.47694
     2008.12871        -4.63996        11.78704
     2008.13141        -0.46767         9.22363
     2008.13415        -1.99314         9.29687
     2008.13689         1.19938         9.11454
     2008.13963        -3.05609         9.34517
     2008.14236        -2.26856         9.22518
     2008.14510        -1.85403         9.32336
     2008.14784        -6.91550         9.41218
     2008.15058       -12.47897         9.32336
     2008.15331       -12.44444         9.35141
     2008.15605        -8.45692        14.66212
     2008.15879       -10.37739         9.35141
     2008.16153        -3.15686         9.29063
     2008.16427       -17.16033         9.46360
     2008.16700        -9.87680         9.33894
     2008.16974       -14.04227         9.28907
     2008.17248       -15.58775         9.21428
     2008.17522        -9.79422         9.51503
     2008.17796        -6.83369         9.14883
     2008.18069       -14.25816         9.20181
     2008.18343        -7.41363         9.27972
     2008.18611        -5.78347         9.55710
     2008.18891        -3.88557         9.28128
     2008.19164       -15.45605         9.33738
     2008.19438       -12.64352         9.23453
     2008.19712        -4.29599        11.28371
     2008.19986         0.67554         9.15194
     2008.20260         0.22307         9.06000
     2008.20533        -1.04240         9.14259
     2008.20807        -6.89087         9.52750
     2008.21081        -2.40835         9.47607
     2008.21355         2.77118         9.55866
     2008.21629        -0.35529         9.33426
     2008.21902         0.98024         9.33426
     2008.22176       -15.58423         9.41841
     2008.22450       -11.44170         9.32492
     2008.22724        -5.45917         9.41841
     2008.22997        -4.88265         9.59294
     2008.23273        -0.84803         9.47607
     2008.23545        -4.39759        12.92928
     2008.23819        -6.81906         9.28128
     2008.24093        -4.10153         9.34517
     2008.24366       -10.71200         9.30310
     2008.24640        -9.82747         9.34673
     2008.24914        -1.28595         9.20960
     2008.25188        -0.39642         9.31245
     2008.25462        -0.22289         9.07091
     2008.25735         2.64364         9.50412
     2008.26009         2.84317         9.16908
     2008.26283        -6.89030         9.14883
     2008.26557        -0.41978         9.07870
     2008.26830        -0.07625         9.09429
     2008.27104        -0.39572         9.44490
     2008.27378        -0.96419         9.15662
     2008.27652         0.57134         9.35141
     2008.27926        -7.28313         9.41530
     2008.28199        -3.39160         9.29063
     2008.28473         3.29292         9.38257
     2008.28747        12.57445         9.26726
     2008.29021        -0.56002         9.36543
     2008.29295         4.95651         9.53373
     2008.29568         3.19404         9.17376
     2008.29842         0.73857         9.28752
     2008.30116         2.74510         9.25947
     2008.30390         1.29062         9.07403
     2008.30663         0.03015         9.54308
     2008.30937        -0.80332         9.46360
     2008.31211        -8.96179         9.50412
     2008.31485        -4.21626         9.00390
     2008.31759        -2.95773         9.02260
     2008.32032         1.13180         9.11299
     2008.32306        -0.09368         9.19402
     2008.32580         1.35185         9.51659
     2008.32854        -0.08262         8.98832
     2008.33128         1.00491         9.08182
     2008.33401        -2.06656         8.98832
     2008.33675        -1.23003         9.04286
     2008.33949        -0.34550         9.45893
     2008.34223        -6.06798         9.26570
     2008.34496        -8.73245         9.28284
     2008.34770         0.38308         9.15038
     2008.35044        -3.45139         9.03039
     2008.35318        -3.44686         8.99455
     2008.35592        -0.13233         9.36387
     2008.35865        -8.05380         9.79085
     2008.36139         0.19472         9.81734
     2008.36413         8.97925         9.07247
     2008.36687        -9.17422         9.18467
     2008.36961        -5.61869         8.99767
     2008.37234       -10.18016         9.20960
     2008.37508        -2.23863        12.98382
     2008.37782       -18.57211         9.38413
     2008.38056        -2.37058         8.96806
     2008.38329         4.30395         9.21116
     2008.38603         4.54048         9.12701
     2008.38877        -1.36399         9.23765
     2008.39151         3.15854         9.25791
     2008.39425        -3.83093         9.07247
     2008.39698         1.00059         9.25791
     2008.39972        -2.37188         9.41686
     2008.40246        -0.64935        10.12900
     2008.40520        -4.96482         9.40127
     2008.40794        -4.28829         9.13480
     2008.41067        -0.62876         9.23297
     2008.41341         1.09477         9.32336
     2008.41615         1.30129         9.27505
     2008.41889        -5.18318         9.32959
     2008.42162        -1.48965         9.19090
     2008.42425         1.87515        10.61208
     2008.42710         3.92241         9.36231
     2008.42984        11.12394         9.27972
     2008.43258         3.73747         9.38881
     2008.43531        -9.31401         9.36387
     2008.43805        -4.11948         9.48386
     2008.44079        -6.11995         9.14883
     2008.44353        -4.50542         9.46516
     2008.44626        -4.71789         9.26726
     2008.44900       -18.81536         9.36387
     2008.45174        -4.76683         9.16285
     2008.45448        -3.92031         9.37478
     2008.45722         2.36022         9.24700
     2008.45995        -1.35625         9.22363
     2008.46269        -4.21372         8.98832
     2008.46543        -8.88619         9.18155
     2008.46817        -7.67866         9.25479
     2008.47091         4.53986         9.30310
     2008.47364        -7.37561         9.33115
     2008.47638         4.14492         9.03819
     2008.47912        -3.38755         9.25947
     2008.48186         9.08198         9.10052
     2008.48459         8.60451         9.39348
     2008.48733        -6.76296         9.25479
     2008.49007        -8.21144         9.07559
     2008.49281        -5.54691         9.12078
     2008.49555        -7.29038         9.45893
     2008.49828         0.39015         9.76436
     2008.50102       -12.60232         9.47607
     2008.50376         7.92121         9.49010
     2008.50650        25.50974         9.76592
     2008.50924        -1.87174         9.15194
     2008.51197        11.86679         9.28440
     2008.51471        -5.14368         8.90261
     2008.51745       -12.06115         9.04130
     2008.52019         5.77538         9.08805
     2008.52292        -2.53209         9.52282
     2008.52566        -5.17156         9.44958
     2008.52840         5.47696         9.14883
     2008.53114        -2.58751         9.27505
     2008.53388        -4.29498         9.19558
     2008.53661        -7.63745         9.31401
     2008.53935         2.48208         9.73787
     2008.54209         1.51661         9.39660
     2008.54483         7.92214         9.26414
     2008.54757         6.83766         9.11922
     2008.55030         6.14319         8.91508
     2008.55304        -1.46628         9.31245
     2008.55578         2.83325         9.22363
     2008.55852         9.86278         9.36543
     2008.56125         1.65131         8.91041
     2008.56399        -3.14716         9.18467
     2008.56673         5.80336         9.10364
     2008.56947        11.95389         9.45425
     2008.57221         8.48342         9.19246
     2008.57494        14.60395         9.19558
     2008.57768        13.58648        10.82868
     2008.58042         4.72301         9.07403
     2008.58316         3.88653         9.33738
     2008.58590        18.12306         9.08338
     2008.58863        -3.54141         9.32024
     2008.59137         2.36912        10.43755
     2008.59411         7.15365         8.90417
     2008.59685         7.57718         9.03039
     2008.59958        12.62571         9.52905
     2008.60232         2.20923         9.96694
     2008.60506        -3.26424         9.46984
     2008.60780        -4.23171         8.97118
     2008.61054         5.74982         9.10208
     2008.61327        -2.96565         9.12857
     2008.61601        11.68588         9.22674
     2008.61875        -0.19359         9.07714
     2008.62149         8.26993         9.20025
     2008.62423         2.19646         9.05377
     2008.62696         8.43399         9.49165
     2008.62970        12.09952         9.39036
     2008.63244        13.45705         9.73475
     2008.63518        14.11258         9.29219
     2008.63791        15.92811         9.16753
     2008.64065         7.55263         9.03819
     2008.64339        16.36716         9.08961
     2008.64613        10.88569         9.46672
     2008.64887         2.47422         9.48854
     2008.65160        12.43675         9.22674
     2008.65434         2.24628         9.20025
     2008.65708         6.34981         9.75033
     2008.65982         7.60433         9.30466
     2008.66254        20.46374         9.71761
     2008.67465         6.93331        25.32406
     2008.67624         7.39351         9.92642
     2008.67898        14.51303         9.27817
     2008.68172         2.50356         9.21583
     2008.68446         5.89309         9.16597
     2008.68720        12.23662         9.08026
     2008.68993         4.91015         9.41062
     2008.69267         2.11468         9.24232
     2008.69541         7.35320         9.00702
     2008.69815         7.69673         9.14883
     2008.70089         4.54026         9.40283
     2008.70362         9.82779         9.11299
     2008.70636         5.57732         9.06779
     2008.70910         8.19785         9.27505
     2008.71184         5.01438         9.29531
     2008.71457         6.06790         8.90885
     2008.71731         6.14143         9.01793
     2008.72005         8.36896         9.32492
     2008.72279         6.77549         8.97118
     2008.72553        13.04302         9.10675
     2008.72826        11.05055         8.92443
     2008.73100         9.76708         9.11454
     2008.73374        15.36560         9.11299
     2008.73648         7.39313         9.48075
     2008.73921         4.56166         9.25012
     2008.74469         1.46672         9.05533
     2008.74743         9.87025         8.89638
     2008.75017         4.90678         9.33115
     2008.75290         8.55130         9.31557
     2008.75564        -0.29317         9.21272
     2008.75838         4.97136         8.94157
     2008.76112        17.26789         9.00235
     2008.76386        13.82142         9.05377
     2008.76659        -2.68405         9.17532
     2008.76933         4.22048         9.09740
     2008.77207         9.71500         8.79977
     2008.77481         4.39153         8.92755
     2008.77754         3.21106         8.95560
     2008.78028         7.78359         8.96183
     2008.78302        12.72012         9.09117
     2008.78576         6.08865         9.29219
     2008.78850         3.00217         9.07870
     2008.79123        11.65670         9.18778
     2008.79397         2.62823         9.37011
     2008.79671        14.02376         9.57113
     2008.79945         9.61329         9.20648
     2008.80219         8.37382         9.13480
     2008.80492        11.37235         9.13948
     2008.80766         7.24387         8.92599
     2008.81040         6.43340         9.13636
     2008.81314        13.22493         9.32959
     2008.81587        14.63646         8.96650
     2008.81861         1.71499         9.00546
     2008.82135         3.53252         8.99300
     2008.82409        10.26705         9.20181
     2008.82683         5.17757         9.30310
     2008.82956         7.00810         9.01793
     2008.83230         2.63563         8.98520
     2008.83504        -1.51084         9.18623
     2008.83778        15.06472         9.77682
     2008.84058         8.11361         9.31245
     2008.84325        13.51375         9.27505
     2008.84599        14.26327         8.97118
     2008.84879         5.02817         9.40439
     2008.85147         4.37433         8.95248
     2008.85420         4.61286         9.28284
     2008.85694        14.11039         9.00235
     2008.85968        -0.10308         9.05844
     2008.86242        11.68345         9.22207
     2008.86516        -0.61203         9.11766
     2008.86789        -4.58750         9.39036
     2008.87057        14.21760         9.46360
     2008.87346        -3.09789         9.48542
     2008.87606        -2.52522         9.37322
     2008.87914       -16.52747        11.65614
     2008.88158        -4.39085         9.30933
     2008.88432        -5.07533         9.22830
     2008.88706        -1.88980         9.34673
     2008.88980        -2.04227         9.70514
     2008.89253         9.71326         9.20337
     2008.89527         1.15079         9.49321
     2008.89801        -0.81568         9.48075
     2008.90075         1.59184         9.23142
     2008.90326         3.98291        10.10251
     2008.90724         6.78538        19.97128
     2008.90896        10.03143         8.96650
     2008.91170         5.39796         9.20804
     2008.91444         8.22749         9.27349
     2008.91718         2.47402         9.16441
     2008.91991         6.02354         9.66151
     2008.92265         1.12007         9.41530
     2008.92539        -2.38340         9.43711
     2008.92813         1.68813         9.28128
     2008.93086         1.20666         9.16285
     2008.93360         4.26819         9.19713
     2008.93634         3.29072         9.22363
     2008.93908        -3.69076         9.32803
     2008.94182        -4.86123         9.10364
     2008.94455       -13.99970         9.63034
     2008.94729         4.54483         9.28907
     2008.95003        -6.45864         9.13948
     2008.95277        -2.37911         8.97585
     2008.95551        -1.06058         8.88547
     2008.95824        -5.10806         9.01325
     2008.96098         2.31347         9.22051
     2008.96372        -2.25400         8.68133
     2008.96646        -4.10047         8.71562
     2008.96919        -5.48994         8.70315
     2008.97193        -9.21441         8.84340
     2008.97467       -16.19288         8.85898
     2008.97741         3.22064         8.83093
     2008.98015         4.74017         8.88859
     2008.98288         6.89270         8.63926
     2008.98538         1.51271        10.23964
     2008.98931       -25.49216        16.13160
     2008.99110        -5.38971         8.92287
     2008.99384       -13.04019         8.72185
     2008.99657       -16.03166         8.53953
     2008.99931       -10.96613         8.61121
     2009.00479        -5.39607         8.47564
     2009.00752         1.11746         8.50836
     2009.01026        -1.59601         8.73587
     2009.01300        -3.42049         8.51771
     2009.01574         7.16004         8.50213
     2009.01848       -14.52943         9.20648
     2009.02121        -1.08490         9.37011
     2009.02395        -7.36237         9.77371
     2009.02669        -6.86084         9.37322
     2009.02943       -17.79131         9.25947
     2009.03216       -23.98979         9.25167
     2009.03490       -12.28626         9.17532
     2009.03764        -7.65773         9.18155
     2009.04038        -6.69620         9.21739
     2009.04312        -7.19067         9.32336
     2009.04585       -13.77814         9.31401
     2009.04859       -12.39061         9.12078
     2009.05133        -1.77109         9.02416
     2009.05407        -5.04356         9.16441
     2009.05681        -6.82603         9.26102
     2009.05960        -1.73714         9.46828
     2009.06234        -6.76761         9.33115
     2009.06502        -1.20944         9.22051
     2009.06776        -5.05291         9.20181
     2009.07049        -6.07439         9.20493
     2009.07323        -3.71486         9.17220
     2009.07597        -9.62033        18.52517
     2009.07859       -24.45356         9.68021
     2009.08418         1.35126         9.29531
     2009.08692        -5.53521         9.54931
     2009.08966        -4.19169         9.03819
     2009.09221       -11.63438         9.98408
     2009.09880         0.71180        15.71709
     2009.10061         0.21143         9.12389
     2009.10335        -4.89304         9.01170
     2009.10609         1.22948         9.04286
     2009.10882        -3.58799         9.03663
     2009.11156        -1.28946         8.99300
     2009.11430        -2.66393         9.16597
     2009.11704         1.54360         9.48698
     2009.11978        -2.14887         8.90261
     2009.12251        -4.23634         9.29998
     2009.12525        -8.43082         8.97897
     2009.12799       -11.05129         8.97585
     2009.13073         3.66324         9.05377
     2009.13347       -11.35923         9.04130
     2009.13620        -7.17970         9.13480
     2009.13894        -7.17617         9.12857
     2009.14168        -4.35764         9.28907
     2009.14442        -5.18612         9.15973
     2009.14715       -31.71859         9.26258
     2009.14989        -4.27406         9.23609
     2009.15263        -7.03853         9.30154
     2009.15537         5.14700         9.30310
     2009.15811        -5.31547         9.34517
     2009.16084        -1.27194         9.48854
     2009.16358        -3.58342        10.82245
     2009.16632         1.80311         9.33115
     2009.16906        -4.08736         9.37322
     2009.17180        -6.22883         9.32024
     2009.17453        -5.11030         9.23921
     2009.17727         4.36223         9.36855
     2009.18001        -4.01224         9.01325
     2009.18280        -1.06335         9.08182
     2009.18548        -2.99619         9.15194
     2009.18822        -9.33966         9.20181
     2009.19096        -3.51913         9.17999
     2009.19370        -7.46360         9.26414
     2009.19644        -1.27307         9.09896
     2009.19917         6.27645         9.15818
     2009.20186         1.83668         9.39660
     2009.20465        -5.99749         9.06156
     2009.20739         2.17404         9.18778
     2009.21013        -4.76443         9.29219
     2009.21286        -1.57290         9.15662
     2009.21560         4.31663         9.14571
     2009.21834         3.53615         9.08338
     2009.22056         1.45940        11.95690
     2009.22412        -5.71284        10.53884
     2009.22655        -6.61926         9.05689
     2009.22929         1.82027         9.25947
     2009.23203         0.50980         9.47607
     2009.23477         9.04833         9.55866
     2009.23750         6.21585         9.19402
     2009.24024         2.04438         9.18934
     2009.24298        -0.24209         9.18311
     2009.24572         2.36944         9.35764
     2009.24846        -0.50303         9.26258
     2009.25119        -0.34350         9.37478
     2009.25393        -1.03097         9.58359
     2009.25667        -1.42545         9.18623
     2009.25941        -4.96592         9.33894
     2009.26214        -4.18939         9.19402
     2009.26488        -3.60786         9.18155
     2009.26762         2.89267         9.29687
     2009.27036         7.58520         9.29063
     2009.27310        -0.13427         9.28907
     2009.27583         3.43625         9.39660
     2009.27857        -0.05622         9.26102
     2009.28131        -4.95169         9.27505
     2009.28405        -6.44916         9.19713
     2009.28679        -8.23763         9.39348
     2009.28952        -6.34710         9.22674
     2009.29226        -7.53857         9.46984
     2009.29500        -9.18605         9.32492
     2009.29774        -1.19152         9.14883
     2009.30032        -6.41096         9.76124
     2009.30988        -7.50680        25.29913
     2009.31143        -0.12288         9.10675
     2009.31416        -7.10335         8.97741
     2009.31690       -13.47482         9.26726
     2009.31964        -7.75229         9.29842
     2009.32238        -3.50976         9.29063
     2009.32512        -1.52123         9.30154
     2009.32785       -10.50570         9.20337
     2009.33059       -10.84618         9.09584
     2009.33333        -0.24065         9.20337
     2009.33607        -6.05212         9.14571
     2009.33880         3.27441         9.09273
     2009.34154       -20.23206         9.27037
     2009.34428         0.32747         9.15350
     2009.34702       -10.95100         9.14415
     2009.34976        -4.19948         9.20025
     2009.35249       -14.89195         9.13168
     2009.35523        -4.07042         9.17220
     2009.35797        12.08511         9.43400
     2009.36071        -1.43836         9.58204
     2009.36344        -5.00883         9.25791
     2009.36618         2.66170         9.39036
     2009.36892        -2.75478         9.17843
     2009.37166        -1.68825         9.26102
     2009.37440         0.12828         9.31089
     2009.37713       -10.39919         9.23765
     2009.37987        10.46534         9.50256
     2009.38261        -3.90813         9.26102
     2009.38535        -2.33360         9.17532
     2009.38809        -9.59908         9.09429
     2009.39082       -12.86755         9.26570
     2009.39356        -9.43002         9.35141
     2009.39630        -4.79649         9.25635
     2009.39904         2.61804         9.22207
     2009.40177         1.63157         9.01793
     2009.40451         5.95809         9.01170
     2009.40725        -5.74038         9.24700
     2009.40999        -7.16185         9.41997
     2009.41273        -1.49632         9.31401
     2009.41546         9.52821         9.17532
     2009.41820         1.79074         9.18778
     2009.42094        -1.78673         9.11922
     2009.42368        -4.86121         9.29375
     2009.42642        -3.16568         9.36699
     2009.42915        -1.23115         9.44958
     2009.43189         1.95438         9.37634
     2009.43463        -7.26909         9.21116
     2009.43737         3.75344         9.14415
     2009.44010       -10.91703         9.16597
     2009.44284        -0.51451         9.24232
     2009.44558        -2.61098         9.39348
     2009.44832         1.00955         9.34829
     2009.45106         2.84608         9.31557
     2009.45379         4.17261         9.20804
     2009.45653        -0.02986         9.43556
     2009.45927        -0.71733         9.48075
     2009.46201         4.57319         9.43711
     2009.46475         1.91672         9.61320
     2009.46748         1.13725         9.42776
     2009.47022         6.43578         9.24388
     2009.47296        -2.81269         9.22986
     2009.47570         1.24684         9.34985
     2009.47843         9.20337         9.34050
     2009.48117         8.47689         9.26414
     2009.48391        10.34942         9.23297
     2009.48665         3.30595         9.39504
     2009.48939         0.00448         9.55554
     2009.49212        10.00501         9.35452
     2009.49486         8.74254         9.39192
     2009.49760         1.35007         9.33115
     2009.50034        -2.00941         9.26726
     2009.50308        -0.83588         9.21895
     2009.50581         2.16265         9.27505
     2009.50855         4.91918         9.29998
     2009.51129         6.64271         9.52905
     2009.51403         3.70824         9.28284
     2009.51676         1.34476         9.22986
     2009.51950         2.53229         9.23453
     2009.52224         3.63182         9.09896
     2009.52498         1.72435         9.20960
     2009.52772         2.58088         9.25635
     2009.53045         6.94341         9.44490
     2009.53319        -3.56306         9.27193
     2009.53593        -3.67054         9.05844
     2009.53867        -4.78401         9.08649
     2009.54141         0.13252         9.18467
     2009.54414         1.48605         9.25479
     2009.54688        -0.88542         9.19246
     2009.54962         3.13911         9.23609
     2009.55236         0.39064         9.04442
     2009.55509         5.25416         9.32959
     2009.55783        20.22169         9.46672
     2009.56057         4.64822        10.18822
     2009.56331        -9.82925         9.77994
     2009.56605        11.85528         9.67242
     2009.56878        -2.25719         9.41374
     2009.57152         1.89834         9.39036
     2009.57426         1.24886         9.49321
     2009.57700         1.01739         9.67865
     2009.57974         2.52992         9.42932
     2009.58247         2.14445         9.49477
     2009.58521         4.25498         9.56645
     2009.58795        12.40751         9.31868
     2009.59069        -4.53696         9.53217
     2009.59342         9.35856         9.43711
     2009.59616        11.50409         9.23609
     2009.59890        17.15762         9.48075
     2009.60164         6.57415         9.26726
     2009.60438         7.36268         9.19246
     2009.60710        -2.74888         9.24856
     2009.60985         8.92774         9.24388
     2009.61259        11.35926         9.40439
     2009.61533         7.61579         9.44958
     2009.61807        12.64332         9.34050
     2009.62080        10.81285         9.21428
     2009.62354         6.82438         9.16285
     2009.62628        12.75291         9.19246
     2009.62902        11.13343         9.42465
     2009.63175        10.04096         9.44179
     2009.63449         4.18649         9.33738
     2009.63723         0.28402         9.50100
     2009.63997         1.52455         9.35452
     2009.64271        21.98208         9.37322
     2009.64544        10.46761         9.43088
     2009.64818         5.23213         9.75501
     2009.65092         6.89066         9.34829
     2009.65366         2.23119         9.35296
     2009.65639         3.88072         9.20804
     2009.65913         5.26925         9.34206
     2009.66187        10.08578         9.12234
     2009.66461         0.22631         9.21116
     2009.66735         4.43383         9.55866
     2009.67008         0.45036         9.59450
     2009.67282        24.65589         9.44179
     2009.67556         6.26942         9.17376
     2009.67830        21.22995         9.32180
     2009.68104         8.22648         9.60541
     2009.68377         3.13701         9.37478
     2009.68651        11.44453         9.13013
     2009.68925        10.97206         9.28752
     2009.69199        12.74359         9.21895
     2009.69472         2.47812         9.37166
     2009.69746         9.90365         9.08026
     2009.70020        16.71918         9.27505
     2009.70294        16.23971         9.07247
     2009.70568         9.27523         9.10987
     2009.70841         5.52576         9.32180
     2009.71115         8.71529         9.54152
     2009.71389        13.03782         9.49477
     2009.71663         5.11635         9.38569
     2009.71937        16.17988         9.14727
     2009.72210        -0.05860         9.30777
     2009.72484         7.07493         9.29531
     2009.72758         6.86346         9.43867
     2009.73032        10.09399         9.21895
     2009.73305         3.50552         9.38413
     2009.73579        10.81005         9.40283
     2009.73853        21.39458         9.33271
     2009.74127        13.42310         9.39816
     2009.74401        20.25263         9.58515
     2009.74674        19.55416         9.24232
     2009.74948        13.58169         9.28596
     2009.75222        23.56922         9.14727
     2009.75496        13.86575         9.08182
     2009.75770        23.04228         9.07714
     2009.76043        16.76180         9.22830
     2009.76317        15.28233         9.25791
     2009.76591         0.93286         9.27972
     2009.76865         8.25639         9.40439
     2009.77138        14.88792         9.19558
     2009.77412        19.58345         9.20804
     2009.77686        12.50898         9.18155
     2009.77960        14.11650         9.23921
     2009.78234        18.75103         9.27193
     2009.78507        18.18956         9.33115
     2009.78781         4.20909         9.54464
     2009.79055         6.20862         9.66463
     2009.79329         8.83315         9.54308
     2009.79603         3.21368         9.56489
     2009.79876         9.85320         9.43088
     2009.80150        10.17973         9.43244
     2009.80424        13.15026         9.41062
     2009.80661        33.58042        11.04996
     2009.80997         6.71093        11.14034
     2009.81245        11.71085         9.43867
     2009.81519        18.33338         9.45893
     2009.81793        18.01290         9.52594
     2009.82067        23.71143         9.34361
     2009.82340        18.33196         9.38413
     2009.82614        18.31849         9.42465
     2009.82888         4.08602         9.69891
     2009.83162        16.78255         9.65060
     2009.83436        13.56607         9.27661
     2009.83709         7.25360         9.56957
     2009.83983         5.22013         9.33271
     2009.84257         8.74766         9.44958
     2009.84531         8.91919         9.61944
     2009.84804        15.67572         9.53996
     2009.85078        14.87625         9.41530
     2009.85352        11.08577         9.63034
     2009.85626        14.17830         9.61476
     2009.85900         7.02483         9.57580
     2009.86173         7.64336         9.49633
     2009.86447         9.24589         9.96070
     2009.86721        11.09642         9.89837
     2009.86995         3.61695         9.49321
     2009.87269        16.32147         9.47763
     2009.87542        13.61800         9.51970
     2009.87816        22.39353         9.75501
     2009.88090         6.76906         9.70358
     2009.88364        16.81259         9.64593
     2009.88637        22.71712         9.55399
     2009.88911        18.14765         9.35920
     2009.89185        15.49017         9.40127
     2009.89459        -1.25330         9.49321
     2009.89733         1.03823         9.25635
     2009.90006         5.59676         9.45425
     2009.90280         6.09129         9.37634
     2009.90554         2.89982         9.28440
     2009.90828        14.30635         9.32647
     2009.91102         9.58487         9.42153
     2009.91375         2.19640         9.44802
     2009.91649         6.21193         9.34050
     2009.91923        -1.63054         9.44646
     2009.92197        -0.56201         9.19558
     2009.92470        -1.42748         9.27349
     2009.92744         2.94104         9.35920
     2009.93018         6.01957         9.41218
     2009.93292         0.40510         9.46360
     2009.93566         5.45263         9.34361
     2009.93839         6.83416         9.69579
     2009.94113         7.58369         9.39816
     2009.94387         7.19022         9.67865
     2009.94661         6.29874         9.43867
     2009.94935         3.00627         9.33426
     2009.95208         0.19180         9.41686
     2009.95482        -2.76767         8.99923
     2009.95756        -0.64614         8.85119
     2009.96030        -0.67761         8.80288
     2009.96303        -1.21408         8.70315
     2009.96577        -6.78856         9.24544
     2009.96851        -4.90803         9.60541
     2009.97125        -4.69250         9.39348
     2009.97399         9.08903         9.58204
     2009.97672        -0.07244         9.15038
     2009.97946        -5.44591         9.35764
     2009.98220        -2.93438         9.34050
     2009.98494         2.76714         9.19246
     2009.98773         4.85604         9.43867
     2009.99041         6.55820         9.21895
     2009.99315         3.77473         9.28596
     2009.99589        -5.89474         9.31089
     2009.99863         0.41679         9.40906
     2010.00410        -1.76116         9.06312
     2010.00684        -9.29363         9.17688
     2010.00958       -21.09010         9.15350
     2010.01232        -4.45257         8.76392
     2010.01505        -3.85704         9.35141
     2010.01779        -4.97951         9.09117
     2010.02053         0.56202         9.28128
     2010.02327        -8.80346         9.32492
     2010.02600        -1.84493         9.22518
     2010.02874         5.99960         9.47919
     2010.03148        11.55213         9.17999
     2010.03422        -2.94734         9.52750
     2010.03696        -2.05881         9.70203
     2010.03969        -2.62429         9.52750
     2010.04243        -0.96776         9.30466
     2010.04517         1.95077         9.35452
     2010.04791         8.21330         9.31712
     2010.05065         4.65583         9.57892
     2010.05338         6.51036         9.51970
     2010.05612         6.96789         9.33894
     2010.05886        13.40641         9.22986
     2010.06160         3.28994         9.15350
     2010.06433        -1.72553         9.23453
     2010.06981        -3.03947         9.33894
     2010.07255         0.91106         9.34206
     2010.07529         1.38159         9.46360
     2010.07802        -1.76789         9.24077
     2010.08076        -0.23636         9.10987
     2010.08361        -9.23410        15.94305
     2010.08624         7.07270         9.17843
     2010.08898         7.27323         9.44646
     2010.09171         8.50176         9.16908
     2010.09445         9.38929         9.36231
     2010.09719         2.43081         9.51503
     2010.09993         4.69634         9.15662
     2010.10266         8.90687         9.21583
     2010.10540         9.27340         9.34206
     2010.10814         9.77593         9.31245
     2010.11088         3.25946         9.35296
     2010.11362        -1.84901         9.31557
     2010.11635         3.27651         9.32492
     2010.11909         9.96204        11.32734
     2010.12183         1.51957         9.25947
     2010.12457         1.34010         9.13324
     2010.12731         2.55063         9.47295
     2010.13004         0.11116         9.28596
     2010.13278         2.00768         9.35608
     2010.13552        -1.25979        11.05308
     2010.13826         0.73074         9.11610
     2010.14099        -0.33573         9.13013
     2010.14373         0.26280         9.51503
     2010.14647         0.64833         9.63502
     2010.14921        -0.04614         9.34673
     2010.15195        13.38638         9.11922
     2010.15468        -0.17309         9.10987
     2010.15742         1.30044         9.14727
     2010.16016         8.36297         9.25167
     2010.16290         2.86750         9.28596
     2010.16564         6.20703         9.28907
     2010.16837         3.57456         9.06935
     2010.17111        -3.63892         9.18934
     2010.17347         1.07421        11.08424
     2010.17713         2.96861        11.64368
     2010.17932         6.04967         9.11610
     2010.18206        14.34120         9.08649
     2010.18480         9.40273         8.95715
     2010.18754         6.77826         9.08026
     2010.19028         7.48178         9.13792
     2010.19301        15.00631         9.18311
     2010.19575        11.79984         9.11766
     2010.19849         2.47537         9.20181
     2010.20123        -5.34810         9.17532
     2010.20397         4.45943         9.38257
     2010.20670         2.71796         9.31401
     2010.20944        -2.47152         9.02105
     2010.21218         0.83401         9.10364
     2010.21492         1.27354         9.09584
     2010.21765        -0.08193         9.25323
     2010.22039         2.19360         9.13636
     2010.22313        -5.93487         9.14415
     2010.22587        -3.02334         9.34829
     2010.22861         7.72518         9.22674
     2010.23134         6.61971         9.15350
     2010.23408        -2.45676         9.39971
     2010.23956        10.60930         9.45893
     2010.24230        17.54083         9.51503
     2010.24503         2.79035         9.29687
     2010.24777         3.65688         9.38101
     2010.25051       -15.06259         9.73475
     2010.25325         5.78194        10.05109
     2010.25598         3.00747         9.30933
     2010.25872         8.07600         9.41062
     2010.26146         7.75253         9.39036
     2010.26420         6.79605        10.36275
     2010.26644        11.87039        12.42595
     2010.26986         5.72630        10.32847
     2010.27241         4.17864         9.41062
     2010.27515         4.02117         9.38881
     2010.27789         1.08270         9.57892
     2010.28062         2.04423         9.13168
     2010.28336         0.23075         9.57424
     2010.28610        -0.39772         9.34829
     2010.28884         5.21081         9.22830
     2010.29158         6.44034         9.40439
     2010.29431         9.18987         9.42465
     2010.29705         3.52840         9.11454
     2010.29979        -3.33007         9.52282
     2010.30253         5.39645         9.28596
     2010.30527        13.09298         9.73787
     2010.30800        11.62851         9.11454
     2010.31074        13.93904         9.31245
     2010.31348        10.89657         9.27661
     2010.31622        10.65210         9.12234
     2010.31895         1.36063         9.56334
     2010.32169         8.06415         9.22518
     2010.32443         6.27968         9.29375
     2010.32717        10.77421         9.21116
     2010.32991         2.29474         9.34985
     2010.33264         2.58027         9.76592
     2010.33538        -2.53520         9.98408
     2010.33812         8.54732         8.99767
     2010.34086        11.16685         9.12701
     2010.34360         8.51238         9.10208
     2010.34633        -7.16109         9.41062
     2010.34907        -0.32556         9.20960
     2010.35181         2.09197         9.12701
     2010.35449         9.12013         9.33582
     2010.35728         7.49502         9.15662
     2010.36002        -4.05645         9.34673
     2010.36276        -1.47392         9.36699
     2010.36548         1.23449         9.63969
     2010.36833         4.56975         9.91240
     2010.37097        10.66267         9.14103
     2010.37371         6.53820         9.20337
     2010.37645        11.31272         9.43867
     2010.37919         5.77325         9.57269
     2010.38193         7.56978         9.65060
     2010.38466         9.22531         9.22986
     2010.38740        10.99084         9.24700
     2010.39014         8.35237         9.13636
     2010.39288         4.30790         9.24232
     2010.39561         3.32742         9.22986
     2010.39835         0.80195         9.13636
     2010.40109         0.53348         9.10519
     2010.40383        -0.71199         9.04909
     2010.40657         5.79954         9.15506
     2010.40930         4.83907         9.14571
     2010.41204         0.82860         9.12234
     2010.41478        10.88612         9.13636
     2010.41752         5.40765         9.20181
     2010.42026         5.25118         9.23453
     2010.42299         8.22471         9.16441
     2010.42573         0.95924         8.94469
     2010.42847        -2.29623         9.07559
     2010.43121        -5.20570         9.07559
     2010.43394        -0.92218         8.97585
     2010.43668        -5.60665         9.09584
     2010.43942         2.30288         9.15506
     2010.44216        -4.00259         8.93222
     2010.44490        -0.52406         8.95871
     2010.44763        -9.31553         9.15973
     2010.45037         1.41099         9.07247
     2010.45311         6.43152         9.16285
     2010.45585         6.71405         9.03351
     2010.45859        -2.39042         9.24856
     2010.46132        -0.23389         9.07247
     2010.46406         4.62264         9.07714
     2010.46680        -4.65783         8.90729
     2010.46954        -0.99331         9.21739
     2010.47227        -3.11378         8.78886
     2010.47501        -4.81425         9.24232
     2010.47775         0.28728         9.17688
     2010.48049         1.15081         9.31557
     2010.48323         8.14334         9.04442
     2010.48596        -2.01713         8.96806
     2010.48870         3.16039         9.15973
     2010.49144         3.58692         9.05844
     2010.49418         8.16545         8.82781
     2010.49692         8.38098         8.88391
     2010.49965         9.93051         8.92287
     2010.50239         9.03004         8.97274
     2010.50513         2.83657         9.16597
     2010.50787         3.66809         9.09429
     2010.51060         8.08662         8.70783
     2010.51334         8.27915         8.88391
     2010.51608         5.67068         8.92287
     2010.51882         1.60621         9.07559
     2010.52156         9.07274         9.10519
     2010.52429         8.83227         8.88703
     2010.52703         7.46279         9.09273
     2010.52977        13.40132         9.08805
     2010.53251         8.68285         9.00079
     2010.53525         0.78738         9.08026
     2010.53798        13.20791         9.02416
     2010.54072         8.04144         8.91820
     2010.54346        24.76497         9.21272
     2010.54620         3.80849         9.01325
     2010.54893        -0.70498         9.13168
     2010.55167         4.84455         9.29687
     2010.55441        30.96508         9.27193
     2010.55715        12.14761         8.92910
     2010.55989         9.71014         9.05377
     2010.56262         4.48566         9.25791
     2010.56536        13.33319         9.06779
     2010.56810        12.22072         9.06779
     2010.57084         7.16525         9.10831
     2010.57357         1.84978         9.33894
     2010.57631         4.70931         9.37478
     2010.57905         6.06984         9.44023
     2010.58179        11.53836         8.99455
     2010.58453        10.47089         9.11143
     2010.58726         7.84042         9.17532
     2010.59000         2.51395         9.35141
     2010.59274        11.82348         9.13636
     2010.59548         9.33501         9.29219
     2010.59822        22.43954         8.98365
     2010.60095        16.43206         8.94001
     2010.60369        15.13759         9.06935
     2010.60643         8.71812         9.10208
     2010.60917        -1.40735         9.01014
     2010.61190        11.46218         8.94936
     2010.61464         9.87671         8.96183
     2010.61738         9.66124         9.07714
     2010.62012        11.93776         9.10519
     2010.62286         6.66829         9.03663
     2010.62559         3.10482         9.06779
     2010.62833         6.95435         9.33582
     2010.63034        22.00519        12.96824
     2010.63381        20.94141        12.33557
     2010.63655        17.59994         9.13168
     2010.63928        15.71546         9.02728
     2010.64202        12.67499         9.00390
     2010.64476        11.37652         9.13480
     2010.64750        15.77905         9.11922
     2010.65023        20.48158         9.61944
     2010.65297         5.41111         9.52750
     2010.65571        15.24263         8.85119
     2010.65845        16.99516         9.05221
     2010.66119        14.58469         9.03195
     2010.66392        17.09922         9.10675
     2010.66666        23.04475         8.99455
     2010.66940         3.47928         9.02728
     2010.67214        13.80381         8.94625
     2010.67488        10.31333         9.00702
     2010.67761        13.73586         9.02105
     2010.68035        13.37439         8.94313
     2010.68309        14.54392         8.92287
     2010.68583        14.95345         8.95871
     2010.68845        12.26125         9.33271
     2010.69128        14.00238         9.23921
     2010.69404        13.89603         9.08649
     2010.69678         8.64256         8.95248
     2010.69952         5.11209         9.03351
     2010.70225         7.94462         8.93534
     2010.70499        19.10115         8.96806
     2010.70773        14.87568         9.13324
     2010.71047        16.82221         9.03195
     2010.71321        18.60173         8.85898
     2010.71594        14.40426         9.07870
     2010.71868        22.50979         8.84963
     2010.72142        16.63432         9.27972
     2010.72416        12.54385         9.08494
     2010.72689        16.68638         9.19869
     2010.72963         5.88391         8.99300
     2010.73237        13.44343         9.08805
     2010.73511        12.57796         9.13636
     2010.73785        12.67949         9.46516
     2010.74332        14.24155         9.09740
     2010.74606        12.42308         9.07714
     2010.74880         9.54261         9.19402
     2010.75154        16.77613         8.84184
     2010.75427        25.49866         9.22363
     2010.75701         6.16519         9.02105
     2010.75975        14.73272         8.92287
     2010.76249        16.92625         8.80912
     2010.76522        21.37278         8.97897
     2010.76796        19.96530         9.02884
     2010.77070         7.49383         9.02728
     2010.77344        11.19136         8.99611
     2010.77618        14.23389         8.86366
     2010.77891         9.90242         9.03507
     2010.78165        10.17595         8.98988
     2010.78439        12.33648         9.14103
     2010.78713        14.73600         9.42153
     2010.78987        13.60353         8.99455
     2010.79260        13.19606         8.82781
     2010.79534        13.54059         8.86989
     2010.79808        10.97312         9.09584
     2010.80082        14.19565         8.86677
     2010.80355        15.58118         8.96650
     2010.80629        18.01670         9.21739
     2010.80903        19.96223         9.04598
     2010.81177        18.42276         8.87145
     2010.81451        19.77429         8.93534
     2010.81724        20.84882         9.00546
     2010.81998        18.61235         9.01325
     2010.82272        14.19688         9.08805
     2010.82546        15.94340         9.02572
     2010.82820        20.31293         8.96183
     2010.83093        13.20146         9.44023
     2010.83367        15.69699         9.46984
     2010.83641        15.43852         9.08338
     2010.83915        -2.51595         9.04598
     2010.84188         5.49358         9.13636
     2010.84462        16.80310         8.96495
     2010.84736        22.39963         8.90261
     2010.85010        26.45916         9.06000
     2010.85284        26.73969         9.05533
     2010.85557        20.65522         8.97118
     2010.85831        18.72575         8.86054
     2010.86105         7.25727         8.87768
     2010.86379         7.29080         8.79509
     2010.86653         6.34433         8.68289
     2010.86926        21.22586         9.06779
     2010.87176        18.00787         9.76436
     2010.87580        56.81970        22.78870
     2010.87748        31.85845         8.99144
     2010.88021        32.10997         8.73432
     2010.88295        39.23150         8.74990
     2010.88569         0.46903         9.08182
     2010.88843        38.06256         9.08805
     2010.89117        44.50809         9.08961
     2010.89390        28.50162         8.58004
     2010.89664        23.43115         8.58316
     2010.89938        25.23867         8.64082
     2010.90212        23.65020         8.57693
     2010.90485        35.82173         8.53174
     2010.90759        32.24826         8.48966
     2010.91033        28.38579         8.56134
     2010.91307        13.08032         8.43512
     2010.91581        20.25285         8.33071
     2010.91854        19.70037         8.24812
     2010.92128        16.21190         8.23410
     2010.92402        15.76843         8.36188
     2010.92676        25.15896         8.39149
     2010.92950        29.33049         8.48499
     2010.93223        26.14602         8.63926
     2010.93497        25.72355         8.50992
     2010.93771        34.30607         8.66263
     2010.94045        28.94960         8.83872
     2010.94318        29.58213         8.60654
     2010.94592        25.90866         8.36656
     2010.94866        16.47719         8.43045
     2010.95140        22.67072         8.80132
     2010.95414        27.62425         8.71250
     2010.95687        20.73277         8.59095
     2010.95961        21.76830         8.88236
     2010.96235        30.98283         8.74211
     2010.96509        22.97936         8.80288
     2010.96783        12.92689         8.60965
     2010.97056         8.69242         8.57225
     2010.97330        27.80694         8.70159
     2010.97604         6.39547         8.56290
     2010.97878        12.18700         8.59563
     2010.98151        23.51753         8.84496
     2010.98425        30.08106         8.66108
     2010.98699        26.92759         8.63614
     2010.98973        25.35312         8.81847
     2010.99247        32.52764         9.03819
     2010.99520        33.75417         8.82158
     2010.99794        30.38170         8.68133
     2011.00342        31.38076         8.69536
     2011.00616        34.72229         8.74834
     2011.00889        35.86482         8.78262
     2011.01163        36.11834         8.59719
     2011.01437        34.62587         8.68289
     2011.01711        30.17040         8.96183
     2011.01984        28.36393         8.72341
     2011.02258        28.17346         8.60030
     2011.02532        25.30099         8.86677
     2011.02806        30.94552         9.04598
     2011.03080         5.83804         8.57693
     2011.03353        15.65557         8.43045
     2011.03627        12.19010         8.64705
     2011.03901         4.13663         8.83249
     2011.04175        24.39916         8.67354
     2011.04449        27.96069         8.91664
     2011.04722        36.43322         8.90417
     2011.04996        26.61374         8.84184
     2011.05270        27.01127         8.68601
     2011.05544        29.93980         8.79353
     2011.05817        28.90833         8.75302
     2011.06091        33.23886         8.65952
     2011.06365        29.00939         8.65173
     2011.06639        22.12691         8.72185
     2011.06913        24.83544         9.12701
     2011.07186        31.20597         8.85275
     2011.07460        22.78950         8.75613
     2011.07734        30.06603         8.71250
     2011.08008        20.12556         8.70471
     2011.08282        22.08409         8.75925
     2011.08555        19.89861         8.66419
     2011.08829        28.21514         8.70003
     2011.09103        19.28667         8.67198
     2011.09377        27.68220         8.74211
     2011.09650        32.07773         8.83249
     2011.09924        23.74826         8.72808
     2011.10198        26.22779         8.86989
     2011.10472        32.98731         8.57069
     2011.10746        26.22684         8.67510
     2011.11019        30.51437         8.70159
     2011.11293        35.27790         8.79977
     2011.11567        34.10943         8.86989
     2011.11841        26.95096         9.03195
     2011.12115        33.93649         8.84184
     2011.12388        26.88301         9.11922
     2011.12662        33.57854         8.95092
     2011.12936        34.52907         8.81847
     2011.13210        25.68660         8.77172
     2011.13483        34.01213         8.82626
     2011.13757        34.76466         8.77327
     2011.14031        31.78119         8.70003
     2011.14305        27.75771         8.85431
     2011.14579        26.82524         8.89638
     2011.14852        28.71177         8.64238
     2011.15126        33.87030         8.68289
     2011.15400        41.79383         8.60498
     2011.15674        33.78036         8.63458
     2011.15948        32.29889         8.69224
     2011.16221        32.40141         8.63147
     2011.16485        28.89027         9.22674
     2011.16782        33.23932         9.08026
     2011.17043        21.91900         8.73120
     2011.17316        10.45353         8.67043
     2011.17590        22.30206         8.64549
     2011.17864        31.56358         8.70003
     2011.18138        28.91011         8.65017
     2011.18412        18.06164         8.74211
     2011.18685        31.45617         8.68913
     2011.18959        28.00070         8.64393
     2011.19233        26.00623         8.65328
     2011.19507        25.37376         8.77172
     2011.19780        35.80528         9.00858
     2011.20054        29.30881         8.68601
     2011.20328        35.02234         8.94625
     2011.20602        35.71487         8.90417
     2011.20876        26.07740         8.75146
     2011.21149        24.29993         8.80600
     2011.21423        23.77146         8.78107
     2011.21697        32.24098         8.87145
     2011.21971        31.21451         8.91196
     2011.22245        29.66604         8.87301
     2011.22518        37.68157         8.63303
     2011.22792        33.24310         8.72029
     2011.23066        32.36763         8.66108
     2011.23340        29.12716         8.59407
     2011.23613        25.98568         8.65328
     2011.23887        32.20421         8.71718
     2011.24161        31.95874         8.86521
     2011.24435        20.78227         8.93534
     2011.24709        28.68180         8.62212
     2011.24982        30.72833         8.68601
     2011.25256        29.91186         8.63458
     2011.25530        29.32938         8.79509
     2011.25804        35.81791         9.44023
     2011.26078        22.14444         9.13636
     2011.26351        32.89597         8.63926
     2011.26625        18.17850         8.63458
     2011.26899        31.27903         8.67043
     2011.27173        35.36855         9.00235
     2011.27446        35.68608         9.15506
     2011.27720        25.88361         9.01170
     2011.27994        28.37714         8.68289
     2011.28268        23.82767         8.66419
     2011.28502         9.03464        10.55286
     2011.28815        28.64873         8.65484
     2011.29089        32.83925         8.66887
     2011.29369        25.64415         8.86210
     2011.29637        35.82331         8.67043
     2011.29911        35.08684         8.64549
     2011.30184        30.97337         8.84184
     2011.30458        28.50990         8.66419
     2011.30732        37.23143         8.68289
     2011.31006        35.35395         8.61433
     2011.31279        36.69648         8.67510
     2011.31553        38.77801         8.69224
     2011.31827        42.10054         8.76860
     2011.32101        33.57607         8.74367
     2011.32375        29.09860         8.74834
     2011.32648        26.38613         8.72029
     2011.32922        26.55665         8.63614
     2011.33196        27.83318         8.77795
     2011.33470        25.04371         8.92599
     2011.33744        30.28824         8.89794
     2011.34017        30.22477         9.15973
     2011.34291        36.06530         8.95560
     2011.34565        35.75083         8.90417
     2011.34839        30.93535         8.88236
     2011.35112        28.34888         8.77483
     2011.35386        28.67341         8.91508
     2011.35660        31.66194         8.68601
     2011.35934        20.34247         8.87145
     2011.36208        20.32600         8.74834
     2011.36481        24.75053         8.90261
     2011.36755        27.32705         8.88236
     2011.37029        37.11658         8.86054
     2011.37303        28.00511         8.91352
     2011.37577        33.33064         8.86521
     2011.37850        19.99217         9.16908
     2011.38124        23.27570         8.88547
     2011.38398        27.98322         9.03819
     2011.38672        27.09975         8.82781
     2011.38945        26.49128         8.93690
     2011.39219        30.74381         8.77795
     2011.39493        30.76634         8.86989
     2011.39767        37.70787        13.76298
     2011.39918        36.03558        30.63322
     2011.41506        33.92325        16.22666
     2011.41796        27.59178        19.87622
     2011.41957        30.93510         8.87768
     2011.42231        22.09562         9.04130
     2011.42505        26.79215         8.90261
     2011.42778        26.19768         8.90729
     2011.43052        32.80121         8.95404
     2011.43326        19.17374         8.93690
     2011.43600        23.29627         9.04909
     2011.43874        23.55180         8.99611
     2011.44147        23.59432         9.09584
     2011.44421        25.73385         8.95560
     2011.44695        29.88838         8.83716
     2011.44969        31.55891         9.06156
     2011.45243        28.97544         8.93066
     2011.45516        28.36697         8.99300
     2011.45790        27.86150         8.99923
     2011.46064        31.11502         9.08026
     2011.46338        30.97855         8.89326
     2011.46611        28.22108         9.02105
     2011.46885        32.31261         9.34673
     2011.47159        31.43014         9.03507
     2011.47433        40.07367         9.10364
     2011.47707        39.65720         8.85275
     2011.47980        39.61872         8.97274
     2011.48254        29.18425         8.90885
     2011.48528        28.92378         8.94625
     2011.48802        33.13031         8.98988
     2011.49076        41.08284         8.98676
     2011.49349        39.93637         8.88236
     2011.49623        31.16089         9.04286
     2011.49897        39.56042         8.96650
     2011.50165        29.04359         9.62411
     2011.50444        32.42248         8.92443
     2011.50707        35.13628         9.45270
     2011.50992        27.26754         9.15506
     2011.51213        36.10969        11.85405
     2011.51540        18.74159         9.15038
     2011.51813        39.61412         8.99767
     2011.52087        42.55765         8.94001
     2011.52361        32.30018         8.94936
     2011.52635        33.36971         9.02728
     2011.52908        41.88924         9.00702
     2011.53182        38.07077         8.94780
     2011.53456        35.28329         8.96027
     2011.53730        39.42982         8.95404
     2011.54004        32.53335         8.99611
     2011.54277        39.94888         8.85742
     2011.54551        37.59941         9.04909
     2011.54825        33.31594         8.93222
     2011.55099        40.37447         9.01637
     2011.55373        40.10999         9.14103
     2011.55646        41.53752         8.91352
     2011.55920        36.66005         9.03507
     2011.56194        41.27858         9.18311
     2011.56468        41.60111         9.01637
     2011.56741        47.79364         8.90729
     2011.57015        40.90917         9.14571
     2011.57289        25.43869         9.00702
     2011.57563        24.43322         8.81223
     2011.57837        58.66275         9.17688
     2011.58110        44.60728         8.80444
     2011.58384        27.98281         8.95248
     2011.58658        33.41334         9.20337
     2011.58932        28.63886         9.01481
     2011.59206        44.77439         9.00390
     2011.59479        44.13292         8.90106
     2011.59753        43.74445         9.01325
     2011.60027        43.82698         8.91041
     2011.60301        46.13351         8.96962
     2011.60574        42.60104         9.10675
     2011.60848        51.64156         9.34673
     2011.61122        37.99109         9.28752
     2011.61396        35.54662         9.27193
     2011.61670        35.82715         9.15350
     2011.61943        38.52968         9.16285
     2011.62217        37.93821         9.07247
     2011.62491        32.05074         9.06000
     2011.62765        38.73126         9.06468
     2011.63039        42.20179         9.07247
     2011.63312        41.33932         8.92910
     2011.63586        39.12385         8.94936
     2011.63860        41.49838         9.21583
     2011.64134        35.32991         9.37634
     2011.64407        39.80644         9.15194
     2011.64681        51.03596         9.01481
     2011.64955        41.63549         9.33894
     2011.65229        34.33602         9.06468
     2011.65503        41.50355         9.37790
     2011.65776        36.08608         9.17999
     2011.66050        45.16261         9.41997
     2011.66324        47.03914         9.11299
     2011.66598        44.72866         9.23765
     2011.66872        33.44119         9.21272
     2011.67145        42.52972         8.81691
     2011.67419        42.60925         8.87301
     2011.67693        45.61578         8.80600
     2011.67967        52.22131         9.01014
     2011.68240        42.32184         9.07714
     2011.68514        43.81436         9.00546
     2011.68788        39.50889         9.09896
     2011.69062        40.06042         9.06779
     2011.69336        43.10195         9.09584
     2011.69609        43.86748         9.15038
     2011.69883        50.18901         9.09740
     2011.70157        42.32553         8.86210
     2011.70431        45.26806         9.11922
     2011.70705        43.00559         9.27037
     2011.70978        53.51912         9.21739
     2011.71252        47.98365         9.19713
     2011.71526        45.90218         9.71293
     2011.71800        45.92471         9.18311
     2011.72073        48.12423         9.19246
     2011.72347        42.69676         9.05844
     2011.72621        45.51029         9.29375
     2011.72895        51.27182         9.11610
     2011.73169        51.14435         9.43867
     2011.73442        55.63288         9.07091
     2011.73716        57.74441         9.41997
     2011.73990        50.56693         9.18467
     2011.74264        45.55046         9.04598
     2011.74538        47.41899         9.43711
     2011.74811        53.26952         9.24077
     2011.75085        54.53705         9.31712
     2011.75359        46.80858         9.41374
     2011.75589        52.25634        10.71181
     2011.75906        52.66663         9.26414
     2011.76180        50.94516         9.14103
     2011.76448        70.27930         9.38569
     2011.76728        37.44922         9.22674
     2011.77002        35.90875        10.35028
     2011.77275        50.72028         9.99655
     2011.77549        39.43381        11.16684
     2011.77823        36.33733         9.22674
     2011.78097        51.84586         9.08961
     2011.78371        46.79539         9.08182
     2011.78644        47.56392         8.98365
     2011.78918        33.05045         9.13480
     2011.79192        49.85398         9.06156
     2011.79466        32.27750         9.06156
     2011.79739        45.55703         9.01949
     2011.80013        51.67256         9.04754
     2011.80287        47.69509         9.08338
     2011.80561        30.84362         9.20804
     2011.80835        34.39015         9.15194
     2011.81108        33.49368         9.15350
     2011.81382        46.08520         9.29687
     2011.81650        39.74737         9.17843
     2011.81930        44.18126         8.94157
     2011.82198        41.08743         9.07559
     2011.82477        33.79932         9.31401
     2011.82751        36.99285         9.03507
     2011.83025        43.04338         9.01481
     2011.83299        40.59590         9.01793
     2011.83572        35.34543         9.09740
     2011.83846        41.73396         8.96339
     2011.84120        46.58749         8.90573
     2011.84394        53.34202         8.88547
     2011.84668        45.26255         8.96183
     2011.84941        35.50908         8.98832
     2011.85215        33.27560         9.04130
     2011.85489        34.56013         9.20025
     2011.85763        34.26066         9.23453
     2011.86036        50.84319         9.04909
     2011.86310        51.00072         9.09117
     2011.86584        37.51525         9.28440
     2011.86858        31.20078         9.21272
     2011.87132        45.89530         8.99455
     2011.87405        40.10883         8.91352
     2011.87679        25.25936         8.96806
     2011.87916        33.60455        11.14346
     2011.88227        37.85742         9.03039
     2011.88501        36.55195         9.07559
     2011.88774        26.41348         9.20181
     2011.89048        38.63400         8.92287
     2011.89322        46.97853         9.25167
     2011.89596        40.48306         9.12234
     2011.89869        42.09959         9.31245
     2011.90143        34.06912         9.15662
     2011.90417        39.25765         9.14103
     2011.90668        28.28774        10.20224
     2011.90965        41.96970         8.99923
     2011.91238        37.87123         9.13792
     2011.91512        38.24876         9.11454
     2011.91786        48.97929         9.40751
     2011.92060        37.04082         9.03039
     2011.92334        30.38635         9.25635
     2011.92607        29.05487         9.20804
     2011.92881        37.57740         9.22986
     2011.93155        39.69193         9.20025
     2011.93429        37.25546         9.06312
     2011.93702        38.32399         9.11766
     2011.93976        40.30252         9.03819
     2011.94250        41.62805         9.18623
     2011.94524        43.28857         9.18623
     2011.94798        45.48410         9.03039
     2011.95071        46.40163         8.79042
     2011.95345        43.71316         9.16908
     2011.95619        42.43669         9.23142
     2011.95893        40.64822         8.96962
     2011.96165        46.90165         8.95092
     2011.96449        46.81085         9.29531
     2011.96714        39.97380         8.91508
     2011.96988        44.94533         8.75302
     2011.97262        41.52686         8.76860
     2011.97535        39.68139         8.86677
     2011.97809        34.98992         8.92910
     2011.98083        48.76045         8.94469
     2011.98357        48.40197         8.73120
     2011.98622        46.14795         9.25947
     2015.36755        29.31124         8.71250
     2015.37029        45.30777         8.55823
     2015.37303        29.66230         8.65484
     2015.37577        35.92383         8.67198
     2015.37850        33.97536         8.94936
     2015.38124        40.78388         8.58316
     2015.38398        36.85841         8.55044
     2015.38672        45.91794         8.58939
     2015.38945        44.77847         8.65484
     2015.39219        46.24600         8.66419
     2015.39493        47.20153         8.65328
     2015.39767        38.34606         8.70159
     2015.40041        33.74258         9.03195
     2015.40314        47.08911         8.91041
     2015.40588        52.45864         8.77483
     2015.40862        47.29117         8.78574
     2015.41136        48.53770         8.67198
     2015.41410        44.25423         8.82314
     2015.41683        53.06775         8.67822
     2015.41957        40.89228         8.58472
     2015.42231        41.90881         8.52862
     2015.42505        34.50234         8.79197
     2015.42778        45.75487         8.66419
     2015.43052        56.38440         8.49278
     2015.43326        48.48193         8.63458
     2015.43600        55.31645         8.57381
     2015.43874        48.66998         8.59095
     2015.44147        54.67451         8.96650
     2015.44421        55.10304         8.81691
     2015.44695        38.27757         8.60498
     2015.44969        36.39210         8.60965
     2015.45243        34.63463         8.86366
     2015.45516        51.72215         8.69536
     2015.45790        56.70868         9.13168
     2015.46064        60.43921         8.94469
     2015.46338        51.71874         8.79821
     2015.46611        40.60027         8.84496
     2015.46885        35.95480         8.65952
     2015.47159        43.92933         8.74211
     2015.47433        40.89285         9.05065
     2015.47707        48.82738         9.00235
     2015.47980        47.69291         8.76392
     2015.48254        52.14644         9.17843
     2015.48528        46.24897         8.54264
     2015.48802        53.71650         8.45538
     2015.49076        58.10603         8.90573
     2015.49349        47.28455         9.19090
     2015.49623        55.10608         9.15038
     2015.49897        41.59161         8.92910
     2015.50171        52.58514         8.79042
     2015.50444        63.17267         8.62368
     2015.50718        50.36020         8.67043
     2015.50992        48.29173         8.63458
     2015.51266        58.61425         8.56446
     2015.51540        36.96978         8.83872
     2015.51813        47.18631         8.98520
     2015.52087        59.90084         8.65484
     2015.52361        53.04437         8.71250
     2015.52635        53.62090         8.71094
     2015.52908        55.49842         8.86366
     2015.53182        53.62095         8.59719
     2015.53456        45.86348         8.82470
     2015.53730        50.57401         9.06624
     2015.54004        54.23754         8.91196
     2015.54277        52.73407         8.89794
     2015.54551        51.48960         8.86054
     2015.54825        58.73012         8.61121
     2015.55373        49.71218         8.93378
     2015.55646        65.22971         9.03039
     2015.55920        59.49924         8.88080
     2015.56194        67.30477         8.95092
     2015.56468        46.08330         8.85431
     2015.56741        31.73582        15.27298
     2015.57015        58.35435        15.16857
     2015.57289        65.53488        14.77899
     2015.57563        43.93841        15.01274
     2015.57837        55.62494        15.16078
     2015.58110        62.90647        15.30103
     2015.58384        68.80700        15.60022
     2015.58658        81.93952        15.38829
     2015.58932        61.13405        15.60490
     2015.59206        57.27458        15.18883
     2015.59479        57.30111        15.40387
     2015.59753        62.97864        14.91301
     2015.60027        60.42817        15.74670
     2015.60301        81.90070        15.17169
     2015.60574        58.67122        15.85423
     2015.60848        69.62375        15.31038
     2015.61122        68.01428        15.01586
     2015.61396        73.98481        15.85734
     2015.61670        63.55034        15.52698
     2015.61943        56.08487        15.08286
     2015.62217        39.14640        15.58308
     2015.62491        63.55792        14.99092
     2015.62765        57.46245        15.34933
     2015.63039        60.78698        14.95976
     2015.63312        70.39551        17.29099
     2015.63586        51.02604        16.40743
     2015.63860        46.87757        15.40076
     2015.64134        46.27809        15.46777
     2015.64407        55.83962        15.55503
     2015.64681        64.66515        16.74869
     2015.64955        50.19868        15.16701
     2015.65229        54.98721        16.04434
     2015.65503        72.42674        15.57841
     2015.65776        57.92427        15.25584
     2015.66050        41.13879        15.25272
     2015.66324        37.39732        15.47400
     2015.66598        36.57885        15.98045
     2015.66872        62.44038        15.39920
     2015.67145        51.93991        15.08754
     2015.67419        58.30944        15.16545
     2015.67693        24.46897        15.62204
     2015.67967        -9.18451        18.57503
     2015.68240        30.53902        16.15810
     2015.68514        28.19055        16.28899
     2015.68788        37.62408        16.31704
     2015.69062        50.73961        16.63026
     2015.69336        36.33414        16.49781
     2015.69609        36.28367        15.49270
     2015.69883        78.64019        16.82193
     2015.70157        29.33372        15.67970
     2015.70431        42.70925        15.31349
     2015.70705        43.45578        15.55036
     2015.70978        27.26331        16.00850
     2015.71252        36.48684        15.62827
     2015.71526        52.38037        16.34353
     2015.71800        66.15189        17.13204
     2015.72347        51.84395        15.79189
     2015.72621        29.71048        15.80748
     2015.72895        30.22001        16.45729
     2015.73169        50.04554        15.94617
     2015.73442        76.77006        15.25272
     2015.73714        35.16947        16.28744
     2015.73990        53.48212        16.31860
     2015.74264        39.95265        15.04702
     2015.74538        44.49218        15.19194
     2015.74811        53.51771        15.42257
     2015.75085        71.58824        16.62870
     2015.75359         9.11276        18.16987
     2015.75633        32.80429        16.71441
     2015.75906        52.89282        16.29523
     2015.76180        39.69735        15.12182
     2015.76454        29.66788        17.63070
     2015.76728        37.01841        16.09732
     2015.77002        34.74594        15.43972
     2015.77275        56.55346        16.34821
     2015.77549        40.43399        17.44526
     2015.77823        48.22552        15.84176
     2015.78097        41.70205        16.47443
     2015.78371        50.97058        16.84063
     2015.78644        43.91511        15.45530
     2015.78918        22.66964        15.83708
     2015.79192        33.03016        16.13160
     2015.79466        39.27269        15.75449
     2015.79739        41.05122        15.93682
     2015.80013        40.76075        18.51114
     2015.80287        36.02828        15.12026
     2015.80561        33.93881        16.13005
     2015.80835        45.55434        15.84955
     2015.81108        23.26686        15.72021
     2015.81382         7.48939        16.94348
     2015.81656        28.77592        15.89942
     2015.81930        30.18545        15.57996
     2015.82203        38.93998        16.94816
     2015.82477        47.14851        16.34665
     2015.82751        27.80304        16.87336
     2015.83025        20.35556        18.51426
     2015.83299        56.08909        15.92747
     2015.83572        11.96462        18.10754
     2015.83846        38.46915        18.73086
     2015.84120        45.09768        17.25047
     2015.84394        19.45721        17.17723
     2015.84668         2.37473        17.65407
     2015.84941        36.30626        17.05880
     2015.85215        26.73079        16.99958
     2015.85489        16.81632        18.18701
     2015.85763        30.70785        17.87691
     2015.86036        30.01338        17.12269
     2015.86310        24.81391        17.37358
     2015.86584        52.82843        18.33038
     2015.86858        25.86896        16.99958
     2015.87132        16.75349        18.01092
     2015.87405        11.34302        17.75536
     2015.87679        25.26255        16.99647
     2015.87953        20.36508        18.38024
     2015.88227        28.80461        18.55010
     2015.88501        -4.96687        22.04694
     2015.88774         8.69166        18.16364
     2015.89048        32.60119        16.87803
     2015.89322        36.41472        17.77718
     2015.89596       -38.10375        20.68966
     2015.89869        41.64978        17.92054
     2015.90417        21.32583        19.29341
     2015.90691        21.00936        17.07906
     2015.90965        34.23389        16.94348
     2015.91512        30.33695        16.89673
     2015.91786        29.55848        18.08572
     2015.92060        29.50201        16.39652
     2015.92334        24.26953        16.88427
     2015.92607        12.29406        16.30925
     2015.92881         1.11059        17.83639
     2015.93155        28.77612        17.90652
     2015.93429        26.65665        17.46396
     2015.93702        32.28218        18.06235
     2015.93976        36.32670        18.67788
     2015.94524        29.11876        17.30345
     2015.94798         5.79129        19.34328
     2015.95071        28.07282        17.39228
     2015.95345        18.37235        19.09706
     2015.95619        30.37691        18.98331
     2015.95893        21.68840        18.55322
     2015.96167        33.19093        17.68524
     2015.96440        20.24546        16.52897
     2015.96714        21.03699        18.37713
     2015.96988        29.76152        18.18078
     2015.97262        22.74205        17.95015
     2015.97535        14.28858        17.45772
     2015.97809        20.08710        17.66810
     2015.98083        10.52763        17.90652
     2015.98357        19.53216        17.02296
     2015.98631        15.50869        19.42587
     2015.98904        11.12622        17.48889
     2015.99178        30.48775        17.90963
     2015.99452        20.79428        17.80211
     2015.99726        23.63980        17.56369
     2016.00000        21.74233        19.43678
     2016.00273        17.47886        18.21039
     2016.00547        16.28339        17.69303
     2016.00821        -1.59208        17.63070
     2016.01095        13.39345        17.08061
     2016.01368         4.04498        18.01092
     2016.01642        33.36450        17.14295
     2016.01916        17.16903        20.13490
     2016.02190        22.88356        16.99335
     2016.02464        40.00009        16.86245
     2016.02743        -1.67602        19.03473
     2016.03011        30.58115        18.17143
     2016.03285        31.41768        16.87959
     2016.03559        27.51420        18.36310
     2016.03833        48.03273        20.81744
     2016.04106        28.74326        16.84998
     2016.04380        30.63779        20.64291
     2016.04654        19.81332        16.88894
     2016.04928        11.42985        16.67701
     2016.05201         1.76137        18.88202
     2016.05475       -36.87710        17.12581
     2016.05749        24.96743        16.63026
     2016.06023        13.01396        16.57572
     2016.06297         3.00349        18.41453
     2016.06570        17.65502        17.63537
     2016.06844        10.01055        17.41098
     2016.07392        13.72960        19.61131
     2016.07666        19.06313        17.31592
     2016.07939        23.99266        18.40673
     2016.08213        20.96119        17.83639
     2016.08487        13.85772        18.40050
     2016.08761        12.25225        17.48422
     2016.09308         2.89030        18.69970
     2016.09582        11.05583         9.49165
     2016.09856        13.19036         9.73319
     2016.10130         3.65689         9.23921
     2016.10403         0.66542         9.13792
     2016.10677         3.94595         9.03507
     2016.10951         5.38247         9.64904
     2016.11225        11.76500        10.76479
     2016.11498        10.09053         9.21895
     2016.11772        -3.81394         9.83448
     2016.12046         0.60059         9.75968
     2016.12320       -10.18788         9.31245
     2016.12594         5.90765         9.59139
     2016.12867        11.45517         8.98209
     2016.13141        16.96970         9.11610
     2016.13415         9.85623         9.48854
     2016.13689        13.69376        10.22873
     2016.13957         5.16392         9.42776
     2016.14239        -2.91103         9.39971
     2016.14510         5.76634         9.05689
     2016.14784         5.43287         9.17688
     2016.15058        15.59640         9.13792
     2016.15331        20.36793         9.11922
     2016.15605        12.33446         8.86989
     2016.15879         0.57599         9.53840
     2016.16153        14.95252         9.41841
     2016.16427         4.31604         9.42776
     2016.16700         1.82857         9.44802
     2016.16974        11.37110         9.05221
     2016.17248         7.50463         9.62723
     2016.17522        11.56816         8.97897
     2016.17796        25.93969         9.48542
     2016.18069        19.26922         9.36699
     2016.18343        16.05074        10.74298
     2016.18617         0.92427         9.42932
     2016.18891        14.70180         8.96650
     2016.19164         3.65533         9.09273
     2016.19438        28.28786         9.00546
     2016.19712         5.77839         9.01014
     2016.19986        17.87292         9.64281
     2016.20260         8.52644         9.69112
     2016.20533        23.66597         9.70826
     2016.20807        20.88850         9.06624
     2016.21081        13.95603         9.11143
     2016.21355        19.09556         9.35920
     2016.21629        -2.37791        11.21514
     2016.21902         9.37362         8.86989
     2016.22176        20.55514         8.96495
     2016.22450        13.31867         8.95092
     2016.22724        -4.53980         9.19558
     2016.22997        17.13273         9.16441
     2016.23271        15.59826         9.14571
     2016.23545        20.51679         9.17532
     2016.23819        13.62332         9.18778
     2016.24093        25.71684         9.28284
     2016.24366        18.91037         8.83872
     2016.24640        27.12690         8.87612
     2016.24914        15.23143         9.18778
     2016.25188        20.64996        10.34249
     2016.25462        27.36049         9.58671
     2016.25735        24.93201         9.17376
     2016.26009        12.14554         9.17376
     2016.26283        15.89007         9.08494
     2016.26557        10.80260         9.54931
     2016.26830        23.78013         9.16908
     2016.27104        28.03666         9.19869
     2016.27378        34.72619         9.07870
     2016.27652        15.17971         9.00702
     2016.27926        36.96324         9.38569
     2016.28199        18.11777        10.19757
     2016.28473        17.35530         9.14571
     2016.28747        15.02783         9.96226
     2016.29021        11.03336         8.86989
     2016.29295        17.42889         9.07870
     2016.29568        17.91741         9.38257
     2016.29842        37.06594         9.43711
     2016.30116        27.61347         9.37790
     2016.30390        30.92800         8.92287
     2016.30663        39.14053         8.96650
     2016.30937        27.07906         9.01793
     2016.31211        29.92459         8.92131
     2016.31485        34.43611         9.21272
     2016.31759        28.63964         9.07559
     2016.32032        17.48617         9.11454
     2016.32306        13.94170         9.80799
     2016.32580        20.91623         9.24544
     2016.32854        22.40476         9.22518
     2016.33128        33.46629         8.91352
     2016.33401        23.17181         9.29531
     2016.33675        40.54134         8.88236
     2016.33949        40.26487         9.09273
     2016.34223        24.48140         9.02416
     2016.34496        33.08293         9.61164
     2016.34770        52.68946         9.16285
     2016.35044        41.54798         9.70826
     2016.35318        29.86751         8.95871
     2016.35592        23.25504         8.97741
     2016.35865        24.28257         8.78730
     2016.36139        31.43810         9.34206
     2016.36413        37.96863         9.20804
     2016.36687        31.51616         8.96495
     2016.36961        31.74368         8.84496
     2016.37234        33.55321         8.99455
     2016.37443        42.12760        12.56931
     2016.37799        31.00534         9.90616
     2016.37979        23.64287        15.12026
     2016.39513        45.21607        14.84600
     2016.39698        45.92797         8.89015
     2016.39972        53.25850         8.93066
     2016.40246        37.01203         9.25167
     2016.40520        40.71656         9.05533
     2016.40794        34.83408         8.92443
     2016.41067        27.77761         9.16441
     2016.41341        24.92314         8.94625
     2016.41615        30.68067         9.12545
     2016.41889        33.67120         9.43400
     2016.42162        46.75073         8.82781
     2016.42436        36.54126         9.00079
     2016.42710        39.58878         8.93534
     2016.42984        27.91031         9.42465
     2016.43258        43.93684         8.88547
     2016.43531        52.73137         9.21895
     2016.43805        45.23590         9.38881
     2016.44079        38.00943         9.08182
     2016.44355        27.24108         9.30154
     2016.44626        28.87248         9.16285
     2016.44900        37.75101         9.08026
     2016.45174        39.58054         9.22986
     2016.45448        43.22807         8.96339
     2016.45722        34.53560         8.94936
     2016.45995        41.05013         8.72652
     2016.46269        28.49965         8.85898
     2016.46543        34.23818         8.81067
     2016.46817        41.75771         9.00079
     2016.47091        47.35624         8.84651
     2016.47364        43.08377         9.21895
     2016.47638        59.13030         9.16285
     2016.47912        33.56583         9.08338
     2016.48186        28.22535         9.52905
     2016.48459        38.65388         8.83405
     2016.48733        34.42041         9.20804
     2016.49007        52.76994         8.91196
     2016.49281        43.33147         8.92287
     2016.49555        41.92600         8.90417
     2016.49828        41.27253         8.97585
     2016.50102        51.40405         9.03819
     2016.50376        62.48158         8.86054
     2016.50650        33.77711         9.31245
     2016.50924        47.26764         8.77172
     2016.51197        30.61417         9.14103
     2016.51471        42.84970         8.88703
     2016.51745        41.02523         9.63658
     2016.52019        34.59875         8.95560
     2016.52292        42.12628         9.05065
     2016.52566        38.32281         9.12545
     2016.52840        44.95034         8.81379
     2016.53114        43.02987         9.26570
     2016.53388        43.10340         8.86054
     2016.53661        54.12393         9.11454
     2016.53935        50.23845         8.61277
     2016.54209        37.14898         8.97741
     2016.54483        26.11151         8.77951
     2016.54757        41.08804         8.68757
     2016.55030        48.80357         9.05844
     2016.55304        45.69810         9.08026
     2016.55578        55.11763         9.33738
     2016.55852        42.91815         8.75769
     2016.56125        50.31268         9.06624
     2016.56399        53.54521         8.67510
     2016.56673        59.12974         9.55710
     2016.56947        56.03627         9.76280
     2016.57221        61.05380         8.84340
     2016.57494        51.60132         8.71873
     2016.57768        69.20185         8.82314
     2016.58042        54.79038         9.03351
     2016.58316        49.73991         8.75613
     2016.58590        57.11744         9.06779
     2016.58863        53.59397         8.81535
     2016.59137        35.95250         8.78886
     2016.59411        43.88002         8.56446
     2016.59685        56.41755         8.74834
     2016.59958        40.22108         8.95404
     2016.60232        39.36561         9.39036
     2016.60506        41.51114         9.09584
     2016.60780        43.88967         8.92287
     2016.61054        42.96520         8.85431
     2016.61327        49.61972         9.25947
     2016.61601        44.35625         8.78418
     2016.61875        39.62078         9.13480
     2016.62149        60.01931         8.80132
     2016.62423        50.11784         9.10208
     2016.62696        49.24637         8.87612
     2016.62970        51.33690         8.63614
     2016.63244        41.74742         9.38881
     2016.63518        41.93595         8.73899
     2016.63791        50.99948         9.06779
     2016.64065        48.82801         9.11143
     2016.64339        41.17854         8.68445
     2016.64613        47.51807         8.63303
     2016.64887        32.39260         9.15506
     2016.65183        42.22058        10.12433
     2016.65434        38.26365         8.97274
     2016.65708        43.58818         8.99611
     2016.65982        28.76771         8.83249
     2016.66256        53.13824         9.06156
     2016.66529        49.04277         9.42932
     2016.66803        53.96929         9.85941
     2016.67077        23.37182         8.98832
     2016.67351        37.43235         8.94625
     2016.67624        42.93788         9.09740
     2016.67898        41.69041         8.83561
     2016.68172        42.95394         9.08649
     2016.68446        47.44347         9.48854
     2016.68720        41.37599         9.30466
     2016.68993        31.34852         8.71718
     2016.69267        39.34105         8.76548
     2016.69541        37.25558         9.18623
     2016.69815        49.50311         8.52550
     2016.70089        41.86564         8.82626
     2016.70362        37.35517         9.61164
     2016.70636        50.18369         9.21428
     2016.70910        47.45622         9.36543
     2016.71184        54.69575         8.95871
     2016.71457        36.84128         9.01637
     2016.71731        47.16581         8.93066
     2016.71924        30.94716        13.40145
     2016.72553        37.18039         8.87145
     2016.72826        32.92292         8.97741
     2016.73100        37.61945         8.83093
     2016.73374        41.07198         8.79197
     2016.73648        38.56851         8.89950
     2016.73921        48.78204         9.03507
     2016.74195        40.00457         8.85119
     2016.74469        38.15109         9.04598
     2016.74743        48.35762         9.40283
     2016.75017        54.00015         8.88391
     2016.75290        33.35168         9.02105
     2016.75564        42.23121         8.53797
     2016.75838        38.21674         8.80756
     2016.76112        30.81427         8.84651
     2016.76386        25.49679         8.78107
     2016.76659        23.00032         9.00546
     2016.76933        38.18885         8.75457
     2016.77207        37.27438         9.30154
     2016.77481        26.91691         8.98520
     2016.77754        29.07644         8.87768
     2016.78028        23.74296         8.82626
     2016.78302        19.56549         9.02884
     2016.78576        39.42702         8.87768
     2016.78850        30.06555         8.95248
     2016.79123        30.15508         9.24388
     2016.79397        33.82861         8.75769
     2016.79671        23.88414         8.89950
     2016.79945        22.12366         8.86989
     2016.80219        17.67319         9.15038
     2016.80492        23.00072         8.94313
     2016.80766        28.34225         8.96650
     2016.81040        16.10078         9.10052
     2016.81314        22.48831         8.74211
     2016.81587        17.09684         9.04286
     2016.81861        12.00836         8.92443
     2016.82135        15.68489         9.10052
     2016.82409        27.30342         8.95092
     2016.82683        19.79295         9.11922
     2016.82956        19.21848         9.14571
     2016.83230        16.80301         9.31557
     2016.83504        39.94854         9.19402
     2016.83778        17.10606         9.37011
     2016.84052        21.93959         8.81691
     2016.84325         9.29912         8.97118
     2016.84599         8.08265         9.26102
     2016.84873        26.12518         9.83916
     2016.85147        23.84471         8.98053
     2016.85420        22.30624         9.26726
     2016.85694        20.02476         9.39192
     2016.85968         0.55529         9.47607
     2016.86242        14.97482         8.84496
     2016.86516        30.69535         9.29842
     2016.86789        24.49288         9.18467
     2016.87063        32.09641         9.05377
     2016.87337        22.68293         9.24232
     2016.87611        19.82046         9.09273
     2016.87885        19.94099         9.31712
     2016.88158        15.99852         8.88859
     2016.88386        10.75710        11.89301
     2016.89029        17.16127        11.38032
     2016.89253        17.74363         8.97897
     2016.89527        17.16816         9.44490
     2016.89801        13.93069         9.26570
     2016.90075        22.97722         9.02884
     2016.90349        34.03875         9.61944
     2016.90622        23.55928         9.58048
     2016.90896        21.10281         9.17999
     2016.91170        15.87933         8.88703
     2016.91444        16.77486         8.83872
     2016.91718        26.14439         9.45737
     2016.91991        16.63092         9.20025
     2016.92265         8.88145         8.87768
     2016.92539        -1.11002         9.08961
     2016.92813        15.37451         9.11766
     2016.93086        10.02503         8.87768
     2016.93360        21.43856         9.00702
     2016.93634        21.74609         8.91041
     2016.93908         8.33362         8.88391
     2016.94182        16.35015         8.82470
     2016.94455        24.32068         9.15038
     2016.94729        18.52421         8.81535
     2016.95003        17.50673        10.89413
     2016.95368        34.44611        14.33643
     2016.95551        25.57379         8.83249
     2016.95824        26.86532         9.13480
     2016.96098        23.74785         8.58472
     2016.96372         9.19138         8.74211
     2016.96646        12.29991         8.79042
     2016.96919         0.12543         8.99144
     2016.97193        10.93896         9.03663
     2016.97467        22.06249         8.84963
     2016.97741        14.86202         8.59563
     2016.98015        18.68855         8.54732
     2016.98288        16.52708         8.74211
     2016.98562        19.88360         8.73432
     2016.98836        14.11913         8.65173
     2016.99218        13.77860        17.43279
     2016.99384        16.66319         8.64393
     2016.99657         7.66672         8.62212
     2016.99931        18.42225         8.39305
     2017.00205        16.45878         8.71094
     2017.00479        18.06930         8.78730
     2017.00752        12.62283         8.49901
     2017.01300        20.03689         9.15818
     2017.01574        19.09742         8.53953
     2017.01848        16.42695         8.67510
     2017.02121        17.46948         8.74834
     2017.02395        18.10500         9.19246
     2017.02669        17.18253         8.90106
     2017.02943        15.46006         8.47252
     2017.03216        -1.28841         8.95715
     2017.03490         0.49212         9.01793
     2017.03764        -2.25435         8.64549
     2017.04038         3.80518         8.48966
     2017.04312        12.21070         8.75925
     2017.04585        20.16023         9.11299
     2017.04859        25.81676         9.30466
     2017.05133        28.66029         9.25323
     2017.05407        34.92982         8.67978
     2017.05681        32.84035         8.39772
     2017.05954        20.13088         8.40396
     2017.06228        24.70640         8.62368
     2017.06502        18.66193         9.06779
     2017.06776        17.12446         8.66419
     2017.07049        18.26799         8.61588
     2017.07323        15.78552         8.63770
     2017.07597         0.25505         9.34985
     2017.07871        10.91057         8.59874
     2017.08145         7.53710         8.34162
     2017.08418         2.75463         8.72808
     2017.08692         9.12316         8.71873
     2017.08966        11.49069         8.41798
     2017.09240         8.49022         8.92910
     2017.09514        26.88075         8.70938
     2017.09787        20.40327         8.29955
     2017.10061        14.68380         8.55823
     2017.10335        14.95433         9.06468
     2017.10609         9.24186         8.48031
     2017.10882         8.83539         8.98365
     2017.11156        24.96892         8.68289
     2017.11430        13.43945         8.66263
     2017.11704         9.54797         8.84496
     2017.11978        11.45350         8.73743
     2017.12251        11.29603         8.58316
     2017.12525        20.64956         8.41954
     2017.12799        33.96209         9.27349
     2017.13073        30.22662         8.57849
     2017.13347        21.11715         8.51615
     2017.13620        19.69367         8.77327
     2017.13894         4.43020         8.72185
     2017.14168         9.23173         8.78886
     2017.14442        15.99826        10.11965
     2017.14715        19.77779         9.30466
     2017.14989        18.48529         9.27817
     2017.15263        21.91085         9.17999
     2017.15537        14.87937         9.01637
     2017.15811        16.48490         8.99923
     2017.16084        18.65643         8.88859
     2017.16358        14.39296         9.41062
     2017.16632        31.15049         8.82937
     2017.16906        24.75202         8.99767
     2017.17180        24.18855         8.63770
     2017.17453        25.95807         8.97585
     2017.17727        27.35260         9.33894
     2017.18001        15.36713         9.09740
     2017.18275         8.46966         8.74055
     2017.18548        14.79219         9.19558
     2017.18822        20.72472         9.02572
     2017.19096        13.93324         9.32803
     2017.19370        23.46077         9.28128
     2017.19644        30.07630         8.95871
     2017.19917        22.00583         9.04286
     2017.20191        27.14036         8.79353
     2017.20465        29.17989         9.43088
     2017.20739        19.92142         8.98209
     2017.21013        31.37694         9.60385
     2017.21286        19.02047         9.03819
     2017.21560        10.57400         9.02260
     2017.21834         8.62153         8.72808
     2017.22108         7.50606         8.94313
     2017.22381        32.14059         9.52594
     2017.22655        24.15912         9.05065
     2017.22929        20.60164         8.95248
     2017.23203        15.29017         9.05377
     2017.23477        19.77170         8.79353
     2017.23750        15.93123         9.00079
     2017.24024        18.23876         9.38257
     2017.24298        29.88329         8.96650
     2017.24572        14.57382         9.30622
     2017.24846        16.63734         9.22674
     2017.25119        14.66787         8.90261
     2017.25393        14.49640         8.88080
     2017.25667        21.92293         8.77951
     2017.25941        16.66746         9.01014
     2017.26214        13.30799         9.69579
     2017.26488        25.16952         9.04598
     2017.26762        31.33904         8.90106
     2017.27036        36.08557         9.08338
     2017.27310        21.10110         9.41062
     2017.27583        20.41363         9.00702
     2017.27857        20.16616         9.23453
     2017.28131        20.07369         9.17688
     2017.28405        25.46921         9.05533
     2017.28679        28.78074         8.65173
     2017.28952        19.52627         8.78730
     2017.29226        24.90080         8.97585
     2017.29500        25.70333         9.15038
     2017.29774        19.84886         9.01949
     2017.30047        21.38839         8.66887
     2017.30321        24.23091         8.90106
     2017.30595        22.34944         8.85742
     2017.30869        17.16297         8.95248
     2017.31143        25.61950         8.94780
     2017.31416        20.26403         8.90261
     2017.31690        27.14556         8.84963
     2017.31964        32.45909         8.89950
     2017.32238        18.54361         9.00390
     2017.32512        30.56314         9.33271
     2017.32785         9.71367         9.13792
     2017.33059        20.97220         9.05065
     2017.33333        17.55973         9.02884
     2017.33607        24.90726         8.86521
     2017.33880        34.28479         9.00702
     2017.34154        44.56831         9.27505
     2017.34428        14.60284         9.14883
     2017.34702        23.86437         8.64705
     2017.34976        27.14690         9.44646
     2017.35249        23.56143         8.86833
     2017.35523        28.84096         9.29687
     2017.35797        25.08649         9.17064
     2017.36071        15.10201         9.40906
     2017.36344        17.40154         9.13168
     2017.36618         8.51007         9.25947
     2017.36892        19.95260         9.14415
     2017.37166        15.28713         9.14571
     2017.37440        18.98166         8.87768
     2017.37713        22.58619         9.41374
     2017.37987        22.75271         9.17999
     2017.38261        29.85924         8.88547
     2017.38535        26.38177         9.01014
     2017.38809        27.55430         9.02416
     2017.39082        28.07283         9.14259
     2017.39356        33.44836         9.26726
     2017.39630        18.11788         9.10987
     2017.39904        24.97341         9.26414
     2017.40177        28.06594         8.91196
     2017.40451        27.27847         9.47763
     2017.40725        32.74700         9.12234
     2017.40999        32.36553         9.43711
     2017.41273        33.55306         9.11610
     2017.41546        16.59858         9.17220
     2017.41820        36.09711         9.17220
     2017.42094        31.60064         9.16597
     2017.42368        40.83617         9.19869
     2017.42642        29.98570         8.84807
     2017.42915        36.61923         8.77951
     2017.43189        37.58376         8.87145
     2017.43463        44.05728         9.39192
     2017.43737        25.74381         9.12545
     2017.44010        41.00134         9.42621
     2017.44284        31.46587         8.91196
     2017.44558        47.35540         8.82002
     2017.44832        33.21093         9.01949
     2017.45106        38.02946         8.93690
     2017.45379        37.54698         9.48386
     2017.45653        23.83851         9.50880
     2017.45927        35.83504         8.87456
     2017.46201        43.01657         9.14727
     2017.46475        37.38410         9.16597
     2017.46748        59.00463         9.35452
     2017.47022        33.82516         9.62099
     2017.47296        30.68568         9.13948
     2017.47570        37.12921         8.70315
     2017.47843        34.99074         9.32024
     2017.48117        39.04527         9.64437
     2017.48391        34.65480         9.18467
     2017.48665        37.83233         9.19713
     2017.48939        48.54585         9.01014
     2017.49212        34.29738         9.14727
     2017.49486        44.25491         9.18467
     2017.49760        37.48144         9.18934
     2017.50034        38.64297         8.89950
     2017.50308        48.34350         9.23142
     2017.50581        37.81903         8.90261
     2017.50855        27.78955         9.18623
     2017.51129        35.77908         9.81578
     2017.51403        56.18561         9.45270
     2017.51676        34.32514         9.09584
     2017.51950        36.39767         9.26882
     2017.52224        36.61420         9.22363
     2017.52498        26.70973         9.54775
     2017.52772        35.99625         9.79552
     2017.53045        34.35478         9.28440
     2017.53319        26.21931         9.19090
     2017.53593        32.05684         9.43867
     2017.53867        44.81037         9.26882
     2017.54141        39.25390         9.05377
     2017.54414        34.52443         8.90885
     2017.54688        32.47995         9.20337
     2017.54962        41.51948         9.41062
     2017.55236        39.85601         9.29531
     2017.55509        44.21354         9.03195
     2017.55783        41.00607         9.43088
     2017.56057        30.93860         9.43400
     2017.56331        31.46513         9.07870
     2017.56605        40.22365         9.03663
     2017.56878        31.92718         9.02105
     2017.57152        43.85671         9.39504
     2017.57426        37.00324         9.27505
     2017.57700        44.83377         9.09273
     2017.57974        33.64230         8.98053
     2017.58247        34.91683         9.47451
     2017.58521        32.88935         9.18934
     2017.58795        32.47788         9.56645
     2017.59069        20.67941         9.62567
     2017.59342        36.30394         9.11922
     2017.59616        34.50947         9.25791
     2017.59890        46.78500         9.19402
     2017.60164        43.69152         9.39504
     2017.60438        24.19405         9.21739
     2017.60711        36.20158         9.06156
     2017.60985        34.94111         8.97897
     2017.61259        42.36164         9.02572
     2017.61533        45.22017         9.34050
     2017.61807        40.22870         9.70514
     2017.62080        37.26922         9.38257
     2017.62354        19.69475         9.48386
     2017.62628        47.47028         9.61320
     2017.62902        54.71781         9.66151
     2017.63175        50.27334         9.47763
     2017.63449        31.67587         9.03819
     2017.63723        32.53040         9.27972
     2017.63997        40.49792         9.38569
     2017.64271        47.11145         8.92287
     2017.64544        64.16298         9.53373
     2017.64818        29.06251         9.84383
     2017.65092        35.79704         9.02884
     2017.65366        32.24257         8.86054
     2017.65639        51.19710         9.77994
     2017.65913        52.02462         9.09117
     2017.66187        39.75415         9.24077
     2017.66461        35.19168         9.59139
     2017.66735        34.15321         9.42932
     2017.67008        40.47474         8.99611
     2017.67282        40.61827         9.39816
     2017.67556        38.82880         9.52438
     2017.67830        32.78332         9.07870
     2017.68104        28.16885         9.37946
     2017.68377        30.77438         9.19402
     2017.68651        41.71591         9.88123
     2017.68925        52.69244         9.44958
     2017.69199        49.71597         9.13013
     2017.69472        39.40549         9.07559
     2017.69746        29.69702         9.53996
     2017.70020        44.98455         9.32647
     2017.70294        44.60308         9.37166
     2017.70568        34.16861         9.22363
     2017.70841        35.94114         9.13792
     2017.71115        30.55067         9.43244
     2017.71389        34.84519         9.09584
     2017.71663        48.18372         9.34206
     2017.71937        40.43425         9.19869
     2017.72210        30.10778         9.25947
     2017.72484        37.88431         8.92443
     2017.72758        27.39284         9.45737
     2017.73032        41.03537         9.08961
     2017.73305        39.29589         9.32336
     2017.73579        35.97942         8.90885
     2017.73853        29.78495         9.35920
     2017.74127        34.51448         8.90261
     2017.74401        48.13801         9.30310
     2017.74674        42.60554         9.08494
     2017.74948        40.00107         9.46828
     2017.75222        36.91959         9.16285
     2017.75496        26.75012         9.01170
     2017.75770        28.41865         9.44802
     2017.76043        26.82518         9.06935
     2017.76317        30.81371         9.94045
     2017.76591        34.20224         9.12701
     2017.76865        39.39077         9.48230
     2017.77138        23.79829         9.14103
     2017.77412        22.27082         9.23765
     2017.77686        32.20335         9.14571
     2017.77960        34.67388         9.77682
     2017.78234        19.63641         9.55087
     2017.78507        15.42794         9.73163
     2017.78781        25.84647         9.35296
     2017.79055        23.92099         9.27972
     2017.79329        22.58152         9.71293
     2017.79603        20.30105         9.29375
     2017.79876        34.71958         9.94980
     2017.80150        35.42411         9.28596
     2017.80424        32.52964         9.12078
     2017.80698        15.64816         9.50724
     2017.80971        26.86669         8.93378
     2017.81245        21.25322         9.00079
     2017.81519        19.55775         9.46672
     2017.81793        24.40728         8.99611
     2017.82067        22.86781         9.47919
     2017.82340        27.45734         9.09896
     2017.82614        24.12786         9.30310
     2017.82888        25.69239         9.12701
     2017.83162        25.55492         9.14415
     2017.83436        13.00645         9.11299
     2017.83709        12.72498         9.49165
     2017.83983        18.78951         9.51503
     2017.84257        15.39204         9.27972
     2017.84531         8.76156         8.85119
     2017.84804        15.19209         9.05689
     2017.85078        27.62162         9.01170
     2017.85352        23.55315         8.98365
     2017.85626         5.16368         9.97317
     2017.85900        24.10221         9.63814
     2017.86173        28.47974         9.12078
     2017.86447        26.63326         9.21116
     2017.86721        34.14879         9.12078
     2017.86995        22.68232         9.03507
     2017.87269        27.52685         9.11454
     2017.87542        28.25538         9.22986
     2017.87816        22.63891         9.18467
     2017.88090        31.22344         9.09273
     2017.88364        28.48896         9.51503
     2017.88637        27.96149         9.10675
     2017.88911        22.55302         9.72228
     2017.89185        18.70955         9.34361
     2017.89459         7.63108         9.26414
     2017.89733        26.48161         9.28128
     2017.90006        28.97413         9.25012
     2017.90213        10.34134        13.26120
     2017.90588        30.79535        10.13056
     2017.90828        20.93772         9.52126
     2017.91102        24.77225         9.75812
     2017.91375        22.24078         9.74410
     2017.91649        32.07531         9.10364
     2017.91923        33.13183         9.53061
     2017.92197        31.38536         9.07403
     2017.92470        22.80589         9.30777
     2017.92744        18.68842         9.18311
     2017.93018        26.43195         9.10364
     2017.93292        14.26248         9.27972
     2017.93566        31.07301         9.59918
     2017.93839        30.12653         8.98832
     2017.94113        20.97406         8.97118
     2017.94387        31.18159         9.32492
     2017.94661        35.80012         8.82002
     2017.94935        25.31265         9.45425
     2017.95208        28.57218         9.45270
     2017.95482        25.63271         9.46049
     2017.95756        26.83823         8.98676
     2017.96030        38.15876         9.14883
     2017.96303        20.78329         9.02572
     2017.96577        12.58182         9.52126
     2017.96851        25.40335         9.46205
     2017.97125        16.99688         9.43088
     2017.97399        22.16841         9.02105
     2017.97672        26.61293         8.92910
     2017.97946        23.18046         9.44646
     2017.98220        22.09699         9.02416
     2017.98494        22.15052         9.58204
     2017.98767        13.70805         9.53373
     2017.99041        22.73558         8.90261
     2017.99315         4.43811         9.17064
     2017.99589         5.48763         8.73120
     2017.99863        14.76616         8.51148
     2018.00136         5.42969         9.03195
     2018.00410        10.43322         8.63458
     2018.00684        11.81875         8.53485
     2018.00958        18.04628         9.21739
     2018.01232        17.02580         8.60498
     2018.01505        14.51133         9.39036
     2018.01779        20.79786         8.82002
     2018.02053        14.80839         8.96339
     2018.02327        18.11592         9.77527
     2018.02600        26.49945         9.54152
     2018.02874        11.81698         8.98209
     2018.03148         3.32150         8.89171
     2018.03422        14.13903         8.77951
     2018.03696         3.13956         8.79509
     2018.03969         6.70509         8.93845
     2018.04243        12.34962         9.10364
     2018.04517        14.07515         9.02884
     2018.04791        18.28768         8.93066
     2018.05065        20.65220         9.02416
     2018.05338        10.54773         8.68757
     2018.05612        11.29926         8.92599
     2018.05886        13.20379         9.07091
     2018.06160         1.18232         9.28596
     2018.06707        30.28138         8.83093
     2018.06981         6.97390         9.11922
     2018.07255        -1.70457         8.95560
     2018.07529         5.56696         9.13480
     2018.07802        10.41449         8.91196
     2018.08076        12.66902         9.31089
     2018.08350        11.72955         9.01481
     2018.08624        19.10608         8.89171
     2018.09171        10.16313         9.36231
     2018.09445        15.46666         9.13168
     2018.09719        18.08219         8.96962
     2018.09993         8.45672         9.13480
     2018.10266        13.63825         9.10052
     2018.10540         2.06478         9.37634
     2018.10814        14.64030         9.19558
     2018.11088        14.03183         8.83093
     2018.11362        19.86736         9.19402
     2018.11635         9.51589         8.99144
     2018.11909        11.34242         9.67865
     2018.12183         8.08395         9.23921
     2018.12457        15.32747         9.18778
     2018.12731        15.82200         8.77172
     2018.13004        16.70053         9.22986
     2018.13278        19.77806         8.90729
     2018.13552        15.34059         9.27193
     2018.13826        13.63212         9.28752
     2018.14099        16.93565         9.08338
     2018.14373        17.72617         8.99300
     2018.14647        19.73870         9.55087
     2018.14921        20.29723         9.43400
     2018.15195        18.74776         9.16597
     2018.15468        14.86329         9.05533
     2018.15742        24.87782         8.89015
     2018.16016        13.69535         8.78107
     2018.16290         7.56187         9.31868
     2018.16564        10.07340         9.05377
     2018.16837        22.20893         8.96495
     2018.17111        14.32246         9.01481
     2018.17385         7.19699         9.24700
     2018.17659        18.18752         9.39348
     2018.17932         7.11905         9.10675
     2018.18206         3.03357         9.37634
     2018.18480        31.28110         9.23142
     2018.18754        22.32463         9.04286
     2018.19028        16.65716         9.08182
     2018.19301        24.96469         9.10364
     2018.19575        14.53322         9.51970
     2018.19849        25.49275         8.83249
     2018.20123        31.69127         9.01637
     2018.20397        27.01580         8.98832
     2018.20670        27.24333         9.08494
     2018.20944        28.12186         8.86054
     2018.21218        25.61539         8.72029
     2018.21492        15.57892         9.26102
     2018.21765        21.68344         8.85119
     2018.22039        15.65097         8.98832
     2018.22313        13.17750         9.03974
     2018.22587        15.97303         9.12234
     2018.22861        18.72056         8.85586
     2018.23134        20.00809         8.83093
     2018.23408        25.87262         8.60186
     2018.23682        30.30214         8.89950
     2018.23956        22.99867         8.86677
     2018.24230        31.80620         8.76704
     2018.24503        25.12973         8.73587
     2018.24777        30.58126         8.99767
     2018.25051        35.67979         8.95871
     2018.25325        21.81332         8.92131
     2018.25598        21.54984         8.87768
     2018.25872         1.66237         9.28440
     2018.26146        10.20590         8.93378
     2018.26420        11.98043         8.72341
     2018.26694         8.89896         9.12078
     2018.26967        24.24949         8.60809
     2018.27241        19.18102         8.82937
     2018.27515        30.47954         8.64238
     2018.27789        27.57307         8.96806
     2018.28062        20.99560         9.21428
     2018.28336        18.55513         8.72029
     2018.28610        18.03566         9.00079
     2018.28884        18.61519         8.89015
     2018.29158        33.04072         9.37011
     2018.29431        22.92624         9.23453
     2018.29705        27.71177         8.68133
     2018.29979        22.76230         8.60654
     2018.30253        27.41583         8.93222
     2018.30527        19.18436         8.67510
     2018.30800        30.29389         8.81691
     2018.31074        35.51642         8.53174
     2018.31348        39.48494         8.62523
     2018.31622        30.77647         8.63147
     2018.31895        35.28900         8.67354
     2018.32169        32.28953         8.80132
     2018.32443        32.38106         8.80600
     2018.32717        30.37159         8.59719
     2018.32991        35.03611         8.88080
     2018.33264        30.27764         8.81223
     2018.33538        33.07017         9.33738
     2018.33812        41.48570         9.12857
     2018.34086        33.89723         8.86833
     2018.34360        28.37376         8.81691
     2018.34633        26.74029         8.65173
     2018.34907        33.34081         8.73432
     2018.35181        19.46634         8.82002
     2018.35455        26.85987         9.17220
     2018.35728        31.81140         8.71250
     2018.36002        41.28393         8.65952
     2018.36276        35.31346         8.80756
     2018.36550        33.63699         8.52239
     2018.36824        26.85251         8.73743
     2018.37097        52.27304         9.06779
     2018.37371        36.97657         8.64861
     2018.37645        23.42610         8.97585
     2018.37919        19.82463         8.84963
     2018.38193        29.79016         8.67043
     2018.38466        35.34769         8.80288
     2018.38740        32.87621         9.07714
     2018.39014        36.52774         8.74055
     2018.39288        34.85927         8.65640
     2018.39561        31.88780         8.82002
     2018.39835        33.55133         9.00079
     2018.40109        38.57286         8.81223
     2018.40383        48.65939         8.69536
     2018.40657        44.64591         8.91820
     2018.40930        53.89744         8.77327
     2018.41204        43.53097         8.74678
     2018.41478        39.94150         8.63147
     2018.42299        38.75608         8.68445
     2018.42573        43.88061         8.70627
     2018.42847        41.27214         8.85898
     2018.43121        33.58267         9.02728
     2018.43394        41.72320         8.82626
     2018.43668        42.54073         8.60809
     2018.43942        40.60926         8.59251
     2018.44216        51.40278         8.64393
     2018.44490        43.48831         8.74367
     2018.44763        40.00684         8.83872
     2018.45037        36.84837         8.66419
     2018.45311        35.29090         8.65328
     2018.45585        42.08643         8.82937
     2018.45859        49.41596         8.89171
     2018.46132        41.93148         8.49745
     2018.46406        38.25501         8.84963
     2018.46680        42.62354         8.86677
     2018.46954        39.91307         8.69068
     2018.47227        42.82560         9.05065
     2018.47501        41.17713         8.85119
     2018.47775        44.31066         8.77951
     2018.48049        51.76018         9.04286
     2018.48323        29.46971         8.84807
     2018.48596        36.80924         8.73899
     2018.48870        39.06277         9.06156
     2018.49144        23.83730         9.12857
     2018.49418        34.49883         8.87768
     2018.49692        40.91136         9.44490
     2018.49965        46.18088         8.83716
     2018.50239        39.42841         8.74678
     2018.50513        28.57694         8.68913
     2018.50787        38.12447         8.64393
     2018.51060        53.43500         8.77795
     2018.51334        42.18653         9.29063
     2018.51608        38.26706         8.97897
     2018.51882        33.46758         8.80444
     2018.52156        43.75411         9.05689
     2018.52429        38.91064         8.99611
     2018.52703        40.09817         8.82626
     2018.52977        20.54370         9.13636
     2018.53251        60.01423         8.89482
     2018.53525        46.63175         8.67043
     2018.53798        35.32728         8.95715
     2018.54072        45.37281         8.64705
     2018.54346        56.92934         8.76081
     2018.54620        52.83687         8.86677
     2018.54893        53.53340         8.65017
     2018.55167        35.45193         8.82158
     2018.55441        32.05545         8.60498
     2018.55715        30.10398         9.06779
     2018.55989        40.82751         8.94469
     2018.56262        49.79704         8.68757
     2018.56536        42.89157         8.72652
     2018.56810        31.69710         8.88703
     2018.57084        34.66063         8.83561
     2018.57357        38.12315         9.07870
     2018.57631        40.70968         9.13480
     2018.57905        34.79121         9.19869
     2018.58179        35.64574         9.33738
     2018.58453        46.75327         9.16597
     2018.58726        37.48280         8.76548
     2018.59000        33.34433         8.82470
     2018.59274        38.88285         8.96027
     2018.59548        30.40138         8.71562
     2018.59822        35.40391         9.04286
     2018.60095        34.12944         8.72185
     2018.60369        37.08197         8.66731
     2018.60643        35.81150         8.67198
     2018.60917        47.13603         9.16908
     2018.61190        36.64755         8.85586
     2018.61464        38.20108         8.82781
     2018.61738        34.45561         8.67666
     2018.62012        42.58414         8.53953
     2018.62286        29.60567         9.35608
     2018.62559        49.47220         9.25012
     2018.62833        40.85072         8.95404
     2018.63107        32.86525         8.91041
     2018.63381        33.92378         9.03663
     2018.63655        37.69831         8.90885
     2018.63928        39.24684         9.17064
     2018.64202        43.12537         9.17532
     2018.64476        41.07090         9.04442
     2018.64750        27.51742         9.03507
     2018.65023        30.18095         9.25947
     2018.65297        36.76648         9.00702
     2018.65571        38.74201         8.93222
     2018.65845        39.12854         8.75613
     2018.66119        39.56207         9.04598
     2018.66392        33.83460         9.01793
     2018.66666        43.49212         9.26726
     2018.66940        30.50165         9.08494
     2018.67214        39.76918         9.13324
     2018.67488        37.67571         8.70159
     2018.67761        28.74424         9.08182
     2018.68035        34.78277         8.85586
     2018.68309        18.67330         9.06779
     2018.68583        38.59782         9.04286
     2018.68856        42.09735         8.82470
     2018.69130        48.61288         8.91352
     2018.69404        30.22241         9.17999
     2018.69678        36.52394         8.87924
     2018.69952        28.93747         8.93690
     2018.70225        35.47600         9.05221
     2018.70499        25.89552         8.70003
     2018.70773        16.42505         9.12701
     2018.71047        16.35358         9.06000
     2018.71321        35.30911         8.79042
     2018.71594        34.54764         9.11143
     2018.71868        24.67617         9.15194
     2018.72142        29.66870         8.73432
     2018.72416        37.25722         9.23297
     2018.72689        31.60075         9.04130
     2018.72963        28.39028         8.77327
     2018.73237        26.64981         8.74055
     2018.73511        29.15334         9.04909
     2018.73785        35.39887         8.84028
     2018.74058        30.67939         9.26414
     2018.74332        24.86092         8.91976
     2018.74606        25.27745         8.74211
     2018.74880        20.16398         9.19713
     2018.75154        32.98051         9.65995
     2018.75427        29.43304         8.78574
     2018.75701        29.73757         9.20025
     2018.75975        15.54309         9.02416
     2018.76249        25.43662         9.32647
     2018.76522        10.16715         9.09429
     2018.76796        14.49968         9.09429
     2018.77070        27.46921         8.79509
     2018.77344        29.20174         8.82158
     2018.77618        28.08127         9.00390
     2018.77891        20.32579         8.77951
     2018.78165        31.23832         8.98988
     2018.78439        33.57685         9.19869
     2018.78713        32.37538         8.78730
     2018.78987        24.22191         9.28440
     2018.79260        23.68644         8.83872
     2018.79534        27.26897         9.05844
     2018.79808        30.24049         8.89794
     2018.80082        36.90002         8.84963
     2018.80355        33.01155         8.89638
     2018.80629        36.07408         9.10987
     2018.80903         6.86861         9.23609
     2018.81177        22.06314         9.53061
     2018.81451        21.71367         8.97585
     2018.81724        19.53119         9.20337
     2018.81998        22.08872         8.91664
     2018.82272        28.80825         8.95715
     2018.82546        29.30978         8.86677
     2018.82820        29.73631         8.79197
     2018.83093        20.19284         8.74211
     2018.83367        14.84636         8.78262
     2018.83641        24.52789         8.84496
     2018.83915        15.89842         9.13168
     2018.84188        18.79895         9.14259
     2018.84462        28.92148         8.82626
     2018.84736        24.11401         8.99923
     2018.85010        29.51854         9.12857
     2018.85284        23.51706         9.15194
     2018.85557        23.18559         9.19869
     2018.85831        26.12212         8.79821
     2018.86105        22.56065         8.89638
     2018.86379        25.03218         9.15194
     2018.86653        29.74871         8.66108
     2018.86926        24.73424         9.40595
     2018.87200        24.55176         9.07559
     2018.87474        30.55329         8.84340
     2018.87748        27.92682         9.13168
     2018.88021        24.44435         9.13480
     2018.88295        30.23588         9.11922
     2018.88569        32.33041         8.98053
     2018.88843        34.77194         9.07091
     2018.89117        31.49646         9.27972
     2018.89390        24.16299         9.14883
     2018.89664        16.95452         9.41997
     2018.89938        28.85005         9.27349
     2018.90212        23.19058         9.10052
     2018.90485        37.47211         9.26726
     2018.90759        24.80264         9.08182
     2018.91033        31.53316         8.98365
     2018.91307        29.07569         9.30154
     2018.91581        28.03322         9.48386
     2018.91854        33.78075         9.12234
     2018.92128        34.35628         8.98365
     2018.92402        25.33981         9.06935
     2018.92676        30.72634         9.39504
     2018.92950        37.92186         9.35920
     2018.93223        30.49439         9.30933
     2018.93497        28.10592         9.20337
     2018.93771        27.29845         9.06312
     2018.94045        13.93498         8.97274
     2018.94318        30.75451         8.83405
     2018.94592        23.91903         9.11454
     2018.94866        27.82656         8.74055
     2018.95140        28.99009         9.27817
     2018.95414        39.13362         9.21739
     2018.95687        34.53815         9.18623
     2018.95961        41.14868         9.07091
     2018.96235        42.01521         9.25791
     2018.96509        18.64873         9.23609
     2018.96783        22.52626         9.09584
     2018.97056        30.59579         9.26102
     2018.97330        31.14232         9.17843
     2018.97604        22.40185         8.79042
     2018.97878        29.62238         8.96806
     2018.98151        18.71591         8.95404
     2018.98425        28.68043         9.82825
     2018.98699        31.54796         9.39192
     2018.98973        28.61149         8.72808
     2018.99247        24.99102         9.16753
     2018.99520        16.57755         9.03195
     2018.99794        17.74808         8.83249
     2019.00068        23.10861         9.21583
     2019.00342        26.88813         9.07714
     2019.00616        31.33266         8.92755
     2019.00889        36.09919         9.05844
     2019.01163        22.67972         9.07714
     2019.01437        33.80525         8.90106
     2019.01711        29.55078         8.85586
     2019.01984        24.03931         8.91508
     2019.02258        13.16283         8.54420
     2019.02532        22.13036         8.53329
     2019.02806        23.79089         8.84651
     2019.03080        15.06242         9.01014
     2019.03353        28.53995         8.89950
     2019.03627        18.40148         9.01949
     2019.03901        23.05101         8.96806
     2019.04175        24.14553         8.99455
     2019.04449        32.14606         8.58316
     2019.04722        22.80559         8.59251
     2019.04996        20.18112         8.82781
     2019.05270        22.33865         9.32647
     2019.05544        29.27818         9.23142
     2019.05817        21.84870         9.38725
     2019.06091        -0.11277         8.92755
     2019.06365        30.24976         9.15506
     2019.06639        32.72229         9.40595
     2019.06913        25.44882         9.35141
     2019.07186        19.60135         9.38881
     2019.07460        21.32288         8.95871
     2019.07734        26.17640         8.80444
     2019.08008        38.05393         8.84963
     2019.08282        25.72046         9.36231
     2019.08555        30.29199         9.19869
     2019.08829        26.62352         8.88859
     2019.09103        31.46205         8.89326
     2019.09377        34.36658         8.84963
     2019.09650        32.83010         8.58160
     2019.09924        33.09763         8.56446
     2019.10198        16.32716         8.52394
     2019.10472        25.69169         8.46629
     2019.10746        24.52722         8.49278
     2019.11019        20.21875         8.76704
     2019.11293        27.25328         8.88703
     2019.11567        19.75980         9.17688
     2019.11841        54.50533         8.24501
     2019.12115        51.32286         8.67354
     2019.12388        38.76739         8.54576
     2019.12662        33.10692         8.67043
     2019.12936        23.16945         8.84340
     2019.13210        25.79098         8.50836
     2019.13483        26.57950         8.91820
     2019.13757        28.19103         8.56290
     2019.14031        34.05956         8.65640
     2019.14305        33.46409         8.76704
     2019.14579        22.54362         8.58316
     2019.14852        25.03115         8.52862
     2019.15126        33.39467         8.20917
     2019.15400        27.48720         8.38993
     2019.15674        28.12173         8.43980
     2019.15948        25.18726         8.39928
     2019.16221        22.48779         8.57381
     2019.16495        28.52432         8.58784
     2019.16769        18.48385         8.60498
     2019.17043        22.45437         8.50836
     2019.17316        25.00490         8.67354
     2019.17590        16.99843         8.48187
     2019.17864        18.98596         8.39616
     2019.18138        37.27249         8.39461
     2019.18412        19.42502         8.40396
     2019.18685        27.89655         8.50213
     2019.18959        30.24107         8.65017
     2019.19233        28.49260         8.55199
     2019.19507        35.71513         8.31046
     2019.19780        20.78166         8.54576
     2019.20054        25.73019         8.79977
     2019.20328        23.57672         8.91352
     2019.20602        20.14025         9.51659
     2019.20876        24.95977         9.04909
     2019.21149        19.06930         8.97430
     2019.21423        31.72183         8.78262
     2019.21697        22.13736         9.20025
     2019.21971        38.33989         9.20025
     2019.22245        30.69042         9.13792
     2019.22518        13.98895         8.99767
     2019.22792        17.75747         8.94313
     2019.23066        35.68700         8.90261
     2019.23340        27.78153         8.92599
     2019.23613        30.93206         9.55866
     2019.23887        28.57259         9.03819
     2019.24161        21.35312         9.51659
     2019.24435        26.45565         9.23142
     2019.24709        25.09417         9.17220
     2019.24982        28.88970         8.96650
     2019.25256        22.19223         9.27505
     2019.25530        36.31276         8.92131
     2019.25804        16.84429         8.85898
     2019.26078        22.08182         8.85431
     2019.26351        28.24334         9.39192
     2019.26625        15.78387         9.07559
     2019.26899        35.82040         8.89638
     2019.27173        32.55693         9.89681
     2019.27446        22.93146         9.32959
     2019.27720        23.67799         9.51970
     2019.27994        30.21652         8.82781
     2019.28268        19.84704         9.08649
     2019.28542        44.34157         8.74834
     2019.28815        33.03410         9.00235
     2019.29089        37.76263         8.96806
     2019.29363        34.59916         8.86054
     2019.29637        40.02469         9.26726
     2019.29911        39.12422         8.85275
     2019.30184        41.58174         9.01170
     2019.30458        35.95627         9.13792
     2019.30732        39.76480         9.09117
     2019.31006        40.28533         8.79977
     2019.31279        31.83386         8.90417
     2019.31553        49.61339         8.74211
     2019.31827        33.14592         8.83249
     2019.32101        37.73544         8.89326
     2019.32375        23.09297         9.08961
     2019.32648        33.73350         8.74211
     2019.32922        43.08703         8.91820
     2019.33196        48.78256         9.15194
     2019.33470        46.01809         9.05221
     2019.33744        41.06262         8.99611
     2019.34017        26.90814         8.79821
     2019.34291        34.67167         9.06468
     2019.34565        32.35620         9.54152
     2019.34839        28.49173         9.31557
     2019.35112        32.31426         9.00546
     2019.35386        37.06779         8.73743
     2019.35660        32.83631         9.10831
     2019.35934        44.73884         9.23921
     2019.36208        50.61737         8.87924
     2019.36481        18.24190         9.07091
     2019.36755        30.70743         8.95560
     2019.37029        14.51096         8.90106
     2019.37303        28.99749         8.95404
     2019.37577        39.09101         9.36231
     2019.37850        30.55654         9.11143
     2019.38124        43.56907         9.21116
     2019.38398        41.51160         8.86210
     2019.38672        31.98013         8.98676
     2019.38945        46.21266         8.89015
     2019.39219        31.54919         9.33426
     2019.39493        17.22971         9.10675
     2019.39767        22.29524         8.94780
     2019.40041        37.55877         8.90885
     2019.40314        45.25430         8.95092
     2019.40588        43.13183         9.10831
     2019.40862        35.55636         8.96962
     2019.41136        43.85789         9.29375
     2019.41410        43.35641         9.05689
     2019.41683        40.79594         9.08182
     2019.41957        57.78247         9.48542
     2019.42231        40.53700         9.22051
     2019.42505        35.54753         8.81223
     2019.42778        46.37906         8.92443
     2019.43052        40.27959         9.60853
     2019.43326        35.23411         8.60654
     2019.43600        36.21764         9.13948
     2019.43874        27.07317         8.98209
     2019.44147        38.22970         9.18467
     2019.44421        30.56123         9.16285
     2019.44695        45.49276         9.25012
     2019.44969        32.90629         9.31712
     2019.45243        41.18481         9.17532
     2019.45516        45.86834         9.11610
     2019.45790        34.40487         9.41218
     2019.46064        37.55540         9.31401
     2019.46338        49.14693         9.77838
     2019.46611        45.32146         9.74098
     2019.46885        43.12898        10.32223
     2019.47159        51.35751         9.13636
     2019.47433        42.79704         9.45114
     2019.47707        37.92557         9.13636
     2019.47980        30.46110         9.31089
     2019.48254        31.99663         9.19713
     2019.48528        23.27016         9.64437
     2019.48802        28.34968         8.97118
     2019.49076        35.08421         8.82626
     2019.49349        36.05174         8.85275
     2019.49623        36.29227         9.16597
     2019.49897        42.67580         8.76081
     2019.50171        29.91133         8.91041
     2019.50444        25.96686         9.75345
     2019.50718        39.14638         9.20025
     2019.50992        23.94691         9.28284
     2019.51266        39.06244         8.80132
     2019.51540        31.97797         8.87145
     2019.51813        28.21450         9.07403
     2019.52087        38.43603         8.87924
     2019.52361        46.05756         9.58359
     2019.52635        37.74408         9.13636
     2019.52908        26.46961         9.31245
     2019.53182        33.41214         9.36231
     2019.53456        20.60967         9.08805
     2019.53730        34.23920         9.21428
     2019.54004        35.74873         9.25635
     2019.54277        31.27026         9.52282
     2019.54551        37.69978         9.64593
     2019.54825        37.80931         8.93222
     2019.55099        31.48184         9.14259
     2019.55373        51.74237         9.30466
     2019.55646        48.49790         9.74254
     2019.55888        18.04339        10.78505
