# ================= DQRFIT RESULTS ================
# INPUT FILE: series/CSHR.rad
# OUTPUT: LDETRENDED
# FILTER FUNCTION: f(t)
# f(t)=+line(t)+annual(t)+jumps(t)
# line(t)=+P 1+P 2*t
# annual(t)=+P 3*sin(2*pi*t+P 4)
# jumps(t)=+P 5*heav(t-2014.7100  )
# heav(t)=(t<0?0:1)
# TOTAL OBSERVATIONS MTOT= 2303
# INITIAL TIME INTERVAL= 2014.7652 - 2007.7016 =  7.0637
# TOTAL OBSERVATIONS AFTER PREFILTER M= 2280
# TIME-SPAN= 2014.7652 - 2007.7016 =  7.0637
# OBSERVATIONS: USED M=  2280 REJECTED MTOT-M=    23 %USED=   99.0013
# N=  5 PARAMETERS
# MAXSIG= 175.00000
# MAXRES=  84.93744
# SCALE FACTOR FOR LENGTHS: SCL=  10.00000
# SCALE FACTOR FOR SIGMAS: SCLSIG=   1.00000
# CHI^2=   3619.364 DOF=  2275 CHI^2/DOF=   1.59093
# RMS=      8.707 SDEV=      8.707 MEAN=    0.17348
#  P #       PARAMETER +-    SIGMA %error PARAMETER NAME
# P 1 =     -1605.09203 +-  156.543   9.75 YZERO                              
# P 2 =         0.63125 +-    0.078  12.33 SLOPE                              
# P 3 =         9.22057 +-    0.227   2.46 ANNUAL AMPLITUDE                   
# P 4 =         2.91491 +-    0.034   1.16 ANNUAL PHASE                       
# P 5 =       364.84542 +-    1.764   0.48 OFFSET 2014.7100                   
#       T            LDETRENDED       SIG_OBS
     2007.70157        18.00138         7.84163
     2007.70431        16.09165         7.96902
     2007.70705         3.60292         7.88704
     2007.70978        10.85919         7.87568
     2007.71252        11.56946         7.77604
     2007.71526        12.76674         7.59315
     2007.71800        18.25501         7.59063
     2007.72073        14.87028         7.58937
     2007.72347        14.54555         7.56035
     2007.72621        15.64882         7.59946
     2007.72895        10.15909         7.64739
     2007.73169        12.75837         7.74198
     2007.73442         7.71864         7.55657
     2007.73716        16.70591         7.69658
     2007.73990        17.57818         7.73820
     2007.74264        17.66645         7.59567
     2007.74538        23.38473         7.60576
     2007.74812        11.25599         7.74325
     2007.75085        26.34927         7.87064
     2007.75359        19.60954         7.89965
     2007.75633         8.81781         7.63856
     2007.75906        22.93708         7.60072
     2007.76180        13.92536         7.69658
     2007.76454        21.32963         7.77100
     2007.76728         8.35490         8.20363
     2007.77002        16.76117         8.13930
     2007.77275        13.05644         8.10272
     2007.77549        15.94071         7.49729
     2007.77823        15.71299         7.49224
     2007.78097        21.49026         7.46702
     2007.78371        13.78753         7.58432
     2007.78644        23.71180         7.64234
     2007.78918        23.13407         7.63225
     2007.79192        21.90534         7.70162
     2007.79466        25.60662         7.74325
     2007.79739        29.93289         7.57675
     2007.80013        26.44516         7.59693
     2007.80287        14.41643         7.63477
     2007.80561        10.98870         7.79748
     2007.80835         9.67097         7.86181
     2007.81108        10.64325         7.75586
     2007.81382        13.85152         7.72937
     2007.81656         6.15079         7.86812
     2007.81930         9.04306         7.66378
     2007.82203        10.88733         7.69784
     2007.82477         5.01661         7.68018
     2007.82751         4.31488         7.64234
     2007.83025         5.30415         7.66378
     2007.83299        10.41442         7.59315
     2007.83572        10.56269         7.49098
     2007.83846        12.81596         7.62973
     2007.84120        16.50724         7.70162
     2007.84394         8.84251         7.60072
     2007.84668         9.62278         7.72559
     2007.84941         5.76605         7.77856
     2007.85215        12.75432         8.08759
     2007.85489        17.12059         8.17588
     2007.85763        13.61687         7.82397
     2007.86036        12.93914         7.61081
     2007.86310         9.52141         7.78109
     2007.86584        20.56668         7.66000
     2007.86858         7.12395         7.78361
     2007.87132        18.14822         7.75838
     2007.87405        18.61050         7.57675
     2007.87679        19.16777         7.53891
     2007.87953        12.35304         7.55279
     2007.88227         7.70931         7.60198
     2007.88501         8.97858         7.52756
     2007.88774        -0.15515         7.63477
     2007.89048         4.60213         7.60324
     2007.89322         7.00140         7.76469
     2007.89596         7.26767         8.02830
     2007.89869         4.78394         7.73316
     2007.90143         3.84421         7.72685
     2007.90417         8.06849         7.81388
     2007.90691         1.73176         7.72433
     2007.90965        -2.78097         7.62468
     2007.91238         0.69430         7.61838
     2007.91513         7.82057         7.70919
     2007.91786         5.36684         7.67892
     2007.92060        -7.06988         7.88578
     2007.92334         3.70139         7.72433
     2007.92607         1.43866         7.90217
     2007.92881        -3.55807         7.80379
     2007.93155        -3.33380         7.69153
     2007.93429        -0.84353         7.65369
     2007.93702        -8.25625         7.62090
     2007.93976        -1.54798         7.59693
     2007.94250        -1.09271         7.72180
     2007.94524         1.27956         7.97155
     2007.94798         3.56583         7.79496
     2007.95071         1.85010         7.70919
     2007.95345         5.83138         7.83028
     2007.95619        -0.12935         7.84289
     2007.95893         8.79692         7.83280
     2007.96167         9.86419         7.79370
     2007.96440         3.05346         7.84289
     2007.96714         2.17073         7.69153
     2007.96988        -6.19899         7.74829
     2007.97262        -7.73372         7.95389
     2007.97535        -3.17445         7.82397
     2007.97809         2.36582         7.66757
     2007.98083         1.77309         7.66126
     2007.98357         2.57137         7.58306
     2007.98631         2.65664         7.87568
     2007.98904        -2.37709         7.89208
     2007.99178         3.98118         7.83658
     2007.99452        -0.75055         7.82397
     2007.99726         1.32572         7.68649
     2008.00000       -11.04401         7.89334
     2008.00273        -8.31673         7.74955
     2008.00547        -1.03946         7.53513
     2008.00821         5.89481         7.51242
     2008.01095         6.55108         7.47585
     2008.01368         8.03435         7.44179
     2008.01642         0.88863         7.54774
     2008.01916        -4.61410         7.62216
     2008.02127         2.05257        10.62536
     2008.04491         2.07564        17.81867
     2008.04654        -5.31639         7.73442
     2008.04928       -10.85811         7.68018
     2008.05201        -6.05884         7.54774
     2008.05475        -5.39757         7.50233
     2008.05749       -11.11730         7.54396
     2008.06023        -6.51103         7.66126
     2008.06297         0.00625         7.66126
     2008.06570        -6.78048         7.63099
     2008.06844         0.92779         7.51873
     2008.07118        11.33406         7.50360
     2008.07392         3.67833         7.54144
     2008.07666         8.20460         8.15570
     2008.07939        -0.60712         7.89460
     2008.08213         4.60415         7.55153
     2008.08487         0.48342         7.54522
     2008.08761        -6.50331         7.59315
     2008.09034         0.94496         7.64612
     2008.09308         2.38223         7.63225
     2008.09582         6.06251         7.82649
     2008.09856         1.37578         7.67387
     2008.10130        -3.55895         7.78109
     2008.10403        -5.83468         7.73063
     2008.10677        -0.65541         7.69153
     2008.10951        -5.27714         7.62468
     2008.11225        -0.48986         7.65495
     2008.11498       -10.03559         7.67009
     2008.11772        -2.90232         7.58306
     2008.12046        -6.21505         7.73694
     2008.12320        -5.27978         7.90596
     2008.12594        -1.75751         7.69532
     2008.12867        -9.85123         7.55153
     2008.13141        -6.66596         7.56918
     2008.13415        -2.97069         7.63099
     2008.13689       -11.01242         7.65243
     2008.13963        -3.79315         7.66883
     2008.14236        -9.54187         7.57675
     2008.14510        -5.68660         7.43044
     2008.14784        -0.87933         7.52378
     2008.15058       -18.33706         7.47963
     2008.15331       -14.24479         7.53387
     2008.15605        -8.33452         7.48972
     2008.15879        -3.89024         7.45693
     2008.16153       -16.76297         7.60576
     2008.16427        -0.12470         7.47459
     2008.16700        -7.70543         7.53639
     2008.16974       -12.55116         7.62090
     2008.17248       -10.32389         7.56666
     2008.17522       -13.16161         7.72559
     2008.17796       -10.41034         7.55657
     2008.18069       -11.92007         7.56288
     2008.18343        -8.99480         7.59819
     2008.18617       -16.27953         7.55026
     2008.18891       -10.75126         7.64739
     2008.19164        -4.38698         7.75964
     2008.19438       -10.97171         7.62720
     2008.19712         0.28256         7.54270
     2008.19986        -5.48917         7.48720
     2008.20260       -14.41690         7.47837
     2008.20533        -1.47162         7.53765
     2008.20807        -2.84235         7.83406
     2008.21081         2.46092         7.90091
     2008.21355        -1.37281         7.72054
     2008.21629         2.12646         7.58810
     2008.21902        -7.87127         7.70415
     2008.22176       -13.19699         7.67009
     2008.22450        -2.74772         7.77604
     2008.22724        -1.62645         7.67135
     2008.22997        -9.47518         7.66631
     2008.23271        -2.59891         7.62468
     2008.23545        -1.46364         7.70162
     2008.23819        -3.88536         7.48720
     2008.24093        -2.14609         7.54774
     2008.24366        -6.02082         7.58306
     2008.24640        -5.08355         7.55531
     2008.24914        -5.60228         7.59819
     2008.25188        -1.09401         7.70415
     2008.25462        -3.22473         7.56666
     2008.25735       -12.69446         7.53765
     2008.26009        -6.64219         7.42539
     2008.26283       -13.14992         7.46071
     2008.26557        -9.41065         7.48089
     2008.26830       -16.47338         7.42413
     2008.27104        -3.33410         7.47585
     2008.27378        -4.10983         7.46449
     2008.27652        -4.98456         7.58306
     2008.27926        -8.81829         7.95136
     2008.28199         0.57898         7.63099
     2008.28473         1.08626         7.62720
     2008.28747        -3.52147         7.61964
     2008.29021         0.33780         7.68270
     2008.29295        -8.09793         7.63856
     2008.29568        -7.17266         7.65495
     2008.29842        -6.42939         7.46954
     2008.30116        -7.07211         7.56414
     2008.30390       -13.19784         7.53261
     2008.30663         2.58243         7.47459
     2008.30937       -12.35530         7.64234
     2008.31211        -7.49803         7.56035
     2008.31485        -1.79076         7.55657
     2008.31759       -15.12948         7.61207
     2008.32032        -6.90221         7.67892
     2008.32306         0.02306         7.99299
     2008.32580         5.77933         7.85298
     2008.32854        -3.98440         7.56540
     2008.33128       -11.04613         7.68775
     2008.33401       -16.53285         7.65369
     2008.33675       -14.31958         7.65622
     2008.33949        -2.60631         7.59441
     2008.34223       -12.93204         7.58810
     2008.34496       -10.26377         7.64991
     2008.34770        -4.92550         7.55783
     2008.35044        -4.45922         7.54270
     2008.35318        -4.60795         7.57297
     2008.35592        -7.13868         7.67135
     2008.35865        -4.17641         7.60576
     2008.36139        -3.74914         7.59441
     2008.36413        -1.04786         7.50738
     2008.36687        -6.94159         7.61585
     2008.36961       -14.79232         7.60828
     2008.37234       -15.68405         7.66883
     2008.37508       -11.54778         7.60702
     2008.37782        -5.99651         7.62847
     2008.38056        -3.09523         7.65874
     2008.38329       -15.86196         7.57549
     2008.38603        -1.88969         7.51495
     2008.38877        -1.19142         7.69153
     2008.39151        -3.48415         7.80883
     2008.39425        -7.57388         7.50738
     2008.39698       -10.86760         7.45819
     2008.39972        -0.85333         7.38125
     2008.40246        -7.99906         7.55279
     2008.40520        -4.50279         7.47837
     2008.40794        -5.77752         7.55279
     2008.41067        -3.16325         7.53891
     2008.41341        -8.40697         7.45188
     2008.41615        -8.30171         7.44305
     2008.41889        -5.43243         7.51369
     2008.42162       -25.07716         7.76469
     2008.42436        -6.60489         7.54144
     2008.42710        -2.85162         7.50738
     2008.42984        -5.90034         7.60450
     2008.43258         1.65793         7.63982
     2008.43531        -6.58180         7.62090
     2008.43805         3.04447         7.80883
     2008.44079        -2.75226         7.43296
     2008.44353        -1.89898         7.45819
     2008.44626        -3.65671         7.54270
     2008.44900        -1.94444         7.58810
     2008.45174        -8.65417         7.95263
     2008.45448        -6.33990         7.81010
     2008.45722        -8.91663         7.38882
     2008.45995        -6.82835         7.39260
     2008.46269        -7.79108         7.46323
     2008.46543        -3.95581         7.54270
     2008.46817         0.99046         7.43170
     2008.47091        -4.33527         7.64739
     2008.47364        -1.60000         7.52378
     2008.47638         0.54128         7.49477
     2008.47912        -3.21845         7.56540
     2008.48186        -1.15718         7.45440
     2008.48459        -3.85491         7.62847
     2008.48733        -6.38064         7.72559
     2008.49007        -5.72937         7.47332
     2008.49281        -1.06109         7.56162
     2008.49555       -10.05482         8.11912
     2008.49829        -4.75055         7.80001
     2008.50102       -10.63828         7.72937
     2008.50376        -4.51701         7.81136
     2008.50650         3.18226         7.66504
     2008.50924         3.13754         7.69027
     2008.51197        -1.81419         7.48215
     2008.51471        -1.57192         7.49603
     2008.51745         9.52735         7.50990
     2008.52019         3.64362         7.50486
     2008.52292        12.76490         7.84289
     2008.52566         4.32717         7.81136
     2008.52840         6.59044         7.58306
     2008.53114        16.42071         7.68396
     2008.53388        14.00998         7.67261
     2008.53661         5.54125         7.51495
     2008.53935         2.25353         7.46576
     2008.54209         0.55380         7.43296
     2008.54483         6.15307         7.68144
     2008.54757         8.83634         7.59441
     2008.55030         5.97461         7.40269
     2008.55304       -15.03712         7.68901
     2008.55578        14.64316         7.52504
     2008.55852         8.45343         7.48846
     2008.56125         5.20870         7.47585
     2008.56399         0.40397         7.42161
     2008.56673         3.13424         7.48215
     2008.56947         9.51451         7.39891
     2008.57221        11.82679         7.64486
     2008.57494         7.20706         7.77856
     2008.57768         8.48733         7.76217
     2008.58042        16.82760         7.54270
     2008.58316        11.53787         7.49350
     2008.58590        10.66014         7.43422
     2008.58863         7.53742         7.69658
     2008.59137         7.79369         7.40269
     2008.59411         3.29596         7.41404
     2008.59685         7.25623         7.58180
     2008.59958         8.62450         7.82649
     2008.60232         9.71978         7.97911
     2008.60506        17.04405         7.65495
     2008.60780         8.27532         7.87316
     2008.61054        10.90659         7.46323
     2008.61327         9.96586         7.46576
     2008.61601        15.55613         7.52504
     2008.61875         7.71041         7.53261
     2008.62149        11.22468         7.48594
     2008.62423        23.78195         7.53513
     2008.62696        23.64622         7.50990
     2008.62970        18.90049         7.59946
     2008.63244         3.26476         7.81766
     2008.63518       -11.35896         8.13930
     2008.63791         9.68231         7.90596
     2008.64065        17.95758         7.54144
     2008.64339       -10.94015         7.56540
     2008.64613        18.30212         7.76973
     2008.64887         4.60839         7.67387
     2008.65160        16.78967         7.52125
     2008.65434         2.65894         7.92362
     2008.65708        22.20021         8.05605
     2008.65982        15.76348         7.97533
     2008.66256        21.10575         7.62973
     2008.66529        11.74203         7.52630
     2008.66804         9.62529         7.64865
     2008.67077        10.05957         7.65117
     2008.67351        11.78084         7.75586
     2008.67624        17.91811         8.33228
     2008.67898        19.10938         7.68396
     2008.68172        13.43766         7.67892
     2008.68446        11.35093         7.59189
     2008.68720         9.90620         7.57927
     2008.68993        14.16247         7.63603
     2008.69259        10.60679         7.77982
     2008.69541        13.20101         7.63477
     2008.69815        10.17129         7.82019
     2008.70089        13.42656         7.53765
     2008.70362         9.74583         7.55153
     2008.70636        15.38410         7.56414
     2008.70910         7.05837         7.74451
     2008.71184         6.48164         7.84920
     2008.71457        -0.57308         7.51242
     2008.71731        -0.74581         7.51999
     2008.72005         4.04046         7.54648
     2008.72279        10.94873         7.62594
     2008.72553        11.48900         7.67766
     2008.72826        17.07427         7.57927
     2008.73100        27.73755         7.66252
     2008.73374        30.14782         7.65622
     2008.73648        17.04009         7.50738
     2008.73921        11.00336         7.63099
     2008.74469        16.10991         7.40143
     2008.74743         8.79718         7.58937
     2008.75017         0.93845         7.75964
     2008.75290        24.73472         7.69784
     2008.75564         0.40499         7.60324
     2008.75838        12.51726         7.59946
     2008.76112        23.27954         7.48846
     2008.76386        20.87481         7.53261
     2008.76659        29.27208         7.73694
     2008.76933        19.60335         7.66883
     2008.77207        14.65262         7.37494
     2008.77481        18.92689         7.37999
     2008.77754        21.37917         7.31061
     2008.78028        15.89444         7.41278
     2008.78302         8.75971         7.54017
     2008.78576        12.89298         7.48720
     2008.78850        12.19425         7.56414
     2008.79123        13.28652         7.66757
     2008.79397         9.30880         7.70919
     2008.79671        15.05907         7.50233
     2008.79945         8.98634         7.43548
     2008.80219        22.54161         7.45945
     2008.80492        15.00188         7.50107
     2008.80766        15.63215         7.54144
     2008.81040        16.21843         7.61333
     2008.81314        15.11570         7.57549
     2008.81587        20.95597         7.55026
     2008.81861         4.84924         7.59063
     2008.82135        11.90751         7.51873
     2008.82409        -4.55921         7.85803
     2008.82683         6.92506         7.66883
     2008.82956        12.05233         7.59315
     2008.83230         6.92660         7.41909
     2008.83504        13.36687         7.40017
     2008.83778        20.47414         7.62216
     2008.84052        17.84242         7.54900
     2008.84325        12.19969         7.43548
     2008.84599        17.71396         7.56288
     2008.84873        15.35123         7.51369
     2008.85147        -6.10250         7.67513
     2008.85420        14.15277         7.64108
     2008.85694        14.10705         7.57171
     2008.85968        12.66632         7.55279
     2008.86242        14.87059         7.64991
     2008.86516        -6.52214         7.61081
     2008.86789        14.96213         7.55909
     2008.87063        13.04240         7.80631
     2008.87337         7.51968         7.61081
     2008.87611         6.02295         7.66883
     2008.87885         4.70322         7.61711
     2008.88158         5.57649         7.80001
     2008.88432         3.98976         7.57801
     2008.88706         4.92603         7.79244
     2008.88980         1.67031         7.82649
     2008.89253         8.52058         7.58054
     2008.89527         5.74485         7.68144
     2008.89801         4.92012         7.87947
     2008.90075         6.92239         7.61207
     2008.90349         0.00967         7.57045
     2008.90622        -1.64906         7.62847
     2008.90896        10.91321         7.48468
     2008.91170         7.24548         7.87947
     2008.91444        12.62375         7.61081
     2008.91718         7.29002         7.56918
     2008.91991        15.60630         7.60828
     2008.92265         4.92457         7.54017
     2008.92539         7.54184         7.59693
     2008.92813         0.72111         7.50107
     2008.93086         0.46338         7.64991
     2008.93360         5.39065         7.61711
     2008.93634         3.95193         7.54144
     2008.93908        -3.85080         7.63982
     2008.94182        -0.04953         7.55153
     2008.94455        -5.84226         7.59693
     2008.94729         1.15301         7.80379
     2008.95003         2.77628         7.49224
     2008.95277         5.77856         7.45945
     2008.95551         1.39983         7.45819
     2008.95824        -0.52390         7.48846
     2008.96098         5.39337         7.58558
     2008.96372        11.88764         7.42413
     2008.96646         0.97091         7.63982
     2008.96919         4.96719         7.47963
     2008.97193        10.83046         7.46954
     2008.97467        11.19173         7.45945
     2008.97741         9.16700         7.46954
     2008.98015        12.57427         7.47963
     2008.98288        16.36255         7.48089
     2008.98562         3.00682         7.51999
     2008.98836         8.90509         7.58054
     2008.99110        15.88836         7.46449
     2008.99384         6.90963         7.50612
     2008.99657        -0.97110         7.53261
     2008.99931         7.85518         7.50612
     2009.00479         6.42172         7.47459
     2009.00752         4.07699         7.50864
     2009.01026        -2.76274         7.50990
     2009.01300         7.88953         7.57297
     2009.01574         1.86881         7.58937
     2009.01848         2.47608         7.49477
     2009.02121         8.99835         7.61081
     2009.02395        -6.99038         7.72180
     2009.02669       -11.59511         7.63225
     2009.02943       -14.28284         7.67135
     2009.03216        -8.05856         7.52882
     2009.03490       -16.81829         7.45567
     2009.03764       -14.49502         7.53261
     2009.04038       -14.49175         7.54017
     2009.04312       -19.24148         7.53387
     2009.04585       -18.55521         7.53387
     2009.04859       -17.74093         7.58810
     2009.05133       -20.92066         7.56792
     2009.05407       -18.62739         7.57171
     2009.05681       -13.35212         7.55405
     2009.05954       -16.23985         7.53513
     2009.06228       -21.22957         7.56540
     2009.06502       -23.26130         7.57171
     2009.06776       -16.14303         7.60576
     2009.07049       -10.74176         7.49855
     2009.07323        -8.18349         7.54144
     2009.07597        -8.26622         7.49098
     2009.07871        -9.41494         7.52882
     2009.08145       -16.73167         7.50233
     2009.08418        -4.04840         7.53261
     2009.08693        -5.56713         7.46954
     2009.08966        -9.57586         7.50990
     2009.09240        -9.67859         7.55026
     2009.09514        -9.93931         7.49603
     2009.09787        -1.44504         7.49729
     2009.10061       -10.09677         7.49855
     2009.10335       -10.85650         7.48846
     2009.10609       -11.90223         7.49855
     2009.10882        -9.19296         7.46071
     2009.11156        -3.26168         7.39008
     2009.11430       -10.10441         7.64739
     2009.11704        -6.67814         7.65748
     2009.11978       -13.40387         7.49855
     2009.12251       -12.44760         7.47206
     2009.12525       -11.53232         7.44810
     2009.12799        -3.68105         7.46576
     2009.13073       -11.02078         7.59819
     2009.13347       -13.46251         7.33962
     2009.13620       -11.29824         7.47206
     2009.13894       -17.35297         7.45440
     2009.14168       -14.41669         7.45188
     2009.14442       -12.51342         7.53134
     2009.14715        -6.04415         7.53008
     2009.14989        -1.78888         7.67766
     2009.15263         2.67239         7.44557
     2009.15537         4.34266         7.62594
     2009.15811       -12.66406         7.63856
     2009.16084        -8.91579         7.62342
     2009.16359        -5.65652         7.54900
     2009.16632        -5.36825         7.63099
     2009.16906       -11.26898         7.83280
     2009.17180         1.77429         7.47080
     2009.17453        -9.47143         7.56540
     2009.17727        -2.14516         7.73442
     2009.18001        -7.09689         7.54144
     2009.18275        -7.96762         7.55153
     2009.18548        -9.90735         7.53891
     2009.18822        -6.28208         7.56288
     2009.19096       -12.93480         7.58180
     2009.19370       -12.67153         7.53261
     2009.19644       -12.08226         7.51873
     2009.19917        -5.26399         7.52504
     2009.20191         7.11028         7.43675
     2009.20465         1.06056         7.39512
     2009.20739         6.43083         7.44810
     2009.21013       -18.39390         7.52378
     2009.21286       -11.40063         7.53008
     2009.21560         4.19464         7.43548
     2009.21834         0.24891         7.52756
     2009.22108        -3.87881         7.36863
     2009.22381       -14.00854         7.41656
     2009.22655       -14.53727         7.45440
     2009.22929       -11.73300         7.45693
     2009.23203       -10.38673         7.47206
     2009.23477        -3.19646         7.61964
     2009.23750        -4.95718         7.55909
     2009.24024        -7.46491         7.61333
     2009.24298        -9.83864         7.61333
     2009.24572        -7.88037         7.59693
     2009.24846        -1.03110         7.71676
     2009.25119        -9.69283         7.80631
     2009.25393       -14.33255         7.82523
     2009.25667       -14.85728         7.71297
     2009.25941       -15.08901         7.60198
     2009.26214        -8.42674         7.59189
     2009.26488       -12.14047         7.66252
     2009.26762       -10.50720         7.72937
     2009.27036       -13.32592         7.72054
     2009.27310       -18.98765         7.67513
     2009.27583       -17.75738         7.58306
     2009.27857       -12.25311         7.64739
     2009.28131       -11.76184         7.65243
     2009.28405        -6.40556         7.75208
     2009.28679        -1.50629         7.65369
     2009.28952        -5.94302         7.68396
     2009.29226        -6.37075         7.68649
     2009.29500         0.78552         7.64991
     2009.29774        -1.99021         7.77478
     2009.30047        -8.69793         7.73189
     2009.30321       -13.38766         7.69027
     2009.30595        -9.45839         7.78109
     2009.30869        -2.00212         7.63603
     2009.31143       -11.65485         7.59441
     2009.31416        -4.67058         7.64234
     2009.31690       -12.89330         7.68018
     2009.31964       -12.42703         7.63730
     2009.32238        -6.91076         7.54396
     2009.32512        -7.79549         7.67892
     2009.32785       -11.08122         7.69153
     2009.33060       -10.48995         7.51495
     2009.33333       -13.75067         7.77730
     2009.33607        -7.76740         7.72180
     2009.33880        -3.96513         7.70667
     2009.34154         2.88314         7.63351
     2009.34428       -10.71559         7.57675
     2009.34702       -12.53232         7.63982
     2009.34976       -11.02804         7.58558
     2009.35249       -12.70977         7.61585
     2009.35523       -12.15250         7.54648
     2009.35797        -4.85423         7.56035
     2009.36071        -5.64496         7.74325
     2009.36344        -8.07968         7.65495
     2009.36618        -4.86641         7.65369
     2009.36892        -5.37314         7.69532
     2009.37166       -17.44487         7.64612
     2009.37440       -11.60760         7.76847
     2009.37713       -12.44333         7.81136
     2009.37987        -9.31505         7.92866
     2009.38261        -3.95278         7.60702
     2009.38535        -7.92851         7.65874
     2009.38809       -10.47524         7.64612
     2009.39082       -22.05097         7.72937
     2009.39356       -13.34270         7.76847
     2009.39630       -18.12442         7.68901
     2009.39904        -3.00815         7.75208
     2009.40177        -4.03388         7.72559
     2009.40451        -5.27361         7.73316
     2009.40725        -2.14434         7.72180
     2009.40999        -7.24207         7.73442
     2009.41273       -18.18079         7.75586
     2009.41547        -6.65953         7.74577
     2009.41820       -12.81025         7.63099
     2009.42094       -14.03598         7.69910
     2009.42368       -16.91971         7.70541
     2009.42642        -3.02044         7.73316
     2009.42915        -3.39016         7.85803
     2009.43189        -7.85189         7.70036
     2009.43463        -5.86662         7.61459
     2009.43737        -2.82535         7.56666
     2009.44010       -10.10908         7.63856
     2009.44284       -11.44480         7.75334
     2009.44558       -10.86153         7.63603
     2009.44832       -12.09826         7.77730
     2009.45106        -3.32299         7.63982
     2009.45379        -8.11672         7.62090
     2009.45653        -8.53145         7.76721
     2009.45927       -12.54617         7.72180
     2009.46201        -1.89590         7.61333
     2009.46475        16.68837         7.85298
     2009.46748        -6.20636         7.86938
     2009.47022        -2.65109         7.54396
     2009.47296        -2.58482         7.72811
     2009.47570        -4.67954         7.63603
     2009.47843         3.45273         7.77604
     2009.48117         7.83200         7.61459
     2009.48391        -1.00573         7.62973
     2009.48665        -1.68146         7.70919
     2009.48939        -5.59019         7.73063
     2009.49212         4.04809         7.69153
     2009.49486         0.43236         7.61333
     2009.49760        -2.11737         7.73820
     2009.50034        -2.65010         7.55026
     2009.50308        -3.83183         7.58810
     2009.50581        -6.81956         7.54017
     2009.50855         3.32172         7.69658
     2009.51129         7.07999         7.73820
     2009.51403        -2.57074         7.56792
     2009.51676        -3.49547         7.55026
     2009.51950        -0.08720         7.50107
     2009.52224         2.05708         7.66126
     2009.52498         2.45735         7.57675
     2009.52772         4.60062         7.58432
     2009.53045         2.26189         7.61081
     2009.53319         2.34316         7.54270
     2009.53593         2.84843         7.61207
     2009.53867         2.05871         7.60828
     2009.54141         0.23998         7.60198
     2009.54414         8.31525         7.55279
     2009.54688         2.94452         7.52756
     2009.54962         5.77279         7.48846
     2009.55236        -2.88194         7.57045
     2009.55509         1.78334         7.57297
     2009.55783         4.84761         7.55405
     2009.56057        11.26788         7.95389
     2009.56331         4.32115         7.70919
     2009.56605        10.36342         7.79244
     2009.56878         8.66769         7.68901
     2009.57152        13.14897         7.60450
     2009.57426        12.93324         7.62468
     2009.57700        11.37051         7.76090
     2009.57974         5.36478         7.65369
     2009.58248         4.64705         7.62720
     2009.58521        13.07933         7.56035
     2009.58795         3.76260         7.58937
     2009.59069         9.35287         7.61964
     2009.59342        15.47914         7.74451
     2009.59616        10.51241         7.56035
     2009.59890        11.06168         7.60955
     2009.60164         8.21296         7.61964
     2009.60438         5.82723         7.57423
     2009.60711         9.39350         7.68523
     2009.60985        -0.11123         7.56918
     2009.61259         4.35504         8.34237
     2009.61533         1.29531         7.69405
     2009.61807         5.89459         7.60955
     2009.62080        10.07286         7.65369
     2009.62354         6.03413         7.63856
     2009.62628        11.39140         7.57675
     2009.62902         7.67567         7.63730
     2009.63175         3.13994         7.55153
     2009.63449        -9.73078         8.31084
     2009.63723         5.47049         7.76217
     2009.63997         7.13376         7.70541
     2009.64271         9.30703         7.63982
     2009.64544        13.12930         8.20867
     2009.64819        24.65457         8.01317
     2009.65092        16.30185         7.69027
     2009.65366         3.66012         7.79622
     2009.65639         4.51339         7.61838
     2009.65913        -7.65234         7.69279
     2009.66187        11.73993         7.51242
     2009.66461         7.56521         7.53387
     2009.66735        15.51647         7.79874
     2009.67008         4.33775         7.81640
     2009.67282        11.64502         7.65369
     2009.67556        21.53129         7.59441
     2009.67830        -1.95644         8.51013
     2009.68104       -15.20616         8.00686
     2009.68377       -16.22989         7.65622
     2009.68651        20.55538         7.52252
     2009.68801        28.82943        38.93822
     2009.69310         6.25922        21.01864
     2009.69472        -0.11581         7.77856
     2009.69746        -4.86853         7.58937
     2009.70020         6.75374         7.60576
     2009.70294         7.15301         7.60955
     2009.70568         0.86228         7.52882
     2009.70841        11.28855         7.68775
     2009.71115         5.32682         7.68396
     2009.71389         3.69210         7.84415
     2009.71663         5.79237         7.90722
     2009.71937        11.61664         7.58558
     2009.72210         3.04291         7.60576
     2009.72484        -0.72282         7.70036
     2009.72758        -8.66555         7.71802
     2009.73032        18.66273         7.63982
     2009.73305        13.18000         7.70541
     2009.73579        11.21727         7.81766
     2009.73853        11.31754         7.56035
     2009.74127        10.78181         7.75208
     2009.74401        26.72209         7.87316
     2009.74674        19.09936         7.62720
     2009.74949        12.81763         7.62594
     2009.75354       -13.53993       121.99870
     2009.75496         5.44817         9.44224
     2009.75770        15.23244         7.56540
     2009.76043        15.91972         7.61207
     2009.76317        14.86699         7.60702
     2009.76591        11.19426         7.76090
     2009.76865        15.64553         7.83406
     2009.77138        19.20080         7.67513
     2009.77412        13.70907         7.96272
     2009.77686        10.52135         7.73820
     2009.77960        16.92362         7.70288
     2009.78234        20.41089         7.79244
     2009.78507        17.48816         7.75838
     2009.78781         9.05943         7.99677
     2009.79055         6.26170         8.47103
     2009.79329         6.93098         7.98416
     2009.79603         4.95825         8.23390
     2009.79876         5.68552         7.88073
     2009.80150         3.11379         7.84289
     2009.80424        12.43906         7.98794
     2009.80698        15.23533         7.85550
     2009.80971        -0.39039         7.98920
     2009.81245        21.15988         8.03209
     2009.81519        10.62615         8.00434
     2009.81793         2.52142         8.03335
     2009.82067         2.83469         7.94380
     2009.82340        10.46497         7.81388
     2009.82614        18.22224         7.90217
     2009.82888         5.28051         8.04092
     2009.83162        15.73078         8.20615
     2009.83436        -0.40095         7.92362
     2009.83709         7.01432         8.04596
     2009.83983         8.00360         7.84920
     2009.84257         8.85987         7.86181
     2009.84531        19.75314         8.10020
     2009.84804        20.53041         7.85803
     2009.85078        18.69168         7.90217
     2009.85352        14.84695         7.84289
     2009.85626         8.46923         7.90470
     2009.85900         7.29850         7.96272
     2009.86173         6.86277         7.73694
     2009.86447        10.64604         8.19354
     2009.86721         9.59931         8.06867
     2009.86995        10.62158         7.84794
     2009.87269         1.13586         7.91605
     2009.87542        12.66913         7.89587
     2009.87816        12.45740         7.99677
     2009.88090         8.28267         8.01695
     2009.88364         6.59094         7.87316
     2009.88637         7.17221         7.89839
     2009.88911         9.55249         7.73946
     2009.89185         3.03476         7.66378
     2009.89459        -0.34397         7.83028
     2009.89733        -5.69570         7.90343
     2009.90006        -7.58743         7.81766
     2009.90280         5.77885         7.71171
     2009.90554         0.10512         7.73946
     2009.90828        -1.11761         7.65874
     2009.91102        -0.23134         7.68901
     2009.91375         0.67093         7.69910
     2009.91650         7.07920         7.66883
     2009.91923        -1.42552         7.61585
     2009.92197        -6.48325         7.69658
     2009.92470        -8.02098         7.77730
     2009.92744         1.77929         7.75964
     2009.93018         0.19956         7.72811
     2009.93292         2.79683         7.67261
     2009.93566         2.15211         7.64108
     2009.93839        -1.69262         7.90974
     2009.94113         4.09165         7.72433
     2009.94387         2.28592         7.79244
     2009.94661         6.09119         7.88451
     2009.94935        -0.01354         7.73568
     2009.95208        -2.27426         7.66757
     2009.95482        -3.14299         7.70919
     2009.95756         2.60128         7.76469
     2009.96030        -3.95845         7.69910
     2009.96303       -10.44018         7.63730
     2009.96577        -5.85791         7.76973
     2009.96851        -1.04463         7.81893
     2009.97125         1.66964         7.77226
     2009.97399        -2.80709         7.68396
     2009.97672        -3.35682         7.57801
     2009.97946        -8.42755         7.62594
     2009.98220        -6.21827         7.66000
     2009.98494        -5.22700         7.56792
     2009.98767        -4.47173         7.60702
     2009.99041        -2.08946         7.64612
     2009.99315        -5.46819         7.60955
     2009.99589        -2.47692         7.63730
     2009.99863       -10.96964         7.68649
     2010.00410        -3.79910         7.68018
     2010.00684       -13.32183         7.62847
     2010.00958        -2.16556         7.71297
     2010.01232       -11.41229         7.80253
     2010.01505       -14.24401         7.64991
     2010.01779       -12.98774         7.69153
     2010.02053       -14.31547         7.76217
     2010.02327       -14.16620         7.76090
     2010.02600       -27.55993         7.77100
     2010.02874        -5.12866         7.69658
     2010.03148         0.93662         7.58810
     2010.03422        -4.09811         7.67261
     2010.03696        -6.73584         8.10398
     2010.03969        -5.83057         7.89334
     2010.04243        -6.17630         7.73946
     2010.04517         4.51498         7.66000
     2010.04791         5.29525         7.83406
     2010.05065         4.42852         7.76595
     2010.05338         7.62979         7.91352
     2010.05612         1.30406         7.70793
     2010.05886         1.43233         7.62973
     2010.06160        -6.49039         7.64991
     2010.06433        -8.15612         7.58054
     2010.06707        -4.75085         7.53513
     2010.06981        -6.90058         7.92866
     2010.07255        -7.83131         7.85803
     2010.07529        -5.81904         7.80505
     2010.07802        -0.01676         7.68649
     2010.08076       -16.25849         7.48215
     2010.08350       -10.89722         7.45945
     2010.08624        -6.62295         7.52504
     2010.08898        -7.75568         7.82397
     2010.09171        -6.86341         7.47206
     2010.09445        -4.86913         7.78739
     2010.09719        -3.14286         7.70667
     2010.09993       -14.06959         7.59946
     2010.10266       -17.25732         7.61333
     2010.10540        -0.45905         7.56666
     2010.10814         0.54322         7.56540
     2010.11088         4.41850         7.71171
     2010.11362        -1.86723         7.70415
     2010.11635         2.42004         7.64108
     2010.11909        11.34031         7.64865
     2010.12183        -2.04342         7.52882
     2010.12457        -0.21314         7.69910
     2010.12731         5.73313         7.96145
     2010.13004        -3.42860         7.80001
     2010.13278        -8.03133         7.74325
     2010.13552        -3.09106         7.66631
     2010.13826         0.84221         7.55279
     2010.14099        -1.23151         7.55909
     2010.14373        -3.01124         7.76090
     2010.14647        -8.64697         7.84541
     2010.14921        -1.37670         7.70415
     2010.15195        -2.02343         7.53765
     2010.15468        -7.46716         7.49855
     2010.15742         2.65112         7.65622
     2010.16016        -0.12061         7.58558
     2010.16290        -3.55534         7.59693
     2010.16564       -12.11207         7.77478
     2010.16837         0.77320         7.53765
     2010.17111         3.35547         7.37746
     2010.17385        -6.60925         7.49603
     2010.17659        -2.37898         7.46197
     2010.17932         7.25629         7.43422
     2010.18206         1.62456         7.54396
     2010.18480        -1.92417         7.49729
     2010.18754        -4.26490         7.51747
     2010.19028         0.32938         7.58054
     2010.19301         0.04265         7.60450
     2010.19575         0.27092         7.49224
     2010.19849        -6.03681         7.61585
     2010.20123       -12.05254         7.59946
     2010.20397        -5.27126         8.08633
     2010.20670        -8.08699         7.84289
     2010.20944        -4.51172         7.85803
     2010.21218        -6.83445         7.61459
     2010.21492         0.47882         7.68901
     2010.21765         3.22409         7.74451
     2010.22039        -4.84663         7.66126
     2010.22313        -8.98636         7.92109
     2010.22587        -5.26009         7.82649
     2010.22861       -10.82782         7.89334
     2010.23134        -3.32655         7.83658
     2010.23408        -5.07628         7.98920
     2010.23956        11.83927         7.94506
     2010.24230        -0.38746         8.01191
     2010.24503        -7.23919         7.80001
     2010.24778        -2.54792         7.84920
     2010.25051        -3.85465         8.13047
     2010.25325         7.27563         7.95263
     2010.25598         1.21690         7.81766
     2010.25872         5.13317         7.77226
     2010.26146         1.31744         7.94127
     2010.26420         3.23971         8.16074
     2010.26694        -5.27302         7.91352
     2010.26967        -7.02574         7.94001
     2010.27241        -2.50647         7.81010
     2010.27515       -11.05620         7.76721
     2010.27789       -11.03893         7.90596
     2010.28062        -1.97966         7.87316
     2010.28336        -3.44638         7.81514
     2010.28610        -2.25111         7.75334
     2010.28884        -9.55484         7.77226
     2010.29158        -4.20657         7.91605
     2010.29431        -6.84530         7.97028
     2010.29705        -2.07303         7.77352
     2010.29979         1.71825         7.93371
     2010.30253         1.85452         7.75964
     2010.30527         8.87679         7.95893
     2010.30800         2.85706         7.82775
     2010.31074        -2.81167         7.74198
     2010.31348         0.52960         7.73316
     2010.31622         2.05988         7.79370
     2010.31895         2.55515         8.00182
     2010.32169        -0.27758         7.92740
     2010.32443        -1.82631         7.77226
     2010.32717         2.11496         7.61207
     2010.32991         3.60023         7.72054
     2010.33264         6.85651         7.72811
     2010.33538         5.60278         7.81514
     2010.33812        -2.86495         7.60955
     2010.34086       -14.24868         7.56288
     2010.34360        -6.99441         7.57927
     2010.34633       -10.50414         7.90722
     2010.34907        -6.26386         7.66000
     2010.35181        -8.38959         7.67009
     2010.35455       -13.80832         7.51999
     2010.35728        -7.91205         7.58180
     2010.36002        -7.42478         7.79118
     2010.36276        -4.36250         7.78487
     2010.36550        -9.65523         8.03840
     2010.36824       -12.49596         8.15065
     2010.37097        -4.98169         7.88704
     2010.37371        -2.57742         7.78992
     2010.37645       -13.64815         8.12038
     2010.37919       -10.18887         8.06614
     2010.38193        -0.39560         7.92866
     2010.38466        -8.94833         7.67135
     2010.38740        -6.57206         7.57675
     2010.39014        -5.40779         7.70919
     2010.39288        -9.17852         7.72685
     2010.39561       -18.88624         7.71550
     2010.39835       -14.19897         7.49729
     2010.40109        -9.96870         7.43170
     2010.40383       -12.19143         7.53008
     2010.40657        -5.24616         7.65622
     2010.40930        -8.39289         7.63603
     2010.41204        -9.12761         7.80253
     2010.41478        -8.85434         7.72307
     2010.41752        -2.06007         7.89965
     2010.42026        -1.93980         7.66883
     2010.42299       -10.94153         7.82397
     2010.42573        -9.53626         7.68523
     2010.42847        -4.39798         7.73189
     2010.43121       -10.08071         7.64486
     2010.43394        -8.07944         7.62216
     2010.43668        -5.94417         7.76469
     2010.43942       -12.03290         7.53387
     2010.44216       -10.00662         7.65117
     2010.44490       -12.94435         7.67135
     2010.44763       -18.47308         7.69784
     2010.45037        -4.90081         7.68396
     2010.45311        -9.46354         7.59189
     2010.45585        -6.33927         7.65243
     2010.45859        -6.43699         7.76721
     2010.46132        -9.16072         7.76595
     2010.46406        -7.70645         7.61585
     2010.46680       -11.60718         7.48846
     2010.46954        -9.72291         7.51621
     2010.47227       -15.46164         7.62973
     2010.47501       -22.21536         7.68018
     2010.47776       -12.91110         7.83785
     2010.48049        -4.61982         7.90091
     2010.48323       -13.55555         7.57549
     2010.48596         0.20472         7.64865
     2010.48870        -6.05501         7.65369
     2010.49144        -1.72973         7.66378
     2010.49418         0.06554         7.65874
     2010.49692         2.02981         7.55026
     2010.49965       -11.94892         7.46702
     2010.50239         0.43935         7.71424
     2010.50513        -1.46037         7.63351
     2010.50787        -0.01710         7.59567
     2010.51060        -9.14983         7.58306
     2010.51334        -6.50656         7.55783
     2010.51608        -4.00129         7.86812
     2010.51882        -7.06702         7.68649
     2010.52156        -4.47674         7.68270
     2010.52429         4.18553         7.58937
     2010.52703         3.02280         7.57801
     2010.52977         7.32907         7.62342
     2010.53251        -2.72766         7.58180
     2010.53525        -4.76639         7.69027
     2010.53798        -2.82611         7.48846
     2010.54072       -10.22484         7.51999
     2010.54346        -2.09057         7.56162
     2010.54620        -3.58730         7.49603
     2010.54893        -3.64603         7.61585
     2010.55167        -4.10076         7.41404
     2010.55441         6.46752         7.67892
     2010.55715        -2.63321         7.40900
     2010.55989        -5.05594         7.52252
     2010.56262         2.02833         7.58306
     2010.56536        -4.82540         7.46449
     2010.56810       -10.26813         7.52882
     2010.57084        -3.00385         7.52882
     2010.57357       -13.40558         7.74703
     2010.57631         6.04069         8.01948
     2010.57905        -2.91604         7.63099
     2010.58179         2.24723         7.66631
     2010.58453        -6.90449         7.49350
     2010.58726        -5.86922         7.73063
     2010.59000        -3.41995         7.79370
     2010.59274        -6.67268         7.64612
     2010.59548        -5.33441         7.47206
     2010.59822         2.63486         7.61964
     2010.60095         1.02314         7.56540
     2010.60369        -5.14059         7.55279
     2010.60643        -5.03332         7.61333
     2010.60917         5.19995         7.40269
     2010.61190         0.14822         7.52125
     2010.61464        -0.26451         7.59063
     2010.61738        -0.22623         7.53765
     2010.62012         0.43504         7.56666
     2010.62286         2.89031         7.49224
     2010.62559         3.17858         7.49098
     2010.62833         0.49685         7.72054
     2010.63107         9.23212         7.79748
     2010.63381         6.27240         7.64486
     2010.63655        12.75267         7.65369
     2010.63928         5.12894         7.55531
     2010.64202         3.81921         7.57927
     2010.64476        -1.42352         7.84163
     2010.64750         9.47175         7.59063
     2010.65023        15.87803         7.80505
     2010.65297         6.41130         7.77100
     2010.65571         2.51257         7.33079
     2010.65845        10.57584         7.36359
     2010.66119        12.05711         7.45188
     2010.66392         8.55439         7.57423
     2010.66667         7.42865         7.61459
     2010.66940         4.04893         7.49224
     2010.67214         7.84520         7.54144
     2010.67488         9.58247         7.57297
     2010.67761        15.57874         7.48846
     2010.68035         7.96102         7.57171
     2010.68309         5.71429         7.80001
     2010.68583         2.11156         7.31692
     2010.68856         3.01383         7.40900
     2010.69130         3.86710         7.44810
     2010.69404         3.98637         7.57801
     2010.69678         9.37965         7.62468
     2010.69952         3.30392         7.56414
     2010.70225         3.23819         7.42792
     2010.70499         5.82146         7.43675
     2010.70773       -22.45927         7.75838
     2010.71047        -9.25200         7.99929
     2010.71321        -6.94372         7.55026
     2010.71594        -6.01545         7.72433
     2010.71868        13.36282         7.66757
     2010.72142        10.70809         7.65874
     2010.72416         7.42436         7.70036
     2010.72689        -0.20937         7.87190
     2010.72963         9.73891         7.73189
     2010.73237        11.30318         7.73568
     2010.73511        24.57545         7.84667
     2010.73785         7.81172         8.05732
     2010.74058        10.70599         7.87568
     2010.74332         8.95427         7.70919
     2010.74606         6.55654         7.57171
     2010.74880        12.07881         7.71297
     2010.75154        11.49108         7.52504
     2010.75427        10.56035         7.60576
     2010.75701        10.13962         7.64108
     2010.75975         7.12090         7.59693
     2010.76249        15.35517         7.41783
     2010.76522         2.78544         7.65495
     2010.76796         3.90871         7.51369
     2010.77070        -4.53302         7.88199
     2010.77344       -13.36375         7.91731
     2010.77618         9.84153         7.52125
     2010.77891         4.05680         7.46323
     2010.78165         3.40307         7.58432
     2010.78439         4.24534         7.71676
     2010.78713        16.05761         7.72559
     2010.78987        12.95088         7.52378
     2010.79260         6.84316         7.41909
     2010.79534         3.01143         7.46071
     2010.79808        12.34870         7.50107
     2010.80082        18.37297         7.56666
     2010.80355         7.56324         7.60955
     2010.80629        13.09051         7.65369
     2010.80903        14.72679         7.52756
     2010.81177        16.19606         7.44179
     2010.81451        18.51433         7.56918
     2010.81726        10.34659         7.61964
     2010.81998         7.16387         7.50864
     2010.82272         7.82015         7.46702
     2010.82546         6.17242         7.81388
     2010.82820       -10.84431         7.48720
     2010.83093        -1.23604         7.82019
     2010.83368        -6.42377         7.98668
     2010.83641         5.64950         7.58684
     2010.83915         0.54278         7.52630
     2010.84188         1.11805         7.48720
     2010.84462        13.78232         7.60702
     2010.84736        11.55959         7.49729
     2010.85010        12.48186         7.65243
     2010.85284         5.89113         7.41152
     2010.85557        10.82141         7.37620
     2010.85831         2.52968         7.39386
     2010.86105         2.10095         7.35980
     2010.86379         5.79322         7.50864
     2010.86653         5.08549         7.46449
     2010.86926         8.40276         7.46576
     2010.87200        11.16204         7.35098
     2010.87474         4.32631         7.53765
     2010.87748        -1.94942         7.43801
     2010.88021         5.63085         7.38125
     2010.88295         3.27012         7.57045
     2010.88569        -1.11261         7.42539
     2010.88843        -3.68933         7.58306
     2010.89117         6.08094         7.63225
     2010.89390         6.22321         7.30683
     2010.89664         4.63648         7.42792
     2010.89938         1.22275         7.44053
     2010.90212         4.85503         7.34215
     2010.90485        -5.33770         7.33584
     2010.90759        -2.71643         7.27908
     2010.91033        -2.54416         7.36863
     2010.91307        -7.98289         7.32701
     2010.91581         0.97338         7.40521
     2010.91854         5.79666         7.49855
     2010.92128        -1.25207         7.45819
     2010.92402        -2.79980         7.42161
     2010.92676        -9.23453         7.43170
     2010.92950        -5.96826         7.51495
     2010.93223        -7.07399         7.44557
     2010.93497         4.75529         7.40395
     2010.93771         3.72056         7.39386
     2010.94045        -3.62017         7.53765
     2010.94318         2.23910         7.43548
     2010.94592         7.23137         7.78361
     2010.94866        29.01564         8.83681
     2010.96235        35.85400         8.58329
     2010.96783        35.21755         7.88325
     2010.97056        35.28182         7.85298
     2010.97604        19.87436         8.33607
     2010.97878        18.87663         8.30706
     2010.98151         8.07591         8.43823
     2010.98425        19.91518         8.25913
     2010.98699        17.03445         8.43571
     2010.99520        16.63026         7.51495
     2010.99794        -1.48246         7.43675
     2011.00342        -1.03792         7.61711
     2011.00616         4.44935         7.50360
     2011.00889         7.68862         7.73694
     2011.01163         9.26589         7.56035
     2011.01437        13.57117         7.51369
     2011.01711        17.17644         7.66000
     2011.01984         8.26371         7.44557
     2011.02258        -3.02102         7.40521
     2011.02532         2.73625         7.56162
     2011.02806         3.69552         7.75208
     2011.03080       -20.94620         7.48215
     2011.03353       -12.48993         7.61459
     2011.03627       -12.24966         7.53134
     2011.03901        -0.16139         7.36990
     2011.04175       -15.21512         7.54144
     2011.04449        -3.78184         7.27656
     2011.04722        -5.47857         7.47332
     2011.04996        -8.51130         7.58810
     2011.05270        -5.54603         7.35476
     2011.05544        -6.35676         7.41783
     2011.05817        -2.47549         7.30809
     2011.06091        -1.92221         7.41152
     2011.06365        -5.97794         7.41656
     2011.06639        -5.26767         7.43675
     2011.06913       -10.76140         7.93623
     2011.07186        -9.77013         7.42035
     2011.07460        -8.33186         7.35854
     2011.07734       -10.72858         7.56035
     2011.08008       -17.09831         7.45693
     2011.08282       -10.27304         7.54017
     2011.08556       -10.94477         7.48215
     2011.08829        -9.64350         7.45062
     2011.09119       -14.87433         7.98290
     2011.09377         0.34005         7.61711
     2011.09650        -7.55768         7.48846
     2011.09924         1.98959         7.50864
     2011.10198       -11.95214         7.62468
     2011.10472        -9.88587         8.22129
     2011.10746        -7.17460         7.43927
     2011.11019        -3.78732         7.44305
     2011.11293        -6.23305         7.49981
     2011.11567        -1.86178         7.49729
     2011.11841         5.89249         7.53639
     2011.12115        -5.99224         7.57423
     2011.12388        21.39404         7.67892
     2011.12662        22.71131         7.80253
     2011.12936        13.24358         8.99826
     2011.13210         0.14585         7.45819
     2011.13483        -9.86088         7.34719
     2011.13757        -1.96261         7.41530
     2011.14031        -5.38733         7.35350
     2011.14305        -5.33406         7.53639
     2011.14579        -5.06679         7.48594
     2011.14852         2.56148         7.34593
     2011.15126        -0.82725         9.13701
     2011.15400        10.80102         7.49603
     2011.15674         3.21930         9.23917
     2011.16274        34.22651        11.66848
     2011.16543        27.92281        16.42113
     2011.16769        17.25838        10.07921
     2011.17043         2.08465         7.61838
     2011.17316       -18.63307         9.00961
     2011.17590       -19.67480         7.43422
     2011.17864        -2.68953         7.52756
     2011.18138        -4.96626         7.41404
     2011.18412       -19.29199         7.48341
     2011.18959        -4.17144         7.72685
     2011.19233        -7.76117         7.38251
     2011.19507       -10.30490         7.48972
     2011.19780         0.68337         7.79244
     2011.20054        -3.86436         7.59315
     2011.20328        23.32292         8.23895
     2011.20876        19.37446         7.58054
     2011.21149        -4.48927         7.56918
     2011.21423       -10.30100         7.57171
     2011.21697       -13.50473         7.68270
     2011.21971       -13.01945         7.51747
     2011.22245       -13.46218         7.47206
     2011.22518         0.53509         7.46576
     2011.22792        -7.22564         7.42161
     2011.23066       -10.62537         7.44684
     2011.23340       -13.14210         7.42918
     2011.23613       -18.02082         7.42665
     2011.23887       -13.10955         7.62468
     2011.24161       -13.97428         7.50612
     2011.24435        -7.27201         7.56414
     2011.24709       -14.52174         7.54017
     2011.24982       -20.34447         7.37872
     2011.25256        -8.61819         7.39891
     2011.25530        -9.20892         7.46323
     2011.25804        -8.67465         7.68144
     2011.26078         3.45062         7.59189
     2011.26351         8.61589         7.46702
     2011.26625       -10.57184         7.50107
     2011.26899         3.65544         7.52504
     2011.27173       -11.49629         7.73568
     2011.27446       -10.33202         7.80253
     2011.27720       -17.94175         7.78235
     2011.27994       -15.02148         7.42539
     2011.28268        -7.58920         7.40521
     2011.28542        -6.90593         7.45440
     2011.28815        -8.40466         7.42287
     2011.29089        -7.84539         7.39386
     2011.29363       -10.09912         7.38503
     2011.29637       -12.51285         7.32953
     2011.29911        -6.38457         7.34719
     2011.30184        -9.59530         7.63730
     2011.30458       -12.48803         7.48594
     2011.30732       -12.50776         7.47332
     2011.31006       -15.39149         7.45188
     2011.31279        -8.26922         7.48468
     2011.31553        -7.80994         7.57423
     2011.31827       -12.92567         7.60324
     2011.32101        -3.55640         7.39891
     2011.32375       -15.53513         7.37116
     2011.32648       -13.62386         7.40900
     2011.32923       -18.85959         7.57549
     2011.33196       -13.73931         7.42161
     2011.33470       -20.60804         7.65622
     2011.33744       -13.33977         7.56288
     2011.34017        -3.85350         7.71928
     2011.34291        -8.09023         7.73316
     2011.34565        -9.47896         7.57801
     2011.34839       -17.83668         7.49603
     2011.35112       -14.98441         7.63351
     2011.35386       -20.30014         7.53387
     2011.35660       -16.25887         7.47837
     2011.35934       -20.19560         7.41783
     2011.36208       -16.87032         7.42287
     2011.36481       -12.17305         7.64612
     2011.36755       -15.50878         7.61333
     2011.37029       -17.46051         7.57045
     2011.37303       -15.67024         7.52630
     2011.37577       -15.01997         7.67892
     2011.37850       -13.83869         7.49981
     2011.38124       -18.86842         7.58810
     2011.38398       -26.96615         7.67387
     2011.38672       -24.40688         7.73568
     2011.38945       -15.07761         7.85550
     2011.39219       -16.80534         7.67261
     2011.39493       -16.62606         7.69405
     2011.39767       -22.81679         7.71045
     2011.40041       -15.29352         7.50738
     2011.40314       -24.93925         7.55405
     2011.40588       -15.09098         7.56035
     2011.40862       -18.24671         7.53134
     2011.41136       -20.68743         7.58937
     2011.41410       -14.63216         7.55405
     2011.41683       -16.33389         7.49855
     2011.41957       -15.15862         7.57423
     2011.42231       -23.51935         7.67892
     2011.42505       -17.19007         7.66883
     2011.42778       -18.13880         7.74451
     2011.43052       -12.57653         7.66252
     2011.43326       -15.69326         7.58558
     2011.43600       -16.40099         7.58054
     2011.43874       -21.31172         7.64360
     2011.44147       -20.41644         7.65748
     2011.44421        -7.29317         7.63351
     2011.44695       -11.35190         7.57549
     2011.44969       -16.64363         7.64108
     2011.45243       -11.04836         7.63477
     2011.45516       -15.97009         7.64108
     2011.45790       -16.87581         7.68649
     2011.46064       -10.21354         7.74451
     2011.46338       -15.59127         7.66883
     2011.46611       -20.86200         7.76973
     2011.46885       -10.77173         7.63730
     2011.47159        -3.58946         7.78235
     2011.47433       -14.80618         7.91479
     2011.47707       -10.99591         7.56288
     2011.47980       -11.58564         7.58180
     2011.48254       -11.34837         7.58306
     2011.48528        -2.66210         7.62594
     2011.48802       -21.67883         7.75460
     2011.49076       -21.89155         7.84037
     2011.49349       -12.31828         7.76217
     2011.49624       -13.19301         7.58306
     2011.49897         2.56626         7.77100
     2011.50171        -4.84947         7.72180
     2011.50444        -7.74919         7.68018
     2011.50718       -16.91692         7.76721
     2011.50992       -15.14065         7.80379
     2011.51266        -3.44038         7.88325
     2011.51540       -12.99611         7.72685
     2011.51813         2.66816         7.77352
     2011.52087        -4.49356         7.86686
     2011.52361       -11.13429         7.90343
     2011.52635        -0.64402         7.80505
     2011.52908        -3.74375         7.66757
     2011.53182       -21.26648         7.72180
     2011.53456       -25.06421         7.87316
     2011.53730        -6.13893         7.94758
     2011.54004        -9.35066         7.92488
     2011.54277       -16.03739         7.98794
     2011.54551       -12.57512         7.81388
     2011.54825        -4.53985         7.77100
     2011.55099        -6.75258         8.01317
     2011.55373        -1.83630         7.85424
     2011.55646        -7.71603         7.80001
     2011.55920         4.99724         7.85424
     2011.56194         6.33151         7.89460
     2011.56468        -3.78422         7.81893
     2011.56741        -2.28795         7.90343
     2011.57015        -5.22467         7.94632
     2011.57289        -9.38340         7.76217
     2011.57563         5.32187         7.65874
     2011.57837        10.59714         7.82271
     2011.58111        -7.47459         7.70162
     2011.58384         1.66769         7.81262
     2011.58658        -4.59604         8.03713
     2011.58932       -11.97677         7.87442
     2011.59206        -4.44150         7.71676
     2011.59479        -3.27623         7.72559
     2011.59753        -0.79596         7.75964
     2011.60027        -5.83468         7.73568
     2011.60301        -0.39441         7.78109
     2011.60574        -3.68314         7.79244
     2011.60848        -0.85187         8.04092
     2011.61122        -2.89560         8.03083
     2011.61396         3.87867         7.89208
     2011.61670         5.46095         8.01821
     2011.61943         2.57422         7.83785
     2011.62217        -1.17351         7.79874
     2011.62491       -12.19324         7.82397
     2011.62765         2.14603         7.99047
     2011.63039         0.47930         7.77604
     2011.63312         2.21658         7.78739
     2011.63586        -2.22615         7.76469
     2011.63860         3.46312         7.78865
     2011.64134        14.61739         8.40670
     2011.64407        -0.84834         7.71676
     2011.64681         6.54193         7.72811
     2011.64955        -2.03279         8.17336
     2011.65229        -3.60352         7.87947
     2011.65503        -0.20925         8.02200
     2011.65776        -5.23198         7.91226
     2011.66050         8.16329         8.14308
     2011.66324         5.85057         7.81766
     2011.66598         5.10283         7.99425
     2011.66872         0.53811         8.04344
     2011.67145         5.15638         7.78992
     2011.67419         4.12565         7.71928
     2011.67693         5.58392         7.66504
     2011.67967         5.05820         7.72180
     2011.68240        -2.32853         7.87064
     2011.68514         6.41274         7.79370
     2011.68788        -2.58799         7.85929
     2011.69062         3.13028         7.97533
     2011.69336         5.21955         7.92488
     2011.69609         5.51983         7.88578
     2011.69883         2.81110         7.83911
     2011.70157       -11.80063         7.75208
     2011.70431         8.10464         7.81136
     2011.70705         7.05091         7.96272
     2011.70978         7.03118         7.83028
     2011.71252        -4.87554         8.12795
     2011.71526         3.86673         8.07119
     2011.71800         6.82300         7.85803
     2011.72073        -1.21873         7.89965
     2011.72347        17.16354         7.85424
     2011.72621        26.11381         7.88073
     2011.72895        21.86909         7.74072
     2011.73169        14.08036         7.81388
     2011.73442         4.84663         7.96524
     2011.73716        12.70990         7.84415
     2011.73990         6.38217         7.76217
     2011.74264         7.54545         7.81136
     2011.74538        17.53772         8.09768
     2011.74812        12.90299         8.36003
     2011.75085         5.88326         8.00182
     2011.75359         2.62853         7.94632
     2011.75633         1.49180         7.86686
     2011.75906         1.90108         7.77100
     2011.76180         1.56535         7.89713
     2011.76454        11.36062         8.02830
     2011.76728         5.12789         7.89713
     2011.77002         1.29216         8.13426
     2011.77275         7.72943         7.96650
     2011.77549        12.09771         7.81010
     2011.77823         7.91598         7.88073
     2011.78097         1.33225         7.84794
     2011.78371         4.62852         7.93623
     2011.78644        10.34579         7.75460
     2011.78918         6.89906         7.63477
     2011.79192         6.38634         7.78865
     2011.79466        -1.29339         7.72054
     2011.79739         6.23588         7.89334
     2011.80013         7.20815         7.89965
     2011.80287         3.14042         7.77730
     2011.80561         5.36769         7.68270
     2011.80835         5.14597         7.78739
     2011.81108         6.60524         7.64108
     2011.81382         0.50251         8.09137
     2011.81656         0.09878         7.72937
     2011.81930         2.85105         7.58558
     2011.82203         2.20833         7.67261
     2011.82477         7.87060         7.68649
     2011.82751         3.89087         7.60576
     2011.83025         8.02114         7.69910
     2011.83299        -2.32559         7.58810
     2011.83572        -6.04332         7.63603
     2011.83846         2.51396         7.53261
     2011.84120         7.28523         7.57297
     2011.84394         9.58650         7.62216
     2011.84668         2.29877         7.58684
     2011.84941         1.91004         7.59441
     2011.85215        -5.07969         7.49477
     2011.85489         1.20059         7.66000
     2011.85763        11.70286         7.85803
     2011.86036         8.39513         7.64486
     2011.86310        20.06840         7.82902
     2011.86584         9.50467         7.66883
     2011.86858         8.39594         7.61081
     2011.87132        11.82922         7.57675
     2011.87405        -0.61151         7.61711
     2011.87679         6.59076         7.56792
     2011.87953         0.14203         7.54144
     2011.88227        -4.70870         7.59441
     2011.88501        -7.85242         7.54900
     2011.88774         1.99885         7.62973
     2011.89048        -4.79588         7.65874
     2011.89322        -5.44761         7.85550
     2011.89596        -6.08534         7.69910
     2011.89869         0.85793         7.64360
     2011.90143        -1.83979         7.62973
     2011.90417        -0.83252         7.64865
     2011.90691        -1.99025         7.70919
     2011.90965        -2.18498         7.60955
     2011.91238         1.98529         7.85172
     2011.91513        -6.24944         7.72433
     2011.91786         5.24384         7.87947
     2011.92060        -8.23889         7.70793
     2011.92334        -7.67162         7.81893
     2011.92607        -9.39135         7.81010
     2011.92881        -7.77508         7.76973
     2011.93155         1.87319         7.79370
     2011.93429        -0.98953         7.80253
     2011.93702        -6.84526         7.78235
     2011.93976         3.69501         7.76343
     2011.94250        -1.31572         7.81893
     2011.94524        -3.10645         7.77856
     2011.94798         4.29682         7.71928
     2011.95071        -3.12390         7.67135
     2011.95345        -0.71963         7.76090
     2011.95619        -5.47736         7.83911
     2011.95893        -5.72709         7.54396
     2011.96167         4.01218         7.65369
     2011.96440        -1.85654         7.82902
     2011.96714        -2.16127         7.69405
     2011.96988         3.27100         7.60955
     2011.97262        -7.98173         7.54270
     2012.68446         7.40892         7.32827
     2012.68720         8.17919         7.49855
     2012.68993        21.16446         7.54522
     2012.69267        16.08473         7.64991
     2012.69541         9.47601         7.47332
     2012.69815         5.48928         7.52378
     2012.70089         0.69455         7.49855
     2012.70362         7.24082         7.49603
     2012.70636        -2.01591         7.50486
     2012.70910         3.85936         7.39008
     2012.71184         5.64364         7.40395
     2012.71457         9.85791         7.49477
     2012.71731         5.15718         7.44053
     2012.72005         6.85745         7.51242
     2012.72279         7.89272         7.40017
     2012.72553         4.89499         7.54774
     2012.72826         4.89627         7.44431
     2012.73100         9.24054         7.66126
     2012.73374         1.97981         7.56162
     2012.73648         4.70208         7.40774
     2012.73921        11.14535         7.53765
     2012.74195        15.09963         7.55153
     2012.74469        22.77290         7.56540
     2012.74743        18.75317         7.44179
     2012.75017        13.49444         7.44557
     2012.75290        22.90071         7.45440
     2012.75564        13.86498         7.37368
     2012.75838        13.23426         7.36359
     2012.76112        16.30853         7.38125
     2012.76386        17.13280         7.35098
     2012.76659        19.15907         7.36990
     2012.76933        18.27434         7.40395
     2012.77207        17.99761         7.39764
     2012.77481        13.52789         7.42792
     2012.77754        15.59616         7.44810
     2012.78028        17.79943         7.63730
     2012.78302        19.11470         7.73189
     2012.78576         4.18097         7.54396
     2012.78850       -15.95076         7.60450
     2012.79123        11.14552         7.74829
     2012.79397        20.46879         7.42918
     2012.79671        21.43006         7.53387
     2012.79945       -10.86767         7.69532
     2012.80219         5.16760         7.48089
     2012.80492        -4.83312         7.42161
     2012.80766        -7.77785         7.43170
     2012.81040       -18.71458         7.72559
     2012.81314       -18.87931         7.46449
     2012.81587        -5.54404         7.37999
     2012.81861         0.13723         7.50990
     2012.82135        16.36651         7.71297
     2012.82409        -5.89322         7.97155
     2012.82683        11.99905         7.51999
     2012.82956         3.41832         7.56918
     2012.83230        -1.42241         7.49350
     2012.83504         8.81086         7.58684
     2012.83778        16.55514         7.56792
     2012.84052        23.25941         7.72811
     2012.84325        10.29668         7.84667
     2012.84599         9.75595         8.01569
     2012.84873        19.86022         7.69910
     2012.85147        21.04249         7.60198
     2012.85420         9.87277         7.55405
     2012.85694         8.73804         7.54270
     2012.85968         6.10831         7.51747
     2012.86242         9.89358         7.50486
     2012.86516         8.39185         7.55657
     2012.86789        10.00112         7.79748
     2012.87063         5.15440         7.48720
     2012.87337         4.00367         7.47837
     2012.87611         3.05594         7.51747
     2012.87885        19.76421         7.53891
     2012.88158        16.21148         7.42918
     2012.88432        13.81176         7.50360
     2012.88706        14.93203         7.67640
     2012.88980        14.93330         7.68523
     2012.89253         6.20257         7.45945
     2012.89527         8.11584         7.46449
     2012.89801         4.83111         7.47332
     2012.90075        10.18939         7.49098
     2012.90349         2.24766         7.53891
     2012.90622         6.76693         7.47206
     2012.90896         2.80320         7.60324
     2012.91170        10.43447         7.71550
     2012.91444         8.84174         7.39008
     2012.91718        18.30202         7.40900
     2012.91991        10.45329         7.44810
     2012.92265         6.72256         7.34971
     2012.92539        13.88983         7.46197
     2012.92813         8.23110         7.43422
     2012.93086         3.28137         7.57549
     2012.93360         9.28065         7.54648
     2012.93634         9.21792         7.39386
     2012.93908         4.20019         7.53008
     2012.94182         9.69646         7.47206
     2012.94455        12.72673         7.50233
     2012.94729         7.24700         7.48089
     2012.95003         2.01928         7.40900
     2012.95277        11.06555         7.28539
     2012.95551        11.26782         7.33079
     2012.95824        19.90109         7.44053
     2012.96098        12.32036         7.52125
     2012.96372         5.14264         7.46954
     2012.96646         7.09091         7.25007
     2012.96919         7.28018         7.45314
     2012.97193        -0.32055         7.46071
     2012.97467         8.66172         7.35098
     2012.97741         7.96999         7.34593
     2012.98015         1.13727         7.28539
     2012.98288         2.54354         7.33458
     2012.98562         4.93181         7.39134
     2012.98836         0.60108         7.31944
     2012.99110         4.23335         7.32575
     2012.99384         3.74762         7.35476
     2012.99657         3.88890         7.35980
     2012.99931         1.21917         7.40900
     2013.00205         1.85144         7.39008
     2013.00479         1.27971         7.45819
     2013.00752        -5.36902         7.39260
     2013.01026         0.94825         7.40774
     2013.01300         8.19453         7.43044
     2013.01574         4.89080         7.40900
     2013.02121        11.79734         7.47206
     2013.02395         1.38761         7.53639
     2013.02669         4.39588         7.60955
     2013.02943         5.66616         7.40395
     2013.03216        -0.70057         7.41026
     2013.03490         1.12970         7.51747
     2013.03764         2.69697         7.45945
     2013.04038       -10.18176         7.38882
     2013.04312        -3.45748         7.70288
     2013.04585        -3.21921         7.63982
     2013.04859        -9.06494         7.59946
     2013.05133        -4.84567         8.81789
     2013.05407        -3.15540         8.42310
     2013.05720        -5.48238         9.09160
     2013.05954        -2.57785         7.48215
     2013.06228        -2.98458         7.65117
     2013.06502        -0.71631         7.63856
     2013.06776         6.57796         7.54017
     2013.07049         0.72823         7.45693
     2013.07323         2.16950         7.40269
     2013.07597         0.90478         7.43675
     2013.08145        11.71932         7.46449
     2013.08418         2.27459         7.39764
     2013.08692        -3.32114         7.41278
     2013.08966        -7.78687         7.48846
     2013.09240        -6.11359         7.50107
     2013.09514         2.46268         7.58306
     2013.09787         1.73195         7.76469
     2013.10061        -1.80978         7.81514
     2013.10335        -0.66251         7.56540
     2013.10609        -1.57024         7.39512
     2013.10882         2.64504         7.46323
     2013.11156        -7.05469         7.57801
     2013.11430        -5.27542         7.43296
     2013.12251         4.26040         7.47459
     2013.12525       -11.51833         7.47459
     2013.12799       -11.23806         7.55657
     2013.13073         2.32521         7.50612
     2013.13347         1.03948         7.44684
     2013.13620         1.36075         7.50486
     2013.13894         3.31103         7.45440
     2013.14168         4.15630         7.53891
     2013.14442         2.94057         7.70162
     2013.14715        11.13684         7.66504
     2013.14989        -8.65489         7.40647
     2013.15263        -1.67362         7.43296
     2013.15537       -10.94534         7.40395
     2013.15811       -11.31907         7.46576
     2013.16084        -2.85480         7.49350
     2013.16358       -12.05053         7.56918
     2013.16632       -15.63726         7.37368
     2013.16906         4.07801         7.35476
     2013.17180        -5.45171         7.38125
     2013.17453       -12.22244         7.39764
     2013.17727       -10.08717         7.59946
     2013.18001        -8.29690         7.57801
     2013.18275        -4.10863         7.31692
     2013.18548        -5.57536         7.34215
     2013.18822        -4.50908         7.43927
     2013.19096        -5.77681         7.47963
     2013.19370         2.22046         7.42161
     2013.19644       -14.38227         7.52125
     2013.19917       -16.19200         7.51999
     2013.20191        -3.37372         7.55783
     2013.20465        -1.63645         7.40269
     2013.20739        -2.44918         7.39638
     2013.21013        -0.63191         7.47711
     2013.21286        -5.50464         7.43927
     2013.21560        -3.43937         7.37872
     2013.21834        -3.08409         7.43927
     2013.22108        -5.92982         7.32323
     2013.22381        -3.31655         7.42035
     2013.22655        -8.58028         7.42539
     2013.22929        -9.56401         7.42539
     2013.23203       -11.55674         7.34215
     2013.23477       -16.06446         7.33836
     2013.23750       -14.92219         7.45062
     2013.24024       -13.42892         7.53261
     2013.24298       -12.22965         7.53891
     2013.24572        -5.73338         7.50233
     2013.24846        -4.55411         7.48720
     2013.25119        -8.38983         7.51999
     2013.25393        -7.44056         7.56792
     2013.25667        -7.66229         7.75208
     2013.25941        -3.87102         7.56035
     2013.26214        -0.49875         7.54270
     2013.26488        -2.99447         7.42035
     2013.26762       -10.72020         7.46828
     2013.27036        -8.92293         7.40269
     2013.27310       -14.38766         7.73568
     2013.27583        -6.06639         7.58937
     2013.27857        -9.08612         7.50864
     2013.28131        -4.70084         7.45567
     2013.28405       -10.61657         7.49603
     2013.28679        -5.59430         7.46576
     2013.28952       -10.73403         7.41026
     2013.29226       -13.07076         7.46071
     2013.29500       -14.13549         7.47585
     2013.29774       -16.55921         7.64865
     2013.30047        -9.37794         7.50990
     2013.30321        -9.06267         7.53008
     2013.30595       -12.39040         7.52756
     2013.30869       -12.41113         7.48089
     2013.31143       -14.63386         7.46576
     2013.31416        -2.19058         7.47459
     2013.31690       -10.01331         7.46071
     2013.31964       -12.32404         7.62594
     2013.32238        -7.60377         7.46954
     2013.32512        -1.89450         7.55657
     2013.32785        -6.05723         7.50612
     2013.33059       -12.74895         7.51495
     2013.33333       -19.68868         7.53261
     2013.33607       -12.10041         7.48720
     2013.33880        -8.42314         7.48720
     2013.34154        -7.52787         7.51369
     2013.34428        -9.83559         7.52378
     2013.34702        -1.84432         7.52252
     2013.34976       -12.21405         7.49477
     2013.35249       -16.41878         7.48720
     2013.35523       -18.55951         7.66883
     2013.35797       -13.17324         7.52504
     2013.36071       -12.74896         7.82397
     2013.36344       -24.50869         7.57927
     2013.36618       -12.83342         7.39764
     2013.36892        -7.21415         7.46576
     2013.37166       -15.58888         7.63982
     2013.37440       -15.41061         7.41656
     2013.37713       -14.54333         7.53765
     2013.37987        -9.08006         7.41152
     2013.38261       -10.33279         7.51116
     2013.38535       -17.06852         7.53008
     2013.38809        -4.81125         7.40395
     2013.39082        -7.66098         7.37620
     2013.39356       -13.40570         7.38629
     2013.39630       -10.21643         7.50738
     2013.39904       -11.24716         7.48972
     2013.40177       -11.93189         7.43044
     2013.40451       -21.17162         7.57423
     2013.40725       -11.22235         7.48089
     2013.40999       -12.89807         7.48468
     2013.41273        -6.89080         7.44684
     2013.41546        -4.82853         7.66504
     2013.41820        -8.70426         7.50233
     2013.42094        -0.22399         7.49224
     2013.42368        -8.71171         7.47206
     2013.42642        -7.27644         7.48341
     2013.42915        -2.61217         7.44936
     2013.43189        -0.60290         7.61333
     2013.43463         0.87137         7.51116
     2013.43737        -1.65636         7.50738
     2013.44010        -7.60408         7.41278
     2013.44284        -1.14781         7.51369
     2013.44558        -0.09654         7.68775
     2013.44832       -15.15627         7.55783
     2013.45106        -2.77400         7.46702
     2013.45379        -5.97273         7.51242
     2013.45653        -3.27345         7.56288
     2013.45927        -9.47918         7.62216
     2013.46201        -4.55891         7.62468
     2013.46475        -7.06964         7.45440
     2013.46748        -5.19637         7.46449
     2013.47022        -4.58510         7.46576
     2013.47296        -1.87482         7.44053
     2013.47570        -9.76855         7.44305
     2013.47843       -26.77728         7.51747
     2013.48117        -2.80401         7.44557
     2013.48391         5.81826         7.45314
     2013.48665        -9.40947         7.49098
     2013.48939         4.48381         7.53513
     2013.49212        -4.29492         7.62468
     2013.49486       -19.84265         7.55153
     2013.49760         1.68162         7.66757
     2013.50034         0.74389         7.51873
     2013.50308         1.89117         7.47080
     2013.50581         4.01744         7.40900
     2013.50855         0.78271         7.34845
     2013.51129        -0.99602         7.39512
     2013.51403         3.50325         7.48468
     2013.51676         2.26352         7.37368
     2013.51950         1.05780         7.39386
     2013.52224        14.43507         7.42918
     2013.52498         4.37334         7.58558
     2013.52772         5.66661         7.46954
     2013.53045        -4.65612         7.42665
     2013.53319         2.23215         7.34215
     2013.53593         6.66643         7.49224
     2013.53867         3.65370         7.55909
     2013.54141        -7.62603         7.55909
     2013.54414         1.07024         7.44179
     2013.54688        -5.60549         7.32449
     2013.54962         4.51878         7.41783
     2013.55236         6.41106         7.46449
     2013.55509         1.47533         7.44305
     2013.55783         4.01560         7.48846
     2013.56057         0.57787         7.52504
     2013.56331         1.65914         7.45440
     2013.56605         2.08941         7.39260
     2013.56878         6.91169         7.52630
     2013.57152         5.30996         7.40521
     2013.57426         5.02323         7.42161
     2013.57700         3.14550         7.42287
     2013.57974         5.79677         7.46449
     2013.58247         2.17205         7.47837
     2013.58521         5.76732         7.48720
     2013.58795         3.44959         7.41783
     2013.59069         7.70986         7.36737
     2013.59342         3.11513         7.43548
     2013.59616         9.39040         7.49224
     2013.59890         2.72668         7.47585
     2013.60164         8.90695         7.52504
     2013.60438        11.06422         7.47711
     2013.60711         0.99549         7.64234
     2013.60985         3.71676         7.43044
     2013.61259        -3.12897         7.54522
     2013.61533        14.44331         7.70541
     2013.61807         0.25658         7.72307
     2013.62080         5.79785         7.86938
     2013.62354        20.61312         7.77478
     2013.62628        14.94739         7.80631
     2013.62902         3.57466         7.50107
     2013.63175        16.28694         7.59693
     2013.63449         8.55521         7.59946
     2013.63723        11.83848         7.34593
     2013.63997        12.03675         7.45819
     2013.64271         4.78102         7.54396
     2013.64544        15.39929         7.47206
     2013.64818        12.68357         7.53765
     2013.65092         0.49484         7.40521
     2013.65366         9.46011         7.58180
     2013.65639        13.15738         7.56288
     2013.65913         3.21065         7.71802
     2013.66187        10.30193         7.90596
     2013.66461         4.87620         7.38503
     2013.66735         9.98447         7.66883
     2013.67008        23.16374         7.39260
     2013.67282        27.11301         7.85550
     2013.67556        14.47528         7.68144
     2013.67830        14.07356         7.55909
     2013.68104        43.39183         9.22025
     2013.68377         8.29210         7.36107
     2013.68651        15.25537         7.39512
     2013.68925        13.28564         7.46323
     2013.69199        13.43091         7.45945
     2013.69472         9.52119         7.45567
     2013.69746         5.46946         7.36359
     2013.70020        13.50373         7.41530
     2013.70294        13.43000         7.38882
     2013.70568         4.59227         7.47332
     2013.70841         8.65754         7.62973
     2013.71115        -0.79218         7.35980
     2013.71389         8.44709         7.36863
     2013.71663        11.61136         7.39386
     2013.71937        12.46063         7.54017
     2013.72210        19.26890         7.45567
     2013.72484         5.29018         7.46576
     2013.72758        21.68545         7.57549
     2013.73032        23.80972         7.48341
     2013.73305        17.22699         7.37746
     2013.73579        12.41226         7.35980
     2013.73853        12.24053         7.45188
     2013.74127         7.03881         7.56288
     2013.74401         8.90308         7.49981
     2013.74674        14.89235         7.39638
     2013.74948         5.35362         7.36990
     2013.75222         2.23889         7.45567
     2013.75496         0.73216         7.37242
     2013.75770         2.28344         7.29422
     2013.76043         5.45871         7.35224
     2013.76317         9.18598         7.36990
     2013.76591        21.95825         7.82523
     2013.76865         3.87752         7.41530
     2013.77138         6.34479         7.32827
     2013.77412        17.87607         7.50990
     2013.77686         8.56634         7.40395
     2013.77960         5.41061         7.40900
     2013.78234         4.37288         7.39260
     2013.78507         2.64715         7.40269
     2013.78781        -3.71558         7.39134
     2013.79055         4.08970         7.55531
     2013.79329         8.42697         7.50107
     2013.79603         8.03824         7.37242
     2013.79876         2.42151         7.37116
     2013.80150        10.66578         7.51621
     2013.80424         8.05106         7.55531
     2013.80698         6.01333         7.38882
     2013.80971         9.17160         7.37494
     2013.81245         5.73987         7.43422
     2013.81519         0.24014         7.37620
     2013.81793         3.90241         7.44810
     2013.82067         8.39169         7.60576
     2013.82340        15.03996         7.38377
     2013.82614         9.71823         7.49981
     2013.82888        14.86350         7.50612
     2013.83162        10.78277         7.64108
     2013.83436        10.54104         7.76847
     2013.83709        15.46232         7.58810
     2013.83983         9.08759         7.46702
     2013.84257        12.95986         7.45314
     2013.84531         0.97113         7.63477
     2013.84804         4.77740         7.48341
     2013.85078         6.69867         7.46954
     2013.85352         5.15195         7.45945
     2013.85626         3.88722         7.34845
     2013.85900         7.82949         7.43296
     2013.86173        11.90976         7.49098
     2013.86447        -6.07897         7.57549
     2013.86721         8.20330         7.39008
     2013.86995         7.39158         7.40395
     2013.87269        10.20785         7.43927
     2013.87542        14.80112         7.42539
     2013.87816        12.46439         7.51242
     2013.88090        11.75766         7.48594
     2013.88364        13.25294         7.66883
     2013.88637         8.79921         7.30557
     2013.88911         0.47948         7.31440
     2013.89185        -7.37325         7.39638
     2013.89459        -1.96398         7.37494
     2013.89733         5.98829         7.35602
     2013.90006         7.62757         7.45440
     2013.90280        -3.18316         7.36107
     2013.90554         4.78211         7.40395
     2013.90828         2.70838         7.41152
     2013.91102         5.47765         7.41530
     2013.91375        -3.52108         7.46197
     2013.91649        10.87020         7.36737
     2013.91923        17.36647         7.57045
     2013.92197         3.03174         7.53765
     2013.92470         8.06801         7.35476
     2013.92744         5.65528         7.50486
     2013.93018         2.59055         7.33458
     2013.93292         1.39183         7.28034
     2013.93566         4.30110         7.35980
     2013.93839         8.35637         7.35980
     2013.94113         8.29364         7.41152
     2013.94387         4.72791         7.39008
     2013.94661         3.78518         7.46071
     2013.94935         9.84846         7.23115
     2013.95208         7.72773         7.41404
     2013.95482        10.33600         7.45062
     2013.95756        12.77627         7.40017
     2013.96030         7.72654         7.40395
     2013.96303         4.93782         7.37746
     2013.96577         6.60109         7.35728
     2013.96851         8.72936         7.51495
     2013.97125        17.99763         7.60576
     2013.97399        15.48290         7.50864
     2013.97672        -1.27683         7.49477
     2013.97946         4.93345         7.36737
     2013.98220         3.12672         7.48720
     2013.98494         0.03799         7.44684
     2013.98767        -0.53874         7.39134
     2013.99041         3.94653         7.39638
     2013.99315         1.36380         7.35602
     2013.99589        10.72008         7.54017
     2013.99863         6.36035         7.66252
     2014.00410        -1.20411         7.43422
     2014.00684         1.82116         7.48594
     2014.00958         5.93443         7.44305
     2014.01232         1.83571         7.51621
     2014.01505         2.27098         7.48468
     2014.01779        -4.38275         7.42287
     2014.02053         8.15352         7.29043
     2014.02327         5.96179         7.59441
     2014.02600         3.04706         7.71676
     2014.02874        11.43534         7.43296
     2014.03148         9.78661         7.34719
     2014.03422        13.02488         7.49224
     2014.03696         0.68015         7.36611
     2014.03969         5.96642         7.54144
     2014.04243         3.12170         7.76343
     2014.04517         4.20297         7.60576
     2014.04791         4.68224         7.30305
     2014.05065         1.26151         7.33710
     2014.05338         0.26478         7.41783
     2014.05612        -0.91495         7.49729
     2014.05886        -1.49567         7.56918
     2014.06160         6.55960         7.38755
     2014.06433        -0.07213         7.64108
     2014.06707         3.50014         7.62594
     2014.06981         2.39941         7.49350
     2014.07255         4.37468         7.43422
     2014.07529         5.44096         7.55279
     2014.07802         7.10223         7.39386
     2014.08076         7.29550         7.39638
     2014.08350         2.62977         7.43170
     2014.08624        -0.05096         7.52504
     2014.08898        -2.12369         7.75460
     2014.09171         4.82159         7.70667
     2014.09445         1.40586         7.39134
     2014.09719        -4.72987         7.55153
     2014.09993         8.09640         7.45945
     2014.10266         5.66167         7.65622
     2014.10540        11.26294         7.37368
     2014.10814         6.80122         7.40143
     2014.11088         5.05949         7.66252
     2014.11362         6.09176         7.34971
     2014.11635         9.03703         7.35980
     2014.11909         2.95530         7.40269
     2014.12183         6.07058         7.48720
     2014.12457         6.75185         7.43422
     2014.12731         5.71312         7.28034
     2014.13004         6.71839         7.30557
     2014.13278         1.58866         7.58432
     2014.13552         2.65793         7.68523
     2014.13826        -1.44379         7.42665
     2014.14099         5.58648         7.45440
     2014.14373         6.74375         7.37999
     2014.14647         7.12502         7.53891
     2014.14921         1.24129         7.57045
     2014.15195        -5.71444         7.49981
     2014.15468       -11.21416         7.53261
     2014.15742        -3.88389         7.51621
     2014.16016         0.48838         7.74577
     2014.16564       -12.08608         7.64739
     2014.16837        -1.55681         7.76469
     2014.17111        -3.60453         7.67892
     2014.17385        -6.43726         7.71676
     2014.17659         0.61901         7.58306
     2014.17932        -6.89472         8.00434
     2014.18206        -6.67745         7.70288
     2014.18480       -10.36317         7.42161
     2014.19028        -8.89863         7.49981
     2014.19301        -5.17936         7.52378
     2014.19575        -1.20409         7.45188
     2014.19849        -2.60982         7.59693
     2014.20123        -1.80954         7.62468
     2014.20397        -1.14327         7.61964
     2014.20670        -1.96600         7.71676
     2014.20944        -1.47173         7.57045
     2014.21218        -0.31146         7.69405
     2014.21492         3.04681         7.73568
     2014.21765        -3.24091         7.57801
     2014.22039        -6.59564         7.57549
     2014.22313        -1.84737         7.55153
     2014.22587        -7.68810         7.51495
     2014.22861        -4.36783         7.54648
     2014.23134         1.14644         7.47332
     2014.23408       -13.55928         7.48341
     2014.23682        -2.63801         7.54522
     2014.23956        -4.34974         7.65874
     2014.24230       -13.21747         7.42539
     2014.24503       -14.42420         7.42035
     2014.24777        -5.40693         7.74325
     2014.25051        -9.69965         7.42665
     2014.25325        -4.93038         7.51495
     2014.25598        -5.80011         7.71676
     2014.25872       -11.62784         7.62342
     2014.26146        -6.35457         7.78361
     2014.26420       -12.88629         7.64612
     2014.26694        -8.03502         7.61207
     2014.26967       -12.01175         7.66757
     2014.27241       -14.34348         7.82271
     2014.27515        -7.84321         7.83406
     2014.27789        -5.88094         7.57171
     2014.28062        -7.42066         7.51873
     2014.28336        -7.42939         7.69279
     2014.28610         1.17188         8.07371
     2014.28884        -4.70285         8.05101
     2014.29158       -18.19658         7.47585
     2014.29431         1.98069         7.54270
     2014.29705         4.58997         7.58558
     2014.29979       -13.38576         7.51621
     2014.30253        -6.36549         7.56540
     2014.30527       -10.64422         7.46197
     2014.30800        -7.96895         7.49981
     2014.31074        -7.40768         7.60198
     2014.31348       -13.77240         7.54774
     2014.31622        -6.80913         7.37242
     2014.31895        -9.58586         7.44179
     2014.32169       -14.50759         7.57927
     2014.32443       -23.35032         7.71424
     2014.32717       -18.33305         7.68144
     2014.32991       -12.82377         7.54900
     2014.33264         3.75550         7.68396
     2014.33538       -12.22223         7.59063
     2014.33812       -21.78796         7.77730
     2014.34086       -11.47669         7.42413
     2014.34360        -9.34741         7.47459
     2014.34633       -12.14314         7.41152
     2014.34907       -13.39987         7.66378
     2014.35181        -4.70260         7.67135
     2014.35455        -8.30033         7.41026
     2014.35728        -9.79806         7.49350
     2014.36002       -14.77378         7.46323
     2014.36276       -18.24251         7.50738
     2014.36550       -13.30424         7.51369
     2014.36824        -7.19197         7.71297
     2014.37097       -14.35670         7.56540
     2014.37371        -7.31043         7.55405
     2014.37645       -12.16515         7.52504
     2014.37919        -9.81288         7.55405
     2014.38193       -13.86861         7.50612
     2014.38466       -10.05334         7.59315
     2014.38740        -7.26407         7.57675
     2014.39014         4.76220         7.82649
     2014.39288        -6.52652         7.57171
     2014.39561        -7.88725         7.58684
     2014.39835         0.33202         7.69279
     2014.40109        -7.98671         7.59567
     2014.40383        -3.58044         7.49855
     2014.40657        -6.64017         7.60072
     2014.40930       -13.68489         7.63856
     2014.41204       -13.68162         7.49350
     2014.41478        -8.61835         7.47585
     2014.41752        -6.07908         7.51747
     2014.42026        -4.54081         7.57549
     2014.42299        -1.68953         7.59441
     2014.42573        -4.88126         7.58684
     2014.42847        -4.86099         7.56792
     2014.43121        -9.12772         7.50107
     2014.43394        -7.93945         7.57045
     2014.43668        -1.23118         7.63982
     2014.43942         3.30610         7.55153
     2014.44216        -2.92463         7.54396
     2014.44490        -5.51636         7.77604
     2014.44763         0.84891         7.64360
     2014.45037        -2.77682         7.44557
     2014.45311        -1.16855         7.55909
     2014.45585        -2.76827         7.50738
     2014.45859        -3.18400         7.49350
     2014.46132        -3.26573         7.44936
     2014.46406        -4.19346         7.49981
     2014.46680       -10.00919         7.76343
     2014.46954        -6.88392         7.49350
     2014.47227        -3.14364         7.53008
     2014.47501       -11.40237         7.54144
     2014.47775        -8.79710         7.52252
     2014.48049        -6.30083         7.54774
     2014.48323        -8.99656         7.54270
     2014.48596        -7.46329         7.99551
     2014.48870         2.07299         7.73820
     2014.49144        -0.31674         7.45314
     2014.49418        -5.82947         7.38125
     2014.49692        -3.60620         7.45693
     2014.49965         0.16207         7.45188
     2014.50239         5.33735         7.46449
     2014.50513        -8.11238         7.61207
     2014.50787         3.25589         7.50990
     2014.51060         5.36116         7.51242
     2014.51334        -1.47357         7.39008
     2014.51608         5.49670         7.37999
     2014.51882        -4.04502         7.39638
     2014.52156         4.42625         7.57675
     2014.52429         1.89252         7.45819
     2014.52703         4.98879         7.48215
     2014.52977       -12.99094         7.50360
     2014.53251        -4.78667         7.57675
     2014.53525        10.77261         7.47963
     2014.53798         6.93788         7.42161
     2014.54072         3.69915         7.69405
     2014.54346        10.07242         7.41783
     2014.54620        23.12669         7.65874
     2014.54893        20.97196         7.64108
     2014.55167        10.85024         7.48215
     2014.55441         3.58151         7.56540
     2014.55715        -8.55822         7.66883
     2014.55989         0.29105         7.56540
     2014.56262        14.45832         7.59567
     2014.56536         6.72659         7.48720
     2014.56810        10.77587         7.55783
     2014.57084         2.43714         7.57549
     2014.57357        -1.56159         7.53765
     2014.57631       -10.12332         7.76469
     2014.57905         5.76395         7.70667
     2014.58179        -1.20877         7.71676
     2014.58453        11.56650         7.71928
     2014.58726        -0.13223         7.89965
     2014.59000         3.77404         7.77982
     2014.59274        10.82831         7.50107
     2014.59548         2.36658         7.60576
     2014.59822        21.21886         7.62847
     2014.60095        10.53013         7.67892
     2014.60369         5.57740         7.77478
     2014.60643         2.48167         8.73843
     2014.60917        32.54694        18.03814
     2014.61190        30.67921        19.82165
     2014.61464       -47.17551        21.64300
     2014.61738       -23.84424        18.42915
     2014.62012        -6.22897        17.62065
     2014.62286       -41.20470        17.89057
     2014.62559         4.26657        17.07323
     2014.62833       -63.80416        17.57398
     2014.63107       -10.98088        16.85881
     2014.63381       -15.99261        18.07220
     2014.63655        90.38166        21.32514
     2014.63928        55.01693        19.29694
     2014.64202        34.54520        19.74093
     2014.64476        62.21848        20.12941
     2014.65845        55.56983        22.02518
     2014.66119        31.76011        21.48155
     2014.66940        49.67992        19.36631
     2014.67214        40.56119        20.19626
     2014.67488        65.04746        20.75755
     2014.67761        36.14574        21.13721
     2014.68035        75.27101        20.36906
     2014.68309         4.86728        20.92152
     2014.68583        12.36955        20.53808
     2014.68856        26.95582        20.03860
     2014.69130         5.23809        18.90089
     2014.69404        19.69837        19.35622
     2014.69678        14.84864        19.48109
     2014.71321       381.21127         7.33079
     2014.71594       372.67954         7.60072
     2014.71868       377.64481         7.26773
     2014.72142       367.83108         7.42035
     2014.72416       386.32236         7.47963
     2014.72689       371.29063         7.58558
     2014.72963       349.71190         8.24777
     2014.73237       370.68217         7.39512
     2014.73511       353.05644         7.40143
     2014.73785       371.18671         7.43044
     2014.74058       376.39499         7.35476
     2014.74332       376.22526         7.52630
     2014.74606       377.57753         7.41783
     2014.74880       374.62080         7.39386
     2014.75154       377.37907         7.67009
     2014.75427       378.52734         7.42161
     2014.75975       379.41289         7.54017
     2014.76249       378.17116         7.49855
     2014.76522       374.48943         7.45567
