# ================= DQRFIT RESULTS ================
# INPUT FILE: series/DANP.rad
# OUTPUT: LDETRENDED
# FILTER FUNCTION: f(t)
# f(t)=+line(t)+annual(t)
# line(t)=+P 1+P 2*t
# annual(t)=+P 3*sin(2*pi*t+P 4)
# heav(t)=(t<0?0:1)
# TOTAL OBSERVATIONS MTOT=  923
# INITIAL TIME INTERVAL= 2022.7488 - 2020.1177 =  2.6311
# TOTAL OBSERVATIONS AFTER PREFILTER M=  907
# TIME-SPAN= 2022.7488 - 2020.1177 =  2.6311
# OBSERVATIONS: USED M=   907 REJECTED MTOT-M=    16 %USED=   98.2665
# N=  4 PARAMETERS
# MAXSIG= 175.00000
# MAXRES=  20.97537
# SCALE FACTOR FOR LENGTHS: SCL=  10.00000
# SCALE FACTOR FOR SIGMAS: SCLSIG=   1.00000
# CHI^2=    782.941 DOF=   903 CHI^2/DOF=   0.86704
# RMS=      5.649 SDEV=      5.651 MEAN=    0.05315
#  P #       PARAMETER +-    SIGMA %error PARAMETER NAME
# P 1 =      3235.14119 +-  463.023  14.31 YZERO                              
# P 2 =        -1.60241 +-    0.229  14.29 SLOPE                              
# P 3 =         3.22580 +-    0.260   8.07 ANNUAL AMPLITUDE                   
# P 4 =         2.83759 +-    0.109   3.84 ANNUAL PHASE                       
#       T            LDETRENDED       SIG_OBS
     2020.11772        -3.85108         5.11947
     2020.12046        -5.58869         5.13903
     2020.12320        -4.55030         4.94721
     2020.12594        -4.01791         4.95000
     2020.12867        -4.65553         4.93697
     2020.13141        -5.15014         5.00867
     2020.13415        -6.32175         4.95466
     2020.13689         0.15763         5.02636
     2020.13963        -1.73798         5.04871
     2020.14236        -2.28959         4.97887
     2020.14510         7.72880         5.13158
     2020.14784        -7.90682         5.03008
     2020.15058        -5.23743         5.07012
     2020.15331        -7.80704         4.97514
     2020.15605        -6.10465         4.93976
     2020.15879        -0.16827         4.94907
     2020.16153         2.01512         5.08875
     2020.16427         2.20951         4.96956
     2020.16700         1.85389         5.00029
     2020.16975         3.87029         5.45096
     2020.17248        -6.13333         6.45847
     2020.17522        -1.37294         5.84391
     2020.17796         5.72044         5.67072
     2020.18343         0.92322         5.37088
     2020.18617         0.75360         6.13070
     2020.18891        -3.57001         5.82436
     2020.19164         6.78938         5.59902
     2020.19438        -1.73723         6.15491
     2020.19986        -5.16046         5.89233
     2020.20260        -6.60507         5.72100
     2020.21081        -7.95491         5.90350
     2020.21355        -5.75852         5.42210
     2020.21629        -0.74714         5.22562
     2020.21900        -3.33878         5.12879
     2020.22176        -4.03536         5.20048
     2020.22450         3.93702         5.04405
     2020.22724        -0.91659         5.26287
     2020.22997         1.13180         5.72845
     2020.23201         4.37707        10.91496
     2020.23819         0.46196         8.09357
     2020.24093        -1.16065         6.08508
     2020.24641       -10.61487        10.27526
     2020.24914        -3.54749         5.74707
     2020.25188        -5.36810         5.67258
     2020.25462        -7.25471         6.38305
     2020.26009         4.07106         4.98446
     2020.26283         5.06344         4.96956
     2020.26557        -3.70717         5.04871
     2020.26830        -3.52578         4.98353
     2020.27104        -2.90839         4.96025
     2020.27378         0.08699         5.01146
     2020.27652        -3.76162         5.12972
     2020.27929        -1.95918         5.13903
     2020.28747        -4.17107         5.08223
     2020.29021        -0.56568         5.06360
     2020.29295        -1.07130         5.00960
     2020.29568         1.72509         5.04033
     2020.29842         0.42748         5.03008
     2020.30116         0.70286         5.02170
     2020.30390         3.44825         4.95466
     2020.30663         3.37364         5.11016
     2020.30937        -1.05497         5.14927
     2020.31211        -3.92559         5.17627
     2020.31485        -0.48620         5.09154
     2020.31759        -2.96681         5.01053
     2020.32032         5.46457         5.10551
     2020.32306         0.27696         4.91369
     2020.32580        -5.44165         4.92486
     2020.32854        -1.91426         5.02263
     2020.33128        -2.95788         4.94442
     2020.33401         0.29451         4.98632
     2020.33675         6.40590         5.03008
     2020.33949        -2.72271         4.92300
     2020.34223        -5.00233         5.01612
     2020.34496        -4.84794         5.11668
     2020.34770        -4.27555         4.96118
     2020.35044        -3.26017         4.97794
     2020.35318        -2.21378         5.02543
     2020.35592        -1.47939         5.03567
     2020.35865         0.38000         4.96770
     2020.36139         1.74738         4.94349
     2020.36413        -2.08523         5.00122
     2020.36687        -0.18984         5.07292
     2020.36961        -0.98446         4.99842
     2020.37234         4.01693         4.89134
     2020.37508         1.15832         4.87458
     2020.37782         0.78171         4.96956
     2020.38056        -4.54291         4.91183
     2020.38329        -4.98352         4.97887
     2020.38603         3.40587         5.03381
     2020.38877        -1.61075         4.98539
     2020.39151        -1.99136         4.86992
     2020.39425        -7.21997         4.92300
     2020.39698        -5.69658         5.02636
     2020.39972        -6.23320         4.95373
     2020.40246        -7.32381         5.03288
     2020.40520        -9.56842         4.99563
     2020.40794        -9.50304         4.94814
     2020.41067        -1.61665         5.04684
     2020.41341        -3.62326         4.97142
     2020.41615        -5.47787         4.98166
     2020.41889        -3.74149         4.84199
     2020.42162        -6.00710         4.95559
     2020.42436        -5.53471         5.34109
     2020.42710        -5.70533         5.22190
     2020.42984        -0.38694         5.03939
     2020.43258         0.59945         4.97608
     2020.43531         1.44884         5.01612
     2020.43805        -5.23078         5.08781
     2020.44079       -11.15639         5.09247
     2020.44353        -1.68600         5.15206
     2020.44626        -7.11662         4.97421
     2020.44900        -1.83023         5.10923
     2020.45174         5.48416         4.95000
     2020.45448        -3.41545         4.92486
     2020.45722         1.14193         4.91741
     2020.45995        -1.71068         4.87737
     2020.46269        -6.12529         4.92486
     2020.46543        -7.12291         5.13251
     2020.46817        -4.72552         5.06826
     2020.47091         1.52987         5.00308
     2020.47364        -4.69474         4.94162
     2020.47638        -2.13936         4.89134
     2020.47912        -4.58797         5.06174
     2020.48186        -4.00958         4.93604
     2020.48459        -9.56120         5.07012
     2020.48733        -1.24781         5.24145
     2020.49007         0.67458         5.11947
     2020.49281         4.29797         5.01891
     2020.49555         0.17235         5.08409
     2020.49828        -0.08726         4.90624
     2020.50102        -3.50287         4.90252
     2020.50376        -5.71649         4.94162
     2020.50650        -1.00610         4.91369
     2020.50924        -2.48471         4.88203
     2020.51197        -9.22632         4.91369
     2020.51471         2.66906         5.03101
     2020.51745        -3.89555         4.90531
     2020.52019         1.15284         5.05429
     2020.52292         2.96123         5.04033
     2020.52566        -1.59139         5.06826
     2020.52840         1.49800         5.14834
     2020.53114        -1.99461         5.01705
     2020.53388         0.05177         4.95280
     2020.53661        -1.79984         5.03008
     2020.53935       -11.60745         5.13158
     2020.54209        -2.91306         5.10458
     2020.54483         1.75832         5.01891
     2020.54757         0.12071         4.99191
     2020.55030         1.48710         5.07664
     2020.55304        -4.03252         5.13996
     2020.55578         0.90287         5.23121
     2020.55852         3.48326         5.09247
     2020.56125         1.70565         5.04777
     2020.56399         0.10003         5.01425
     2020.56673        -0.44258         4.99563
     2020.56947         3.03981         5.09526
     2020.57221         1.60819         5.22935
     2020.57494        -4.15642         5.09154
     2020.57768         3.10797         4.97701
     2020.58042        -3.17964         5.19583
     2020.58316        -0.62726         5.12599
     2020.58590        -0.69887         5.09247
     2020.58863         0.94452         5.03753
     2020.59137        -1.05010         4.99284
     2020.59411         9.99329         5.02636
     2020.59685        -1.02132         5.58784
     2020.59958         6.45207         5.15113
     2020.60232         2.42045         5.04033
     2020.60506         4.54584         4.99191
     2020.60780         3.77823         5.01146
     2020.61054         6.08761         5.15765
     2020.61327         4.95000         5.11854
     2020.61601        -2.92361         5.04964
     2020.61875         2.58178         5.00587
     2020.62149        -4.05984         5.04219
     2020.62423        -0.26645         5.15672
     2020.62696        -4.04906         5.21259
     2020.62970         0.53232         5.21166
     2020.63244        -0.37029         5.18093
     2020.63518         2.73610         5.26473
     2020.63791        -4.67051         5.23680
     2020.64065         2.95887         5.15672
     2020.64339         0.35926         5.15206
     2020.64613         5.59965         5.16696
     2020.64887        -5.81397         5.98358
     2020.65160         1.07542         5.05616
     2020.65434         3.86081         5.03846
     2020.65708        -0.40580         5.03288
     2020.65982         2.30458         5.06547
     2020.66256         1.68697         5.04777
     2020.66529         4.46936         5.11389
     2020.66803         3.13774         5.02543
     2020.67077        12.98313         5.19676
     2020.67351         6.55152         5.10271
     2020.67624        -2.69209         5.07943
     2020.67898         2.17229         5.13717
     2020.68172         0.18968         5.04591
     2020.68446         0.94307         5.24797
     2020.68720        -2.99855         5.06640
     2020.68993         7.42784         5.16976
     2020.69267         1.15223         5.09247
     2020.69541         7.25862         5.26194
     2020.69815         6.49900         5.11109
     2020.70089         4.61939         5.08688
     2020.70362         3.90678         5.08130
     2020.70636        -3.26283         5.31781
     2020.70910         3.51855         5.32991
     2020.71184         0.77994         5.12227
     2020.71457        -0.35067         5.16696
     2020.71731         4.47571         5.26939
     2020.72008        -2.45485         5.28336
     2020.72279         0.00849         5.03288
     2020.72553         6.00488         5.13158
     2020.72826         9.18126         5.34016
     2020.73100        -2.11135         5.42768
     2020.73374         9.19204         5.22097
     2020.73648         4.15042         5.15765
     2020.73921        -1.80119         5.04777
     2020.74195         3.32620         5.02543
     2020.74469         2.19059         5.02263
     2020.74743         1.53697         5.06919
     2020.75017         3.31036         5.03101
     2020.75290        -4.32325         5.11668
     2020.75564        -1.17387         5.02915
     2020.75838         3.63052         5.10923
     2020.76112        -0.21109         5.07943
     2020.76386         4.41830         5.06360
     2020.76659         8.60668         5.00867
     2020.76933         7.73807         5.12599
     2020.77207         8.06646         5.03753
     2020.87611        11.79117         5.11109
     2020.87885        13.58356         5.28801
     2020.88158         9.54794         5.19303
     2020.88432         9.82133         5.06733
     2020.88706         3.80772         5.32433
     2020.88980         2.49511         5.10271
     2020.89253         5.48949         5.05988
     2020.89527         7.32288         5.22656
     2020.89801         8.71627         5.23866
     2020.90075        12.12465         5.06640
     2020.90349         8.91104         5.03846
     2020.90622         3.93343         5.04684
     2020.90896         3.59782         5.31408
     2020.91170         4.14820         5.36344
     2020.91444         8.03359         5.30757
     2020.91718         0.83998         5.05057
     2020.91991        -3.76964         5.08130
     2020.92265        -4.22525         5.01984
     2020.92539        -6.12586         5.07943
     2020.92813        -2.33547         5.05336
     2020.93086        -3.10109         5.05336
     2020.93360        -2.28270         5.05802
     2020.93634         2.39169         5.07012
     2020.93908        -5.32293         5.11947
     2020.94182        -0.83954         5.00122
     2020.94455         0.01885         4.99749
     2020.94729        -4.02276         5.08037
     2020.95003        -7.53838         5.11854
     2020.95277       -11.15499         5.04126
     2020.95551        -8.12760         5.07943
     2020.95830         2.15588         5.16976
     2020.96098        -4.86683         5.62974
     2020.96372        -1.17044         5.07943
     2020.96646         2.69495         5.18931
     2020.96919         5.17933         5.16696
     2020.97193        -9.28728         5.06081
     2020.97467         4.84411         5.23401
     2020.97741        -5.58351         5.07757
     2020.98015        -2.70412         5.23494
     2020.98288        -3.92673         5.18652
     2020.98562         8.48266         5.02356
     2020.98836         2.72404         4.97049
     2020.99110         4.91043         4.92952
     2020.99384         0.11382         4.92114
     2020.99657        12.01920         5.02915
     2021.00205        -0.18902         4.95838
     2021.00479         8.43137         4.97235
     2021.00752        15.64075         5.00029
     2021.01026         3.12314         5.01146
     2021.01300         0.08753         5.03381
     2021.01574         4.57691         5.19862
     2021.01848        -3.26370         4.91928
     2021.02121        -5.06231         5.00960
     2021.02395        -4.48192         4.95745
     2021.02669        -2.58954         5.01425
     2021.02943        -3.39815         5.00215
     2021.03215        -4.83879         5.09247
     2021.03491         6.81164         5.21724
     2021.03764        -3.22199         5.07943
     2021.04038        -5.13860         5.08037
     2021.04312        -4.42921         4.99377
     2021.04585        -3.37683         5.04498
     2021.04859        -4.56044         5.01984
     2021.05133        -8.26705         5.07105
     2021.05407        -0.31067         5.37926
     2021.05681        -3.44428         5.13158
     2021.05954        -4.48589         4.97514
     2021.06228        -4.18650         5.03101
     2021.06502        -2.28812         5.05336
     2021.06776         0.13727         4.98353
     2021.07049         0.49266         5.04498
     2021.07323         3.32705         4.98539
     2021.07597        -4.97057         4.93511
     2021.07871        -3.24218         4.95838
     2021.08145        -4.77379         5.01053
     2021.08418        -4.32241         5.01146
     2021.08692        -4.39702         4.97235
     2021.08966        -0.55863         4.97514
     2021.09240       -10.96624         4.99004
     2021.09514        -4.15686         5.10644
     2021.09787         0.60253         5.16231
     2021.10061         1.30892         5.03474
     2021.10335         2.12530         5.00029
     2021.10609        -1.57631         4.98818
     2021.10882        -0.03192         4.97701
     2021.11156        -4.03053         5.02263
     2021.11430        -4.21915         4.96676
     2021.11704        -3.58676         4.94628
     2021.11978        -2.92837         4.98725
     2021.12251        -1.78099         4.95932
     2021.12525         5.48139         7.49112
     2021.12797        19.42775         6.97153
     2021.13073         4.56218         6.75365
     2021.13346        -1.23844         6.62608
     2021.13620        -2.85706         7.15590
     2021.13894         2.14233         7.07024
     2021.14168         1.19473         6.45475
     2021.14441        16.16810         7.46598
     2021.14716        -2.94749         8.74165
     2021.14987       -11.37814         7.22388
     2021.15263         8.08727         6.18937
     2021.15537        -0.92434         6.45754
     2021.15811         4.11905         7.85892
     2021.16085         0.13844         7.31792
     2021.16356        -0.27522         7.43432
     2021.16630         3.56917         7.32630
     2021.16906        11.62560         6.95291
     2021.17180        -0.85602         6.45940
     2021.17454        -2.65862         6.60839
     2021.17697         3.44128         8.14665
     2021.17999        -4.33889         7.42873
     2021.18275        -4.97347         6.23779
     2021.18547        -7.49211         6.61863
     2021.18822       -21.22569       150.85034
     2021.19096         2.93269         6.55624
     2021.19370        -5.02292         6.11487
     2021.19644        -8.02953         6.26572
     2021.19917        -2.48815         6.74899
     2021.20191        -1.93176         6.12791
     2021.20465         2.38363         6.82534
     2021.20739         6.54102        24.40642
     2021.21013         2.67540         6.26107
     2021.21286        -5.45321         6.28434
     2021.21560         2.81218        10.79205
     2021.21834        -2.23944         7.29185
     2021.22108        -0.20205         7.09165
     2021.22382        -4.45565         6.55717
     2021.22655        -0.82628         6.55159
     2021.22929        11.06711         6.16329
     2021.23203         9.08750         7.33934
     2021.23477        -6.12611         6.48175
     2021.23751        -4.10772         6.65215
     2021.24025        -1.09733         6.39143
     2021.24298        -6.14794         5.86998
     2021.24572        -5.80156         6.96315
     2021.24845         1.39881         6.53948
     2021.25393        -6.29340         7.74346
     2021.25667        -3.82201         6.93708
     2021.26101        -0.31706        19.13424
     2021.26488         1.21615         6.90263
     2021.26762         4.45053         6.61956
     2021.27034         7.14489         7.59820
     2021.27310        -3.92568         6.44637
     2021.27583        -0.55730         6.72571
     2021.27828        -9.24538        31.00643
     2021.28131        -1.17552         6.84304
     2021.28405        -1.20714         6.25175
     2021.28679         0.82024         7.15870
     2021.28952         1.27863         7.46225
     2021.29226        -3.75398         7.08514
     2021.29500        -0.57259         6.42402
     2021.29774        -2.93520         6.91194
     2021.30048         0.20719         7.27043
     2021.30321         3.34957         6.43892
     2021.30595         8.51995         6.07390
     2021.30867        15.78931         7.89617
     2021.31143        11.08373         7.06186
     2021.31690        10.08250         6.12232
     2021.31963        -6.45213        51.52064
     2021.32295         0.01720         9.30593
     2021.32569        -5.87542        10.65424
     2021.32840        -4.99807         8.76493
     2021.33115         8.73333         8.75097
     2021.33390         3.49874         7.39148
     2021.33663       -14.35488        31.16193
     2021.33938        -6.40048         7.57771
     2021.34211       -27.30510        12.63387
     2021.34486        -1.16270         8.16713
     2021.34759        -5.52732         7.97904
     2021.35029        -0.02399         9.50986
     2021.35304        -1.55259         7.62707
     2021.35580         8.95183         8.48931
     2021.35854         3.34022         7.96973
     2021.36126        -9.57842         8.38782
     2021.36402       -13.92600         7.79654
     2021.36652        -0.75599         7.77326
     2021.36889        -6.74719         6.80579
     2021.37166        -1.58875         6.30949
     2021.37439        -3.87738         6.55159
     2021.38044         2.25431         8.50794
     2021.38318         3.19271        10.73618
     2021.38592        -3.37190         9.99778
     2021.38819        10.16874        20.17899
     2021.39214        -7.45694        87.41748
     2021.39412         0.73723         8.37851
     2021.39687         1.39365         8.80777
     2021.39938        -4.34633         7.76860
     2021.40175         1.10347         6.36535
     2021.40451        11.60089         7.66245
     2021.40782        -9.79581        10.57602
     2021.41053        -3.91747         8.90647
     2021.41269        13.60100        16.84826
     2021.41875        -7.09430         7.97811
     2021.42148        -5.19692         8.25094
     2021.42699        -4.45509         8.61036
     2021.42973         4.26830        12.67857
     2021.43247         3.03769         9.25565
     2021.43520        -5.57994         7.86823
     2021.43794        -4.52655         7.21922
     2021.44068         6.39784         6.72478
     2021.44341        -4.16077         6.70057
     2021.44615        -1.13239         6.80020
     2021.44889        -7.05600         6.78624
     2021.45163        -0.95761         6.93988
     2021.45436        -4.31423         7.55350
     2021.45710        -2.90384         7.28440
     2021.45984        -0.77645         6.63818
     2021.46258        -3.15506         6.65774
     2021.46528       -11.01373         6.91287
     2021.46805         3.50071         6.63166
     2021.47079         4.80310         6.92684
     2021.47353        -0.91452         6.84490
     2021.47627         0.31387         6.67915
     2021.47901        -6.13574         7.03113
     2021.48174        -4.39935         6.68567
     2021.48448       -11.48597         6.73223
     2021.48722       -17.65858         6.92032
     2021.48996       -10.61919         6.61583
     2021.49269       -10.10680         6.68567
     2021.49520         2.84322         5.91468
     2021.49817        -0.75803         6.97433
     2021.50091        -5.30264         6.94732
     2021.50365        -3.12626         6.69778
     2021.50638       -14.86687         6.74806
     2021.50912       -10.45248         6.85887
     2021.51186        -0.07009         7.23971
     2021.51459        -5.16072         6.99202
     2021.51733        -1.12732         6.71174
     2021.52007        -4.87193         6.86818
     2021.52281        -6.08655         6.84490
     2021.52555        -6.53816         6.75178
     2021.52829        -5.57577         6.82628
     2021.53102        -2.85638         6.80020
     2021.53376        -0.84100         6.78251
     2021.53650        -1.86961         6.99016
     2021.53924         4.10078         7.04882
     2021.54198        -3.77584         6.81510
     2021.54471        -4.57645         6.83000
     2021.54745        -1.56906         6.91194
     2021.55019        -2.22067         6.77041
     2021.55293         0.05471         7.00785
     2021.55566         2.69510         6.74154
     2021.55840        -8.35051         6.90263
     2021.56114         2.17587         6.83372
     2021.56388        -3.68174         6.66053
     2021.56605        -2.94427         5.08316
     2021.56878         0.59412         5.19583
     2021.57152        -5.45549         5.32246
     2021.57426        -3.84710         6.93615
     2021.57700         2.84928         5.48914
     2021.57974        -5.74033         5.04219
     2021.58247        -3.92694         5.03753
     2021.58521        -5.52456         5.14461
     2021.58795        -9.02517         5.13996
     2021.59069        -5.64078         5.12879
     2021.59342        -8.22339         5.31688
     2021.59616         0.85299         5.22376
     2021.59890         3.56838         5.05616
     2021.60164        14.60877         5.28056
     2021.60438         1.92615         5.02543
     2021.60711         0.92154         5.07198
     2021.60985         0.89093         5.09806
     2021.61259         0.75232         5.01612
     2021.61533        -1.27330         5.00680
     2021.61807        -3.74691         5.05522
     2021.62080         2.44348         5.11854
     2021.62354         4.53986         5.15393
     2021.62628        -4.74575         5.34667
     2021.62902         5.25164         5.02543
     2021.63175         0.44503         5.08409
     2021.63449        -4.24859         5.29453
     2021.63723        -0.95420         5.31408
     2021.63997         2.97119         5.19210
     2021.64271         7.50958         5.13437
     2021.64544        -0.14604         5.04777
     2021.64818         3.32935         4.99284
     2021.65092         0.30274         5.10923
     2021.65366         2.27312         5.16138
     2021.65639         1.01351         5.01332
     2021.65913         0.03490         5.01612
     2021.66187         7.04429         5.06267
     2021.66461        -2.84433         5.04964
     2021.66735         5.30606         5.03846
     2021.67008         2.55445         5.12785
     2021.67282         5.02283         5.19397
     2021.67556         1.78222         5.35319
     2021.67830         4.05361         5.18465
     2021.68104         1.45400         5.06454
     2021.68377         8.94038         5.05150
     2021.68651         7.02477         5.21631
     2021.68925         4.88716         5.09619
     2021.69199         0.86754         5.01984
     2021.69472        -0.90907         5.09619
     2021.69746         2.79532         5.03474
     2021.70020         4.69871         5.14275
     2021.70294         1.42509         5.17162
     2021.70568        -2.18552         5.39882
     2021.70841         3.20387         5.12972
     2021.71115         8.95625         5.14182
     2021.71389         9.52464         5.42955
     2021.71663         1.78803         5.25822
     2021.71937         1.36442         5.20514
     2021.72210        -1.34220         5.16231
     2021.72484        -0.32481         5.14741
     2021.72758        -1.22542         5.14182
     2021.73032         0.89296         5.49007
     2021.73305         8.26435         5.18093
     2021.73579         5.61574         5.40999
     2021.73853         7.22713         5.57294
     2021.74127         9.58851         5.17627
     2021.74401         9.95290         5.15579
     2021.74674        11.76529         5.21352
     2021.74948         5.06867         5.31502
     2021.75222         0.07406         5.14927
     2021.75496         3.34245         5.34667
     2021.75706         4.14882         7.03392
     2021.76043        -0.16478         5.26008
     2021.76317        10.23361         5.35133
     2021.76591         1.58300         5.11947
     2021.76865         2.96138         5.11761
     2021.77138         2.62777         5.21259
     2021.77412         5.16716         5.28336
     2021.77686        10.98655         5.16417
     2021.77960         9.59893         5.13251
     2021.78234         6.11132         5.16603
     2021.78507        10.01271         5.15486
     2021.78781        15.62609         5.23121
     2021.79055         5.39348         5.11668
     2021.79329         8.48987         5.12972
     2021.79603         6.90126         5.08409
     2021.79876         4.09364         5.14089
     2021.80150        15.55703         5.40627
     2021.80424         4.95942         5.28522
     2021.80698        -0.24720         5.25077
     2021.80971         3.99019         5.23866
     2021.81245        13.12158         5.34202
     2021.81519         9.57397         5.18465
     2021.81793         8.93935         5.21631
     2021.82067         1.49174         5.32619
     2021.82340        10.87813         5.30664
     2021.82614        13.61852         5.26194
     2021.82888         4.91590         5.18279
     2021.83162         6.17829         5.23773
     2021.83436         2.58068         5.29546
     2021.83709         1.99806         5.28429
     2021.83983        -1.04955         5.24052
     2021.84257         2.33384         5.34667
     2021.84531        -0.82777         5.28615
     2021.84804         7.14861         5.24890
     2021.85078         7.30500         5.26473
     2021.85352         6.47339         5.21818
     2021.85626         3.85477         5.20421
     2021.85900         5.18516         5.14927
     2021.86173        -4.59345         5.26008
     2021.86447        -8.20206         5.38299
     2021.86721        -3.43768         5.47704
     2021.86995         3.38071         5.52732
     2021.87269         1.05010         5.40068
     2021.87542         2.06548         5.32340
     2021.87816        -4.62513         5.11947
     2021.88090        -0.54374         5.18279
     2021.88364        -6.59735         5.16789
     2021.88637        -7.59197         5.13530
     2021.88911        -7.91658         5.10923
     2021.89185        -5.68119         5.12879
     2021.89459        -6.11481         5.29174
     2021.89733        -1.39042         5.13996
     2021.90006        -3.27303         5.15951
     2021.90280        -5.98664         5.34761
     2021.90554         0.72274         5.13437
     2021.90828         1.74913         5.34481
     2021.91102         6.67152         5.34388
     2021.91375         6.53590         5.24518
     2021.91649         1.88129         5.13810
     2021.91923         5.08668         5.34854
     2021.92197        -3.29293         5.45841
     2021.92470        -2.98255         5.27684
     2021.92744         1.36584         5.29360
     2021.93018        -4.12777         5.29919
     2021.93292         4.99661         5.35505
     2021.93566         7.85800         5.49473
     2021.93839         6.26539         5.32246
     2021.94113         5.79878         5.47983
     2021.94387        18.13216         5.30664
     2021.94661         7.83255         5.28336
     2021.94935         5.53294         5.25263
     2021.95208         7.06932         5.27870
     2021.95482         7.15771         5.22656
     2021.95756         6.40410         5.27591
     2021.96030        -0.75251         5.22469
     2021.96303        -1.29713         5.47610
     2021.96579        -0.22772         5.30012
     2021.96851         0.98765         5.26380
     2021.97125         2.35803         5.32619
     2021.97399         1.78542         5.26473
     2021.97672        11.53781         5.29174
     2021.97946        15.30620         5.24983
     2021.98220        12.72058         5.26473
     2021.98494        13.72997         5.24052
     2021.98767        10.16836         5.22469
     2021.99041         8.90274         5.21166
     2021.99315         7.40613         5.24518
     2021.99589        11.96952         5.29546
     2021.99863        -0.37709         5.26473
     2022.00136        -0.06871         5.23959
     2022.00410         0.69768         5.27498
     2022.00684        -2.32693         5.24425
     2022.00958        -3.95754         5.25635
     2022.01232       -13.40316         5.27870
     2022.01505        -2.10977         5.30105
     2022.01779        11.85462         5.44445
     2022.01937       -17.26985        14.92916
     2022.02345        -4.84231         6.00779
     2022.02600        -6.99122         5.37647
     2022.02874        -4.85683         5.24704
     2022.03148         1.11355         5.45096
     2022.03422        -3.51906         5.20328
     2022.03696       -10.68367         5.21445
     2022.03969       -15.41329         5.55246
     2022.04243        -5.26990         5.24518
     2022.04517        -3.86051         5.29546
     2022.04791        -4.53612         5.27311
     2022.05065        -6.83474         5.20421
     2022.05338        -2.40535         5.29081
     2022.05612       -12.35196         5.20421
     2022.05886       -16.89858         5.24890
     2022.06160       -13.01419         5.24797
     2022.06433        -4.50180         5.22190
     2022.06707       -11.97841         5.22283
     2022.06981        -5.09403         5.20793
     2022.07255       -16.93064         5.10178
     2022.07529        -8.40425         5.13344
     2022.07802        -3.76287         5.16231
     2022.08076         3.96852         5.16231
     2022.08350        -2.38209         5.22842
     2022.08624        -4.87270         5.13623
     2022.08898        -4.56832         5.11761
     2022.09171        -7.88593         5.10178
     2022.09445        -9.35154         5.14182
     2022.09719        -9.05016         5.14089
     2022.09993        -9.90377         5.28522
     2022.10266       -11.68538         5.24332
     2022.10540        -6.13299         5.15020
     2022.10814        -1.70261         5.11389
     2022.11088        -0.55622         5.14461
     2022.11362        -4.75483         5.16324
     2022.11635        -2.67545         5.14368
     2022.11909        -4.67406         5.12599
     2022.12183         0.57133         5.21259
     2022.12457         2.33072         5.24797
     2022.12731         0.15810         5.12134
     2022.13004       -11.59451         5.10830
     2022.13278        -9.25612         5.14089
     2022.13552        -3.45574         5.15206
     2022.13826         7.72265         5.10551
     2022.14099        -1.21596         5.10830
     2022.14373        -8.34157         5.09061
     2022.14647        -8.20319         5.09992
     2022.14921        -1.70480         5.36809
     2022.15195        -2.76541         5.39416
     2022.15468        -2.03803         5.07105
     2022.15742        -3.42864         5.14368
     2022.16016        -3.43125         5.14834
     2022.16290         2.21514         5.16696
     2022.16564        -6.52748         5.15206
     2022.16837         1.65991         5.11575
     2022.17111         1.26030         5.15299
     2022.17385        -1.74732         5.13065
     2022.17659        -1.27393         5.12320
     2022.17932        -7.91954         5.17907
     2022.18206        -9.01115         5.13158
     2022.18480        -7.03277         5.06733
     2022.18754        -6.00938         5.16044
     2022.19028        -5.43499         5.20607
     2022.19301        -0.75060         5.14368
     2022.19575         9.63278         5.19210
     2022.19849        -1.62883         5.12599
     2022.20123         2.99456         5.22562
     2022.20397         4.68994         5.14648
     2022.20670        -1.95967         5.26473
     2022.20944        -0.39128         5.28429
     2022.21218         3.07011         5.15579
     2022.21492        -3.23551         5.13437
     2022.21765        -4.13012         5.18372
     2022.22039        -3.18173         5.15765
     2022.22313        -3.89935         5.18093
     2022.22587        -8.81996         5.34202
     2022.22861         2.66743         5.21073
     2022.23134         6.23282         5.11668
     2022.23408         6.56120         5.16603
     2022.23682         4.46559         5.30757
     2022.23956         3.64898         5.24052
     2022.24230         4.72336         5.81970
     2022.24503         6.29275         6.64563
     2022.24778         5.07115         6.50410
     2022.25048        -4.91953         6.26758
     2022.25325        -3.00709         5.75824
     2022.25598        12.12430         5.26660
     2022.25872         2.27769         5.28708
     2022.26146        -0.59993         5.16510
     2022.26420         0.28346         5.18931
     2022.26694         2.10085         5.63626
     2022.26967         4.05624         5.21538
     2022.27241         7.10162         5.24052
     2022.27789         4.14340         5.18465
     2022.28062        -2.44322         5.21724
     2022.28336        -2.27783         5.19862
     2022.28610        -0.03444         5.19583
     2022.28884        -5.14805         5.22656
     2022.29158        -7.09567         5.13344
     2022.29431        -5.42928         5.13530
     2022.29705         1.01311         5.16976
     2022.29979         0.05449         5.09992
     2022.30253        -0.90912         5.33364
     2022.30527         1.57727         5.26380
     2022.30800        -1.49134         5.26846
     2022.31074        -1.62096         5.12785
     2022.31348        -6.38057         5.10737
     2022.31622       -10.09218         5.17348
     2022.31895       -18.02980         5.31315
     2022.32169         3.53359         5.30477
     2022.32443         2.87598         5.10551
     2022.32717        -8.98163         5.11389
     2022.32991        -2.31925         5.10178
     2022.33264        -6.13986         5.29174
     2022.33538        -2.41747         5.31967
     2022.33812         0.94491         5.33178
     2022.34086         3.51630         5.20141
     2022.34360         1.90369         5.22004
     2022.34633         1.66008         5.18745
     2022.34907         2.99746         5.15393
     2022.35181         8.11285         5.15393
     2022.35455         2.02024         5.10178
     2022.35728        -2.21238         5.17162
     2022.36002        -1.14999         5.17627
     2022.36276         0.63940         5.19117
     2022.36550        -3.94721         5.33643
     2022.36824         0.32617         5.15858
     2022.37097        -8.79144         5.19862
     2022.37371        -9.68305         5.19862
     2022.37645        -9.27366         5.31222
     2022.37919         4.56872         5.24518
     2022.38193        -7.66989         5.26660
     2022.38466        -2.58050         5.18745
     2022.38740       -22.29012         5.16603
     2022.39014        -5.87273         5.13810
     2022.39288        -5.10534         5.19024
     2022.39561        -3.35495         5.17069
     2022.39835        -1.88557         5.15299
     2022.40109        -1.50918         5.29825
     2022.40383         0.77421         5.08781
     2022.40657        -2.28141         5.10458
     2022.40930        -8.84302         5.15858
     2022.41204        -4.93663         5.16976
     2022.41478        -5.79424         5.13344
     2022.41752        -3.17586         5.26380
     2022.42026        -6.47647         5.30850
     2022.42299        -0.58708         5.08037
     2022.42573        -4.34070         5.27870
     2022.42847         3.83469         5.19862
     2022.43121        -1.89992         5.19397
     2022.43394         6.38547         5.28429
     2022.43668       -12.70415         5.23587
     2022.43942        -6.56376         5.20700
     2022.44216        -2.75937         5.48355
     2022.44490         8.79101         5.24518
     2022.44763        -1.99660         5.09433
     2022.45037        -7.12821         5.07757
     2022.45311        -7.22682         5.09154
     2022.45585        -4.22044         5.11482
     2022.45859       -12.20105         5.14368
     2022.46132        -3.22866         5.10737
     2022.46406        -6.42528         5.04684
     2022.46680        -5.46089         5.03846
     2022.46954        -5.85850         5.14182
     2022.47227       -15.39811         5.15579
     2022.47501         7.23727         5.19210
     2022.47775        -3.94634         5.20793
     2022.48049        -2.86395         5.20141
     2022.48323         2.91943         5.09526
     2022.48596         5.10482         5.15579
     2022.48870         4.85421         5.38578
     2022.49144        -6.40340         5.15579
     2022.49418        -0.60702         5.21911
     2022.49692        -4.27063         5.09992
     2022.49965        -2.06924         5.17814
     2022.50239       -21.33086         5.23959
     2022.50513        -1.67647         5.39509
     2022.50787         2.22292         5.43513
     2022.51060        -4.81969         5.38392
     2022.51334        -8.59131         5.14461
     2022.51608        -4.46692         5.19676
     2022.51882        -5.76253         5.14834
     2022.52156        -6.90715         5.29639
     2022.52429        -5.01076         5.06081
     2022.52703         3.01563         5.12040
     2022.52977        12.20602         5.22004
     2022.53251        -7.58060         5.16044
     2022.53525        -8.29121         5.41092
     2022.53798         0.34118         5.26939
     2022.54072         1.74456         5.19024
     2022.54346         0.96895         5.08037
     2022.54620        -2.12766         5.17162
     2022.54893        -1.01127         5.20328
     2022.55167         5.02011         5.22283
     2022.55441         8.18150         5.20607
     2022.55715         6.39289         5.06826
     2022.55989        -5.34072         5.08409
     2022.56262        -1.24934         5.21445
     2022.56536       -14.39295         5.14648
     2022.56810        -1.24656         5.17162
     2022.57084        -4.00318         5.03288
     2022.57357         5.55621         5.32991
     2022.57631       -10.11040         5.21073
     2022.57905        -3.80701         5.23587
     2022.58179         8.01837         5.18000
     2022.58453         8.71776         5.34202
     2022.58726        -6.68085         5.18652
     2022.59000        -2.15347         5.45376
     2022.59274        -3.67708         5.09061
     2022.59548        -1.15269         5.07757
     2022.59822       -10.96930         5.08968
     2022.60095       -10.78492         5.13717
     2022.60369        -3.37453         5.19117
     2022.60643        -6.93714         5.33923
     2022.60917         1.43824         5.21445
     2022.61190         8.55063         5.29174
     2022.61464         9.55802         5.31315
     2022.61738         4.44641         5.07850
     2022.62012        -3.92321         5.06360
     2022.62286        -2.97682         5.08316
     2022.62559         2.37957         5.08316
     2022.62833        -0.86905         5.05895
     2022.63107        -1.46366         5.16696
     2022.63381         4.95973         5.09061
     2022.63655        -2.01688         5.28429
     2022.63928         1.59350         5.07664
     2022.64202        -2.88211         5.48169
     2022.64476         1.06028         5.50125
     2022.64750         2.98666         5.14089
     2022.65023        -1.38195         5.21073
     2022.65297         5.83344         5.43141
     2022.65571         5.38783         5.19303
     2022.65845         7.59221         5.19490
     2022.66119         4.07760         5.01425
     2022.66392        10.79599         5.28987
     2022.66666         2.54537         5.16882
     2022.66940         7.27576         5.04498
     2022.67214         5.69815         5.15206
     2022.67488         6.58954         5.12040
     2022.67761         4.73992         5.08968
     2022.68035         7.58331         5.00122
     2022.68309         7.08770         5.04405
     2022.68583         4.77108         5.24797
     2022.68856         8.00447         5.05429
     2022.69130         6.09586         5.08595
     2022.69404         7.29525         5.07757
     2022.69678         9.78363         5.13530
     2022.69952         0.35602         5.08130
     2022.70225         9.30941         5.29546
     2022.70499        11.92079         5.18931
     2022.70773         5.16818         5.12040
     2022.71047         8.63857         5.04964
     2022.71321        12.88496         5.08316
     2022.71868         5.51173         5.00029
     2022.72142         9.71512         5.07571
     2022.72416         3.99650         5.09061
     2022.72689        10.41189         5.10085
     2022.72963        11.12428         5.27404
     2022.73238         0.64767         5.18186
     2022.73511         6.81905         5.01798
     2022.73785         7.85244         5.06360
     2022.74058        10.13083         5.19862
     2022.74332        11.24022         5.32619
     2022.74606         9.58660         5.11109
     2022.74880         3.31199         5.02356
