# ================= DQRFIT RESULTS ================
# INPUT FILE: series/DWH1.rad
# OUTPUT: LDETRENDED
# FILTER FUNCTION: f(t)
# f(t)=+line(t)+annual(t)
# line(t)=+P 1+P 2*t
# annual(t)=+P 3*sin(2*pi*t+P 4)
# heav(t)=(t<0?0:1)
# TOTAL OBSERVATIONS MTOT= 1026
# INITIAL TIME INTERVAL= 2007.5455 - 2004.6571 =  2.8884
# TOTAL OBSERVATIONS AFTER PREFILTER M= 1016
# TIME-SPAN= 2007.5455 - 2004.6571 =  2.8884
# OBSERVATIONS: USED M=  1016 REJECTED MTOT-M=    10 %USED=   99.0253
# N=  4 PARAMETERS
# MAXSIG= 175.00000
# MAXRES=  30.15568
# SCALE FACTOR FOR LENGTHS: SCL=  10.00000
# SCALE FACTOR FOR SIGMAS: SCLSIG=   1.00000
# CHI^2=   1035.726 DOF=  1012 CHI^2/DOF=   1.02344
# RMS=      7.813 SDEV=      7.813 MEAN=    0.22620
#  P #       PARAMETER +-    SIGMA %error PARAMETER NAME
# P 1 =      6119.74543 +-  611.412   9.99 YZERO                              
# P 2 =        -3.03508 +-    0.305  10.04 SLOPE                              
# P 3 =         6.01580 +-    0.346   5.75 ANNUAL AMPLITUDE                   
# P 4 =         2.97889 +-    0.080   2.69 ANNUAL PHASE                       
#       T            LDETRENDED       SIG_OBS
     2004.65708         0.72162         7.66227
     2004.65982         3.70193         7.74017
     2004.66256         2.08424         7.67643
     2004.66529        -2.30545         7.46398
     2004.66803         2.46086         7.70982
     2004.67077         4.76617         7.79783
     2004.67351         3.61248         7.41745
     2004.67624         5.75579         7.48523
     2004.67898        -4.23990         7.55503
     2004.68172        -6.72959         7.52671
     2004.68446         0.75272         7.56819
     2004.68720         6.26003         7.55503
     2004.68993         8.82734         7.63900
     2004.69267        -7.53435         7.59853
     2004.69541        -7.98704         7.89697
     2004.69815         1.16627         7.51457
     2004.70089        10.77058         7.80997
     2004.70362        17.37189         7.83627
     2004.70636        10.01620         7.72297
     2004.70910         5.68151         7.60258
     2004.71184        -4.14618         7.70577
     2004.71457         2.60912         7.74421
     2004.71731        13.87543         7.48118
     2004.72005        -2.10726         7.47410
     2004.72279       -12.17195         7.51963
     2004.72553        -7.03164         7.52974
     2004.72826         2.86967         7.67947
     2004.73100        -1.00002         7.63900
     2004.73374       -10.52671         7.42554
     2004.73648         2.10760         7.45488
     2004.73921         4.36991         7.38002
     2004.74195         4.96422         7.51356
     2004.74469         1.97853         7.91114
     2004.74743        -2.06516         7.32741
     2004.75017        -7.90585         7.49231
     2004.75290         5.34246         7.37901
     2004.75564        -1.57223         7.46500
     2004.75838         6.09408         7.35675
     2004.76112        -0.19461         7.46601
     2004.76386        19.91270         7.74421
     2004.76659        -1.48199         7.44578
     2004.76933         9.12932         7.98398
     2004.77207        -3.13337         7.94654
     2004.77481         3.63194         7.74927
     2004.77754         3.69025         7.77052
     2004.78028         5.53956         7.72803
     2004.78302        -1.85314         7.55503
     2004.78576         0.36117         7.67846
     2004.78850         1.82648         7.65114
     2004.79123        10.25979         7.79783
     2004.79397        26.73210         8.02141
     2004.79671        21.03241         7.51861
     2004.79945        12.62172         7.78266
     2004.80219        10.50203         7.55402
     2004.80492        13.06234         7.56717
     2004.80766        21.98865         7.65620
     2004.81040        16.84996         7.85550
     2004.81314        12.79827         7.75231
     2004.81587         0.88558         7.40430
     2004.81861        10.87189         7.87573
     2004.82135        10.05420         7.69768
     2004.82409        14.97251         7.43566
     2004.82683        10.09482         7.54998
     2004.82956        12.61213         8.00117
     2004.83230        12.01544         7.57830
     2004.83504         0.29675         7.73106
     2004.83778        15.26506         7.82616
     2004.84052        11.43637         7.93238
     2004.84325         8.76168         7.39722
     2004.84599         3.31199         7.50749
     2004.84873        -6.27170         7.71184
     2004.85147        13.18760         7.67137
     2004.85420        17.48391         9.23539
     2004.85694         7.61322         7.84943
     2004.85968         1.32453         7.97487
     2004.86242         1.43084         7.67542
     2004.86516         0.30615         7.52772
     2004.86789         9.56346         7.39823
     2004.87063        -3.33823         7.38002
     2004.87337         8.57808         7.46601
     2004.87611        -0.64761         7.54188
     2004.87885        -1.63830         7.43768
     2004.88158         9.91501         7.82616
     2004.88432         2.50332         7.60966
     2004.88706         6.22663         7.12407
     2004.88980         6.50094         7.28088
     2004.89253         5.02725         7.52974
     2004.89527        12.84456         7.40632
     2004.89801        11.63387         7.45893
     2004.90075        19.21318         8.06895
     2004.90349        11.19549         7.47612
     2004.90622        -1.37520         7.68756
     2004.90896        -6.83689         7.31831
     2004.91170        -6.70958         7.17364
     2004.91444         5.65073         7.51254
     2004.91718        -0.20196         7.54896
     2004.91991         1.41435         7.35776
     2004.92265         9.19165         7.47309
     2004.92539        -0.63304         7.39418
     2004.92813        10.34627         7.42150
     2004.93086         8.64258         7.24344
     2004.93360         7.67889         7.60157
     2004.93634         8.77820         7.70071
     2004.93908        -1.28649         7.46095
     2004.94182         3.03482         8.15596
     2004.94455        -3.73187         7.55706
     2004.94729        -0.13156         7.41947
     2004.95003         3.74075         7.42858
     2004.95277         3.82606         7.74118
     2004.95551        -3.87563         7.45690
     2004.95824        -5.42932         7.27177
     2004.96098        -2.48401         7.56414
     2004.96372         2.78730         7.41846
     2004.96646       -14.03239         7.55807
     2004.96919        -6.29908         7.21006
     2004.97193         6.30423         7.55807
     2004.97467        -3.42846         7.44274
     2004.97741        -1.36015         7.31325
     2004.98015        -5.62784         7.32235
     2004.98288         1.14147         7.41138
     2004.98562        15.73678         7.50749
     2004.98836        -3.56291         7.39722
     2004.99110         4.09239         7.56212
     2004.99384        12.18770         7.39722
     2004.99657         1.97401         7.57324
     2004.99931        -1.71768         7.45286
     2005.00479        -4.03706         7.22928
     2005.00752        -0.39075         7.19488
     2005.01026        -5.86344         7.10889
     2005.01300        -2.64313         7.10586
     2005.01574         0.02118         7.30920
     2005.01848        18.27949         7.65114
     2005.02121         8.05780         7.58842
     2005.02395         4.48411         7.16656
     2005.02669       -10.04458         7.20095
     2005.02943        -1.89027         6.88937
     2005.03216        -2.43496         7.22422
     2005.03490         2.51035         7.35068
     2005.03764       -11.01734         7.18477
     2005.04038       -13.69103         7.02088
     2005.04312       -16.29272         7.43364
     2005.04585       -12.55341         7.51558
     2005.04859        -7.31510         7.57426
     2005.05133        -1.97579         7.83425
     2005.05407         0.29052         7.59955
     2005.05681        -3.48717         7.68453
     2005.05954        -0.75387         7.47916
     2005.06228        -3.56056         7.56515
     2005.06502        -2.98225         7.68655
     2005.06776        -3.88294         7.53682
     2005.07049         1.23037         7.44982
     2005.07323         0.10468         7.51963
     2005.07597       -10.34701         7.48523
     2005.07871        -5.35970         7.24344
     2005.08145        -5.55939         7.23535
     2005.08418        -1.97308         7.35574
     2005.08692       -10.03577         6.97738
     2005.08966        -4.15246         7.17162
     2005.09514        -5.11484         7.27683
     2005.09787        -0.30953         7.23535
     2005.10061        -6.51222         7.49433
     2005.10335        -6.42491         7.28290
     2005.10609       -13.38960         7.25862
     2005.10882        -4.30629         7.25862
     2005.11156       -11.53898         7.00267
     2005.11430        -7.84567         7.24749
     2005.11704        -1.08136         7.32842
     2005.11978        -0.72205         7.25457
     2005.12251        -9.66674         7.46702
     2005.12525       -12.27243         7.12407
     2005.12799       -11.95812         7.22928
     2005.13073        -9.15582         7.21916
     2005.13347        -7.92851         7.28088
     2005.13620        -6.21720         7.14734
     2005.13894        -6.11289         7.24648
     2005.14168        -5.37058         7.27885
     2005.14442        -8.59527         6.89442
     2005.14715        -9.58096         7.41745
     2005.14989       -10.51165         7.36889
     2005.15263        -9.75034         7.21512
     2005.15537        -3.45203         7.30516
     2005.15811        -1.14272         7.20804
     2005.16084        -0.17941         7.60764
     2005.16358       -13.16810         7.38710
     2005.16632       -13.77179         7.28391
     2005.16906        -8.77048         7.26368
     2005.17180       -10.79317         7.16150
     2005.17453       -17.33086         7.29807
     2005.17727       -11.15555         7.30718
     2005.18001       -10.27624         7.30313
     2005.18275       -10.56893         7.41644
     2005.18548       -16.20062         7.34663
     2005.18822        -2.68231         7.71690
     2005.19096        -8.93900         7.35068
     2005.19370        -7.31369         7.21411
     2005.19644       -18.73838         7.21815
     2005.19917        -8.14808         7.18477
     2005.20191        -1.33377         7.74320
     2005.20465        -0.02046         7.63799
     2005.20739         4.15085         7.42655
     2005.21013         1.68216         7.33550
     2005.21286        -3.58953         7.30212
     2005.21560        -4.64922         7.39216
     2005.21834        -0.86991         7.49332
     2005.22108        -9.01560         7.41340
     2005.22381        -4.53629         7.25761
     2005.22655        -5.60098         7.21309
     2005.22929        -5.15367         7.42655
     2005.23203         1.11864         7.87775
     2005.23477        12.98895         7.84740
     2005.23750         6.25326         7.53278
     2005.24024        11.99557         7.73005
     2005.24298         2.96888         7.61978
     2005.24572        -2.34981         7.80795
     2005.24846         4.23850         7.47410
     2005.25119        -1.32119         7.47612
     2005.25393         6.65212         7.77962
     2005.25667         7.04843         7.70779
     2005.25941        -0.55126         7.51558
     2005.26214         1.63005         7.49231
     2005.26488        -1.73964         7.57628
     2005.26762         7.04166         7.44476
     2005.27036         1.53297         7.28492
     2005.27304         1.53411         7.99106
     2005.27583         9.12159         7.61371
     2005.27857         2.67290         7.42251
     2005.28131        -2.86879         7.42554
     2005.28405        -4.07948         7.81199
     2005.28679        -6.96617         7.51457
     2005.28952        -1.21486         7.51254
     2005.29226         6.31645         7.37091
     2005.29500        -1.56224         7.33753
     2005.29774       -10.55193         7.05932
     2005.30047       -16.36462         7.14835
     2005.30321         1.56469         7.43465
     2005.30595       -12.31400         7.61270
     2005.30869        -0.43469         7.22726
     2005.31143         4.36562         7.39115
     2005.31416         1.38093         7.40733
     2005.31690         1.06424         7.25963
     2005.31964        -3.17745         7.29302
     2005.32238        -7.66014         7.53682
     2005.32512        -2.18883         7.23232
     2005.32785       -10.72452         7.44476
     2005.33059        -5.92321         7.31730
     2005.33333        -4.17790         7.39823
     2005.33607        -2.08359         7.90102
     2005.33880         2.75171         7.52165
     2005.34154        -2.97498         7.33652
     2005.34428        -8.29267         7.40227
     2005.34702         1.95164         7.35270
     2005.34976         3.16495         7.58134
     2005.35249         5.60026         7.41138
     2005.35523        -3.37643         7.64912
     2005.35797        -4.11712         7.63293
     2005.36071       -16.01981         7.55301
     2005.36344       -14.58150         7.68857
     2005.36618        -1.34719         7.76040
     2005.36892         6.55512         8.32794
     2005.37166         9.48043         7.66429
     2005.37440         9.23274         7.84639
     2005.37713         8.87805         7.71589
     2005.37987         7.25236         7.71386
     2005.38261         6.87967         7.98094
     2005.38535        -3.77602         7.90709
     2005.38809         5.74029         7.97588
     2005.39082        -3.53240         7.42453
     2005.39356       -16.34009         7.47612
     2005.39630       -12.88278         7.50142
     2005.39904        -4.09147         7.58235
     2005.40177        -5.00616         7.83122
     2005.40451         0.92915         7.54593
     2005.40725         7.87345         7.55706
     2005.40999        -4.31924         7.71690
     2005.41273        -0.78493         7.93036
     2005.41546         1.07838         8.04670
     2005.41820        -3.44031         7.58640
     2005.42094         0.97200         7.44476
     2005.42368        -7.79769         7.34663
     2005.42642        -6.91938         7.62990
     2005.42915         1.28093         7.69768
     2005.43189         4.60224         7.73207
     2005.43463        -2.99145         7.66025
     2005.43737        -6.90514         7.32134
     2005.44010        -4.48583         7.96071
     2005.44284         4.34048         7.80390
     2005.44558        -4.18921         8.49688
     2005.44832        -9.69490         7.75534
     2005.45106        -2.41659         7.62484
     2005.45379        -7.25328         7.66126
     2005.45653        -1.77197         7.65721
     2005.45927         2.37034         7.88888
     2005.46201         1.27265         7.80491
     2005.46475       -15.56704         7.58033
     2005.46748        -5.62073         7.44780
     2005.47022        -9.17842         7.71690
     2005.47296        -0.84611         7.72600
     2005.47570        -5.79681         7.66429
     2005.47843        -7.28150         7.89900
     2005.48117       -10.92519         7.88382
     2005.48391        -2.29588         7.69060
     2005.48665         3.63243         7.87573
     2005.48901        -2.95941         9.04217
     2005.49212        -3.29395         7.77557
     2005.49486         3.34336         7.85246
     2005.49760         2.70167         7.53986
     2005.50034        -0.35402         7.58842
     2005.50308        -0.55671         7.51356
     2005.50581         2.77960         7.77254
     2005.50855        -1.97409         7.79985
     2005.51129        -1.61578         8.26623
     2005.51403        -8.89947         7.56717
     2005.51676         5.01984         7.74421
     2005.51950         5.00915         7.78974
     2005.52224         0.68646         7.80491
     2005.52498        -2.64623         7.88787
     2005.52772        -2.56792         7.62079
     2005.53045         0.28839         7.61067
     2005.53319        -2.83230         7.57324
     2005.53593        10.28201         7.86460
     2005.53867         9.42132         7.82413
     2005.54141         4.06463         7.70982
     2005.54414         2.18594         7.60764
     2005.54688        -4.33276         7.64204
     2005.54962        -5.35545         7.61067
     2005.55236        -2.13614         7.58336
     2005.55509        10.65917         7.77962
     2005.55783         4.31948         7.68048
     2005.56057       -11.10521         8.12561
     2005.56331        -5.72690         7.89191
     2005.56605       -11.44759         8.24195
     2005.56878         1.89372         8.26724
     2005.57152         4.66203         8.34210
     2005.57426        -1.02466         7.76040
     2005.57700         5.68265         7.92328
     2005.57974        -5.11004         7.82515
     2005.58247         0.62027         7.59651
     2005.58521        -1.75942         7.69060
     2005.58795        -2.28011         7.51963
     2005.59069        -3.83280         7.63698
     2005.59342       -11.79449         7.71892
     2005.59616        -0.83918         7.70375
     2005.59890         0.98113         7.61371
     2005.60164         6.92544         7.52772
     2005.60438         2.70675         7.60258
     2005.60711        -1.38894         7.77861
     2005.60985        10.49837         7.94149
     2005.61259         1.34368         7.54087
     2005.61533         4.65798         7.70476
     2005.61807         0.40129         7.51254
     2005.62080         5.03360         7.66429
     2005.62354         3.61891         7.78873
     2005.62628         2.06322         7.56313
     2005.62902        11.43853         7.66935
     2005.63175         6.41084         8.36031
     2005.63449        -3.58585         7.64608
     2005.63723         4.07946         7.58842
     2005.63997       -10.05523         7.71690
     2005.64271         5.44008         7.60562
     2005.64544         1.64939         7.61067
     2005.64818         0.89070         7.56616
     2005.65092        -0.34399         7.69060
     2005.65366        -3.82468         7.62484
     2005.65639         0.47463         7.69464
     2005.65913        -1.57906         7.97791
     2005.66187        -1.92475         7.61978
     2005.66461         2.71856         7.53784
     2005.66735        -0.54213         7.49231
     2005.67008         4.47218         7.62079
     2005.67282         0.03849         7.52064
     2005.67556         2.97480         7.40227
     2005.67830         4.18611         7.61371
     2005.68104        -6.83358         7.32539
     2005.68377        -3.40228         7.49636
     2005.68651         4.65603         7.52165
     2005.68925        15.37934         7.74826
     2005.69193        16.35148         8.07604
     2005.69467        10.79979         7.98296
     2005.69741        -3.86290         7.66834
     2005.70014        11.35241         7.87370
     2005.70294         1.61189         7.69060
     2005.70568        -1.08280         7.92024
     2005.70841         4.70651         7.69667
     2005.71115        -4.52918         7.39216
     2005.71389        -0.18487         7.53986
     2005.71663         4.93244         7.63698
     2005.71937         3.51875         7.41340
     2005.72210         0.95006         7.51254
     2005.72484         0.70337         7.37597
     2005.72758        -2.36632         7.43161
     2005.73032        -0.74301         7.79075
     2005.73305         7.35230         7.76546
     2005.73579         2.48661         7.61169
     2005.73853         1.82092         7.59955
     2005.74127         9.31623         7.77052
     2005.74401        18.30054         7.56920
     2005.74674        25.33785         8.08818
     2005.74948        16.25916         7.85853
     2005.75222         1.98347         7.89697
     2005.75496        10.93377         7.87067
     2005.75770         8.02708         7.61371
     2005.76043         3.15139         7.33449
     2005.76317         9.08670         7.39317
     2005.76591         6.23701         7.65013
     2005.76865         8.15732         7.58943
     2005.77138         7.59263         7.31123
     2005.77412        12.91594         7.39013
     2005.77686        10.14625         7.72904
     2005.77960         6.85156         7.48321
     2005.78234        -1.00813         7.83223
     2005.78507        16.88218         7.69262
     2005.78781        20.25849         7.97993
     2005.79055         5.22780         7.56717
     2005.79329        16.75011         7.79176
     2005.79603         9.25542         7.65519
     2005.79876        13.46173         7.94452
     2005.80150         8.98004         7.66632
     2005.80424        14.19135         7.54998
     2005.80698         3.41166         7.42655
     2005.80971        11.04397         7.66227
     2005.81245         9.45228         7.75433
     2005.81519         1.95759         7.64912
     2005.81793        10.44290         7.80694
     2005.82067         1.84021         7.58235
     2005.82340        19.86851         7.72904
     2005.82614        13.54782         7.47714
     2005.82888         7.18613         7.42251
     2005.83162         8.02144         8.04063
     2005.83436         6.71775         8.23790
     2005.83709         8.25506         8.10841
     2005.83983        18.82237         7.86763
     2005.84257         9.58468         8.28545
     2005.84531         7.53099         8.12965
     2005.84804         8.06230         8.61525
     2005.85078         2.30961         7.71589
     2005.85352         3.61192         7.81908
     2005.85626        -6.75377         7.76040
     2005.85900        -2.51346         7.98499
     2005.86173         8.20785         7.78266
     2005.86447        14.97616         7.85550
     2005.86721        11.19747         7.77861
     2005.86995         5.81478         8.08413
     2005.87269        -9.88891         7.58235
     2005.87542        -3.39960         7.50850
     2005.87816        -4.67129         7.54391
     2005.88090        -7.66198         7.32539
     2005.88364         1.04733         7.49838
     2005.88637         0.69864         7.60359
     2005.88911        -1.36405         8.33300
     2005.89185         0.25125         8.09728
     2005.89459         4.71056         7.72803
     2005.89733        -1.49713         7.59752
     2005.90006        21.28918         7.73713
     2005.90280        11.43349         7.94351
     2005.90554       -13.10520         7.53177
     2005.90828        -3.99289         7.15644
     2005.91102        10.56942         7.46904
     2005.91375        21.79973         7.86460
     2005.91649         0.41704         7.49029
     2005.93018        17.39759         7.74522
     2005.93292         8.66290         7.51760
     2005.93566        -7.70879         7.13722
     2005.93839        -7.02648         7.10889
     2005.94113        -2.98017         7.26267
     2005.94387         4.35914         7.23130
     2005.94661         6.20945         7.40632
     2005.94935        10.13376         7.61877
     2005.95208       -18.07793         7.05528
     2005.95482        -7.14862         7.26975
     2005.95756        -2.64531         7.14430
     2005.96030         0.52700         7.28189
     2005.96303        -1.88670         7.18072
     2005.96577         3.40361         7.84740
     2005.96851         8.34192         8.29860
     2005.97125        11.59223         7.89900
     2005.97399        18.42054         7.91417
     2005.97672        10.84585         8.08109
     2005.97946        18.53016         7.93339
     2005.98220         1.36847         7.93845
     2005.98494        18.97778         7.86359
     2005.98767        13.59009         7.61472
     2005.99041         1.57640         7.67036
     2005.99315         0.14671         7.69161
     2005.99589         5.46402         7.67340
     2005.99857        29.03616         8.21463
     2006.00410        11.28695         7.91316
     2006.00684        10.69926         7.88079
     2006.00958         4.99657         7.69768
     2006.01232       -11.86312         7.71993
     2006.01505         1.54419         7.94047
     2006.01779        16.63050         7.88787
     2006.02053         7.95581         8.10234
     2006.02327         3.96912         8.19339
     2006.02600         3.07043         8.24599
     2006.02874         6.42774         8.08716
     2006.03148        -0.63196         7.75838
     2006.03422        19.52535         7.90709
     2006.03696         7.59366         7.87067
     2006.03969         1.68497         7.79277
     2006.04243       -10.27872         7.70881
     2006.04517         0.98059         7.97588
     2006.04791         5.16290         7.68250
     2006.05065        -3.60179         7.85246
     2006.05338        -6.41148         7.75129
     2006.05612         5.61983         7.56515
     2006.05886        -7.63786         7.48321
     2006.06160        -6.09455         7.59651
     2006.06433        -1.83524         7.61877
     2006.06707        -8.91193         7.19488
     2006.06981        -2.55262         7.39317
     2006.07255        -2.10231         7.50951
     2006.07529        -5.09600         7.39924
     2006.07802       -10.27969         7.49838
     2006.08076        -4.58938         7.65721
     2006.08350        -5.42007         7.34056
     2006.08624         4.21724         7.47309
     2006.08898         2.44855         7.42959
     2006.09171        -0.07714         7.74219
     2006.09719        -8.55352         7.39519
     2006.09993       -10.40022         7.34461
     2006.10266       -11.22291         7.36181
     2006.10540       -16.29760         7.47208
     2006.10814       -15.87229         7.31730
     2006.11088       -13.93598         7.55301
     2006.11362       -21.04967         7.36484
     2006.11635       -19.91936         7.49029
     2006.11909       -15.82005         7.50850
     2006.12457       -14.75943         7.27582
     2006.12731       -15.27512         7.21107
     2006.13004       -17.79381         7.43971
     2006.13278       -19.61850         7.06033
     2006.13552       -17.69819         6.99964
     2006.13826        -1.43288         7.29504
     2006.14099        -4.65657         7.40227
     2006.14373        -2.92526         7.38912
     2006.14647         2.26105         7.43465
     2006.14809         2.33895        17.61897
     2006.15195       -16.25633         7.50546
     2006.15468        -9.15102         7.46500
     2006.15742         2.79229         7.52064
     2006.16016        11.41760         7.73612
     2006.16290        -6.85009         7.60460
     2006.16564       -10.11978         7.33652
     2006.16837       -14.98548         7.37091
     2006.17111        -8.03417         7.33854
     2006.17385        -5.98386         7.33348
     2006.17659         5.98345         7.42150
     2006.17932        10.87676         7.46601
     2006.18206         1.30507         7.56414
     2006.18480        -7.43062         7.48928
     2006.18754        -7.57131         7.76445
     2006.19028        -5.30800         7.61674
     2006.19301        -2.16169         7.48219
     2006.19575        -8.95638         7.45286
     2006.19849        -4.54307         7.54188
     2006.20123       -10.48876         7.67441
     2006.20397        -1.22445         7.90203
     2006.20670        -3.09814         7.91822
     2006.20944         0.96517         7.87977
     2006.21218       -16.46852         7.67947
     2006.21492       -12.64521         7.50344
     2006.21765        -7.29390         7.43566
     2006.22039         1.77241         7.54289
     2006.22313        -8.71528         7.52165
     2006.22587        -8.39197         7.54087
     2006.22861        -5.09366         7.73814
     2006.23134        -6.83735         7.44375
     2006.23408       -14.22504         7.53581
     2006.23682        -2.32473         7.59348
     2006.23956       -14.75343         7.57628
     2006.24230        -3.68012         7.58033
     2006.24503        -9.45581         7.54289
     2006.24777         1.90650         7.76040
     2006.25051       -11.75919         7.58640
     2006.25325        -2.71488         7.53885
     2006.25598         2.07443         7.58943
     2006.25872        -8.35926         7.47005
     2006.26146        -3.43895         7.81301
     2006.26420        -5.48164         7.93238
     2006.26694        -4.18333         7.64204
     2006.26967         5.45798         7.75635
     2006.27241         7.49429         7.66227
     2006.27515         3.36760         7.74522
     2006.27789        -8.19909         7.56717
     2006.28062         3.87522         7.39519
     2006.28336         7.61953         7.57527
     2006.28610         8.99084         7.49332
     2006.28884         6.73515         7.58741
     2006.29158         1.54046         7.36080
     2006.29431        -9.97023         7.55402
     2006.29705        -2.58092         7.45994
     2006.29979         1.62039         7.50142
     2006.30253         3.89870         7.60460
     2006.30527        -3.90099         7.45185
     2006.30800        -6.82869         7.41947
     2006.31074         2.26462         7.58943
     2006.31348        -2.86707         7.57122
     2006.31622        -8.13276         7.41745
     2006.32169        -4.67714         7.64406
     2006.32443         1.49217         7.76343
     2006.32717         2.14048         7.73207
     2006.32991        -2.64721         7.55605
     2006.33264       -13.47590         7.46803
     2006.33538       -12.12459         7.36990
     2006.33812        -8.51528         7.51558
     2006.34086         7.79103         7.95059
     2006.34360         2.17034         7.83627
     2006.34633        -1.18935         7.78670
     2006.34907        -9.74304         7.73410
     2006.35181        -9.74773         7.73308
     2006.35455        -4.90542         7.56717
     2006.35728         2.06789         7.66126
     2006.36002        -4.55680         7.66632
     2006.36276       -13.93949         7.57324
     2006.36550       -15.28318         7.59145
     2006.36824        -3.87587         7.71386
     2006.37097        -7.54956         7.84032
     2006.37371        -1.19425         7.92631
     2006.37645        -1.83895         7.75433
     2006.37919        -6.10464         7.74522
     2006.38193        -0.45933         7.94149
     2006.38466         4.98898         7.91923
     2006.38740         1.44929         8.30062
     2006.39014         4.41560         7.87370
     2006.39288         5.31491         8.06491
     2006.39561        -4.13078         8.08818
     2006.39835         5.00353         8.00218
     2006.40109         4.10384         8.01230
     2006.40383         4.45215         8.35121
     2006.40657        -7.87754         8.01534
     2006.40930       -10.49123         7.85752
     2006.41204       -12.36892         7.77153
     2006.41478        -6.42461         8.01129
     2006.41752        15.90870         8.38054
     2006.42026        -1.39499         8.00117
     2006.42299        -7.74268         8.48272
     2006.42573         8.65363         8.17012
     2006.42847        -1.92406         8.10942
     2006.43121        -2.68975         8.08413
     2006.43394       -11.30744         7.82919
     2006.43668        -1.44213         8.34210
     2006.43942        -3.04582         8.06187
     2006.44216         4.77649         8.04771
     2006.44490        10.64380         8.19743
     2006.44763         2.26910         8.21767
     2006.45037        -1.96259         7.88382
     2006.45311         1.18772         8.23487
     2006.45585         6.48703         8.32996
     2006.45859        -1.92166         8.04164
     2006.46132         0.74565         8.37043
     2006.46406         0.39796         8.54140
     2006.46680        -7.66073         8.45844
     2006.46954         4.08158         8.69921
     2006.47227         3.31489         7.97689
     2006.47501         3.14720         7.82413
     2006.47775        -1.59149         8.10032
     2006.48049       -22.07318         8.37650
     2006.48323        -9.88787         8.48474
     2006.48596         5.84544         8.03355
     2006.48870        -0.74525         8.12156
     2006.49144        -0.87894         8.10740
     2006.49418         3.00737         7.96981
     2006.49692        -9.69332         8.05277
     2006.49965        -5.23201         7.99207
     2006.50239         5.84530         8.07502
     2006.50513         5.04261         8.32591
     2006.50787        13.06192         8.20856
     2006.51056        -1.82690         8.09323
     2006.51334        -5.09946         8.15596
     2006.51592        -9.76165         8.67089
     2006.51882         3.40815         8.12358
     2006.52156         9.05346         8.12864
     2006.52429         4.57277         8.45844
     2006.52703       -11.76492         8.09930
     2006.52977         5.87339         8.18529
     2006.53251        -6.05730         8.14887
     2006.53525         7.54901         8.24802
     2006.53798         0.18632         8.47766
     2006.54072       -10.48737         8.51004
     2006.54346         2.71594         7.85752
     2006.54620        12.16425         8.03051
     2006.54893       -12.36144         7.76445
     2006.55167         0.04787         7.90608
     2006.55441        -1.88382         7.86359
     2006.55715        -6.94251         7.83729
     2006.55989         8.47380         7.95970
     2006.56262        -3.14889         7.84032
     2006.56536        -0.78558         7.93744
     2006.56810        -0.75727         7.93643
     2006.57084         0.89304         8.52622
     2006.57357         1.25935         7.95970
     2006.57631         0.55466         7.88989
     2006.57905         0.95197         8.10639
     2006.58179         6.47928         7.76141
     2006.58453        -5.87242         7.83324
     2006.58726        -3.05411         8.00320
     2006.59000         2.67220         8.01129
     2006.59274        -3.38449         8.10335
     2006.59548        -1.85618         8.10537
     2006.59822        -9.54887         7.93643
     2006.60095        -2.75956         7.93643
     2006.60369        -4.98125         8.18428
     2006.60643         1.14406         7.83020
     2006.60917        -4.05463         7.67036
     2006.61190        -2.20632         7.87573
     2006.61464         5.39799         7.97689
     2006.61738         6.46130         7.89798
     2006.62012        10.94761         7.89090
     2006.62286        -0.59208         7.70476
     2006.62559        -2.79577         7.87775
     2006.62833        -5.44146         8.22880
     2006.63107         2.53885         7.89900
     2006.63381         4.39016         7.84538
     2006.63655        -4.54553         8.04569
     2006.63928         6.19478         7.93744
     2006.64202         2.28109         7.97791
     2006.64476         5.01440         7.93238
     2006.64750         4.88971         8.04670
     2006.65023         2.80602         7.90405
     2006.65297         2.67133         8.30265
     2006.65571        -1.84537         8.87727
     2006.65845         5.36494         8.84995
     2006.66119        17.22725         8.39167
     2006.66392        -1.49044         8.41696
     2006.66666         4.85887         8.39370
     2006.66940        -3.52182         8.18327
     2006.67214        -1.56551         8.10436
     2006.67488         6.63080         8.38763
     2006.67761        -3.31589         8.66178
     2006.68035         0.39242         8.61626
     2006.68309        13.83473         8.80544
     2006.68583        -0.05296         8.67494
     2006.68856        19.50035         8.84793
     2006.69130         7.08166         7.96880
     2006.69404        12.68097         8.07604
     2006.69678         1.62728         8.19845
     2006.69952        14.90359         8.43821
     2006.70225        19.97790         8.39875
     2006.70499         1.35121         8.25308
     2006.70773        18.10252         8.28140
     2006.71047        11.88083         8.09930
     2006.71321        14.45514         8.33704
     2006.71594        12.32045         8.40887
     2006.71868        12.03576         8.23385
     2006.72142        24.15907         8.71742
     2006.72416        14.08737         8.38661
     2006.72689         7.26668         8.02141
     2006.72963        11.89799         7.88888
     2006.73237        -1.57270         7.87775
     2006.73511        -6.22039         7.86055
     2006.73785         6.79792         7.88382
     2006.74058        15.44023         7.93946
     2006.74332        21.09154         7.83627
     2006.74606        11.96685         7.86157
     2006.74880        -2.48084         8.06895
     2006.75154         1.08147         8.12763
     2006.75427        -0.74322         8.23284
     2006.75701        14.06209         7.96880
     2006.75975        12.01340         8.02545
     2006.76249         1.79271         8.27331
     2006.76522         7.31502         8.42910
     2006.76796        22.24533         8.33907
     2006.77070         9.66364         7.97487
     2006.77344         7.12995         8.10639
     2006.77618         6.10926         7.83223
     2006.77891         3.02257         7.75838
     2006.78165         0.83088         8.02141
     2006.78439         7.93419         7.92732
     2006.78713        20.75150         8.68100
     2006.78987        20.37681         8.39066
     2006.79260         4.04511         8.25712
     2006.79534         1.39342         8.30872
     2006.79808        34.86973         8.51105
     2006.80082        15.43906         8.33401
     2006.80355        11.04735         8.12662
     2006.80629         8.83566         7.67239
     2006.80903         0.48397         7.87876
     2006.81177         3.71928         8.07907
     2006.81451        -4.60941         8.24094
     2006.81724        12.08590         7.98802
     2006.81998         9.76721         7.70678
     2006.82268         0.35041         7.80087
     2006.82546        17.12783         8.33907
     2006.82820         3.37014         7.77052
     2006.83093         9.20845         7.78771
     2006.83367        14.74276         7.94857
     2006.83641        14.24807         8.13674
     2006.83915        20.57138         8.24903
     2006.84188        14.42269         8.42303
     2006.84462        11.58400         8.49081
     2006.84736         8.40631         8.47969
     2006.85010        27.61262         8.31479
     2006.85210        13.80070        11.50453
     2006.85543        23.47079         8.75587
     2006.85810         9.57390         8.64054
     2006.86105         0.73686         8.31377
     2006.86379        12.15716         8.25510
     2006.86565        16.33682        13.06653
     2006.86843        10.56926        11.72204
     2006.87189        13.74476         8.48373
     2006.87463        15.73707         8.38156
     2006.87748         5.48871         7.87674
     2006.88013        12.45778         8.15697
     2006.88293         8.81626         8.09627
     2006.88489        26.21220        11.88593
     2006.88762        16.87551        11.98608
     2006.89117        13.65126         8.38560
     2006.89308        14.38906        13.11205
     2006.89664         4.13888         8.17417
     2006.89936        -6.39185         7.46196
     2006.90210         5.86046         7.78367
     2006.90485        34.30081         8.04771
     2006.90759         4.88712         7.30414
     2006.91033        11.15943         7.04820
     2006.91307       -14.63426         7.80592
     2006.91854       -15.10164         8.10740
     2006.92128         1.35067         7.53784
     2006.92402        -0.34002         8.18428
     2006.92676       -13.78671         7.70071
     2006.92950       -12.77140         7.69970
     2006.93223        -2.44810         7.90507
     2006.93497        -5.39479         8.13572
     2006.93771        13.06052         7.93238
     2006.94045        21.43183         8.07401
     2006.94318        17.47414         8.58793
     2006.94592        17.19045         8.14382
     2006.94866        22.23476         8.07401
     2006.95140         5.57007         8.00522
     2006.95414        18.94538         8.65571
     2006.95687         5.01069         7.83020
     2007.02734        14.67956        11.29411
     2007.03080         3.69105         7.20601
     2007.03353         4.78136         7.07753
     2007.03618         8.38338         7.25356
     2007.03901        -2.51102         7.05831
     2007.04175        12.35129         7.30111
     2007.04449        -5.55040         7.70577
     2007.04722         0.58491         7.98094
     2007.04996        -9.06578         7.99207
     2007.05270         1.82353         7.90810
     2007.05544       -12.77216         7.61573
     2007.05778       -10.18305         9.32846
     2007.06091        -6.20154         7.51558
     2007.06365       -12.93123         7.58538
     2007.06639        -4.55092         7.50243
     2007.06913       -10.04061         7.62180
     2007.07186        -6.75531         7.56212
     2007.07460       -11.29300         7.38204
     2007.07734       -19.30569         7.30920
     2007.08008       -13.84038         7.24344
     2007.08282       -11.56207         7.42048
     2007.08555       -22.18476         7.46904
     2007.08829       -10.47645         7.34967
     2007.09103        -0.69314         7.60562
     2007.09377         0.99217         7.77760
     2007.09650        -2.34752         7.65822
     2007.09909       -18.43769         8.40078
     2007.10176       -16.01758         8.80139
     2007.10441        -0.95753         9.10590
     2007.10746        -7.05028         7.66227
     2007.11019        -6.88297         7.41239
     2007.11293        -3.63166         7.47511
     2007.11567        -1.30735         7.37496
     2007.11841       -13.20504         7.42554
     2007.12115       -10.94073         7.40936
     2007.12388        -3.53742         7.99005
     2007.12662        -6.07711         7.64204
     2007.12936       -13.94480         8.02141
     2007.13210         3.88651         7.47005
     2007.13483         5.93082         7.54391
     2007.13757        14.24313         7.96172
     2007.14031        -7.04457         7.72499
     2007.14305         1.83974         7.71690
     2007.14579       -11.94195         7.58134
     2007.14852        -9.00964         7.77861
     2007.15126         7.89767         7.86157
     2007.15400         6.14498         7.97892
     2007.15674        -1.65671         7.45994
     2007.16769        -3.43747         8.29354
     2007.17043       -13.10416         7.65519
     2007.17316        -6.44385         7.97184
     2007.17590        -8.71954         7.78670
     2007.17864        -0.00623         7.82919
     2007.18138         5.50108         7.90001
     2007.18412        -2.54961         7.81199
     2007.18685       -13.07230         7.86157
     2007.18959         4.29301         7.99106
     2007.19233         0.03232         7.90507
     2007.19507       -14.36937         7.72499
     2007.19780       -17.65506         7.73511
     2007.20054       -27.54075         7.98296
     2007.20328       -13.24344         7.96475
     2007.20602         4.26187         7.74927
     2007.20876       -10.64583         7.93440
     2007.21149       -11.89152         7.75736
     2007.21423        -1.38721         7.95970
     2007.21697         0.01810         7.60157
     2007.21971        -3.85059         7.48826
     2007.22245         2.09872         7.59752
     2007.22518         7.38403         7.89394
     2007.22792         0.70934         7.74017
     2007.23066        -8.57735         7.50749
     2007.23340        -6.32504         7.56313
     2007.23613       -11.71673         7.77760
     2007.23887       -14.56042         7.54694
     2007.24161       -15.86611         7.46500
     2007.24435         0.70420         7.81199
     2007.24982        -0.71518         7.46500
     2007.25256       -11.09587         7.37496
     2007.25530       -11.14956         7.50243
     2007.25804        -7.57125         7.50040
     2007.26078       -18.63593         7.63900
     2007.26351       -10.49863         7.48422
     2007.26625         0.31468         7.79581
     2007.26899         2.36499         7.71589
     2007.27173         4.75330         7.69464
     2007.27446        -1.10239         7.77557
     2007.27720        -4.27908         7.57931
     2007.27994        -2.15678         7.61270
     2007.28268         5.90453         7.85246
     2007.28542        10.93384         7.85145
     2007.28815        -4.34685         7.52772
     2007.29089        -3.04754         7.59752
     2007.29363        -5.08723         7.97588
     2007.29637        -4.06292         7.73814
     2007.29911        -7.91861         7.57628
     2007.30184        -9.49530         7.57122
     2007.30458        -8.17699         7.68351
     2007.30732        -2.70768         7.76141
     2007.31006       -12.26637         7.66834
     2007.31279         6.32494         7.74725
     2007.31553        -4.10375         7.66429
     2007.31827       -20.76244         7.46904
     2007.32101        -3.09713         7.70071
     2007.32375        -8.40282         7.67036
     2007.32648        -9.97351         7.46702
     2007.32922         2.88480         7.58943
     2007.33196        -9.28289         7.68453
     2007.33470        -9.92758         7.78771
     2007.33744         1.14173         7.96577
     2007.34017       -10.23196         7.55402
     2007.34291       -13.02465         7.65923
     2007.34565       -16.42134         7.79176
     2007.34839        -5.32304         7.61270
     2007.35112       -16.93773         7.71993
     2007.35386        -6.68942         8.25206
     2007.35660        -6.88511         8.18327
     2007.35934        -5.02180         7.52367
     2007.36208       -17.05249         7.57527
     2007.36481       -13.86618         7.75736
     2007.36755        -7.06487         7.58842
     2007.37029        -8.82056         7.41441
     2007.37303        -0.38025         7.85145
     2007.37577        -9.63594         7.71791
     2007.37850       -16.02263         7.60258
     2007.38124        -5.50832         7.81199
     2007.38398         4.52599         8.11347
     2007.38672        -1.90770         7.88483
     2007.38945        -7.05739         7.53885
     2007.39219        -7.04908         7.84740
     2007.39493        -8.92677         7.72499
     2007.39767       -10.27846         7.79480
     2007.40041         4.42585         8.01230
     2007.40314        -0.90884         8.05277
     2007.40588        -4.43953         7.78974
     2007.40862       -12.06222         7.94654
     2007.41136       -10.04191         7.94756
     2007.41410        -0.98060         7.83020
     2007.41683        -0.45330         7.63597
     2007.41941        -8.78148         8.18732
     2007.42210         1.66169         8.39673
     2007.42496        -0.44464         8.49183
     2007.42764         6.31150         8.27533
     2007.43037        -2.24219         8.56568
     2007.43308        -8.21499         8.39774
     2007.43578        -1.08079         8.33907
     2007.43874        17.90518         8.30467
     2007.44112        -2.44858         9.06948
     2007.44421        -2.37020         8.23487
     2007.44695       -10.27589         8.13876
     2007.44969       -11.20858         8.12257
     2007.45243         4.95173         9.12714
     2007.45516        -7.37796         7.77962
     2007.45790         2.91835         7.94958
     2007.46064        -6.91734         8.25004
     2007.46338        -8.65503         8.04569
     2007.46611        -7.99872         7.94857
     2007.46885        -6.50741         7.89697
     2007.47159         6.02190         7.83324
     2007.47433        -1.92179         7.86359
     2007.47707       -10.86948         8.45035
     2007.47980       -12.15017         8.06997
     2007.48254       -22.44586         7.89798
     2007.48528        -7.09856         7.74826
     2007.48802        -4.27125         7.84234
     2007.49076         0.86206         8.02748
     2007.49349       -22.02063         7.88079
     2007.49623       -10.28232         7.73612
     2007.49897         0.87799         8.00623
     2007.50171         2.79430         7.83425
     2007.50438       -11.37558         7.82413
     2007.50718       -10.50008         7.85853
     2007.50992       -10.84077         7.81301
     2007.51266        -6.79646         7.91721
     2007.51540         8.01885         8.01837
     2007.51808        -9.55101         8.00825
     2007.52087        -1.94253         8.12763
     2007.52361       -12.55622         7.70678
     2007.52635        -6.70491         7.94958
     2007.52908        -2.17060         7.83223
     2007.53182         5.28071         7.98296
     2007.53456        -4.31798         8.11448
     2007.53730       -16.25767         8.10639
     2007.54004        -0.43136         8.14179
     2007.54277        -3.82105         7.90810
     2007.54551        -2.11074         8.04569
