# ================= DQRFIT RESULTS ================
# INPUT FILE: series/EMBC.rad
# OUTPUT: LDETRENDED
# FILTER FUNCTION: f(t)
# f(t)=+line(t)
# line(t)=+P 1+P 2*t
# heav(t)=(t<0?0:1)
# TOTAL OBSERVATIONS MTOT=  235
# INITIAL TIME INTERVAL= 2010.9979 - 2010.2998 =  0.6982
# TOTAL OBSERVATIONS AFTER PREFILTER M=  232
# TIME-SPAN= 2010.9979 - 2010.2998 =  0.6982
# OBSERVATIONS: USED M=   232 REJECTED MTOT-M=     3 %USED=   98.7234
# N=  2 PARAMETERS
# MAXSIG= 175.00000
# MAXRES=  18.20751
# SCALE FACTOR FOR LENGTHS: SCL=  10.00000
# SCALE FACTOR FOR SIGMAS: SCLSIG=   1.00000
# CHI^2=    360.899 DOF=   230 CHI^2/DOF=   1.56913
# RMS=      8.355 SDEV=      8.355 MEAN=   -0.54914
#  P #       PARAMETER +-    SIGMA %error PARAMETER NAME
# P 1 =      -761.50624 +- 4412.744 579.48 YZERO                              
# P 2 =         0.38628 +-    2.195 568.18 SLOPE                              
#       T            LDETRENDED       SIG_OBS
     2010.29979         3.32896         4.19726
     2010.30253        -1.53635         4.14047
     2010.30527         3.17176         4.28689
     2010.30801         5.43156         4.22459
     2010.31075        -5.57344         4.10205
     2010.31348         0.10011         4.08950
     2010.31622         7.18309         4.07054
     2010.31896         2.08258         4.21182
     2010.32170        -1.87663         4.15151
     2010.32444         0.45925         4.15893
     2010.32717        -9.10066         7.03096
     2010.32991        -3.12600         7.01493
     2010.33265        -5.72961         7.08674
     2010.33539         0.19041         7.21160
     2010.33812        -1.90695         7.34749
     2010.34086       -16.06941         6.96398
     2010.34360        -6.73617         6.95171
     2010.34634        -3.62246         7.07012
     2010.34908        -1.96517         7.02127
     2010.35181        -0.92734         6.97956
     2010.35455        -2.36682         7.96812
     2010.35729       -11.49213        17.01179
     2010.36003        -0.67630         7.20695
     2010.36277         0.52956         7.15421
     2010.36550        -2.75496         7.39668
     2010.36824         0.97159         7.18772
     2010.37098         1.01787         7.29477
     2010.37372         0.79780         6.95021
     2010.37645        -2.99083         7.01042
     2010.37919        -9.29104         7.29723
     2010.38193       -14.79700         7.22253
     2010.38467        -9.02853         7.29588
     2010.38741        -8.40212         7.04683
     2010.39014       -10.90067         7.07108
     2010.39288       -11.37369         7.28681
     2010.39562        -4.40111         7.10609
     2010.39836       -13.97256         6.90184
     2010.40110        -9.80362         6.91394
     2010.40383        -9.93505         6.90288
     2010.40657       -21.48282         6.96115
     2010.40931        -6.86595         7.00879
     2010.41205        -9.79671         7.04528
     2010.41478        -5.30098         7.10449
     2010.41752        -3.51279        15.75778
     2010.42026         6.57096        32.59546
     2010.42300        -0.54633        29.82040
     2010.42574        -7.53140        31.14935
     2010.42847       -17.60226        18.47955
     2010.43121       -19.51861        20.81217
     2010.43395        -7.20167        30.28636
     2010.43669       -39.72077        22.28014
     2010.43943       -22.51483        31.31160
     2010.44216        -9.02994        31.92815
     2010.44490       -11.53758        30.91762
     2010.44764        -6.67149        21.47227
     2010.45038        -5.54507        30.11113
     2010.45311        -4.20877        12.05440
     2010.45585        -7.00507         8.04308
     2010.45859        -5.58719        12.15108
     2010.46133         1.84007        14.33484
     2010.46407        -0.59914        15.48124
     2010.46680       -11.58357        18.25667
     2010.46954         3.63506        19.33509
     2010.47228        -1.12422        20.53714
     2010.47502         2.45725        15.89189
     2010.47775         5.32815        15.68321
     2010.48049       -15.95832        17.64137
     2010.48323         0.27675         6.89503
     2010.48597        -3.84516         6.86896
     2010.48871        -3.83768         8.53078
     2010.49144        -2.93372        30.69223
     2010.49418        -8.78353         8.09805
     2010.49692        -0.86529         7.00020
     2010.49966        -6.85877         6.86497
     2010.50240        -2.93900         6.87470
     2010.50513         1.20775         6.90181
     2010.50787        -3.63506         6.91042
     2010.51061         2.54812         6.91140
     2010.51335         2.93536         7.06029
     2010.51608         2.27019         6.99265
     2010.51882         6.86800         6.91623
     2010.52156        -0.55999         6.94342
     2010.52430         0.19885         7.07859
     2010.52704       -10.33794         6.89569
     2010.52977         5.21881         6.90453
     2010.53251         3.56101         6.89752
     2010.53525         1.50263         6.96657
     2010.53799         6.68408         6.93726
     2010.54073         4.61972         7.46061
     2010.54346        -4.93853         8.04557
     2010.54620         3.57581         6.90592
     2010.54894         7.30816         7.69863
     2010.55168         2.68619         6.94805
     2010.55441        12.07879         7.11310
     2010.55715         2.68309         6.90408
     2010.55989        -3.13142         6.88875
     2010.56263        10.84654         7.10136
     2010.56537        11.77947         7.50538
     2010.56810         2.66467         7.09784
     2010.57084         5.68024         6.91763
     2010.57358        -5.59339         7.07619
     2010.57632        -2.37496         7.10570
     2010.57906        -0.07139         7.21958
     2010.58179        15.13514         6.91823
     2010.58453         1.00447         6.96074
     2010.58727         1.22611         7.08662
     2010.59001        15.76329         7.11735
     2010.59274        13.97198         7.54130
     2010.59548        10.14699         7.07659
     2010.59822         5.58943         7.12125
     2010.60096         0.94970         6.94951
     2010.60370         2.66619         7.05978
     2010.60643         2.86621         6.95022
     2010.60917         9.01129         7.22321
     2010.61191         6.29251         6.92630
     2010.61465         8.13135         7.12274
     2010.61739        13.07717         7.20128
     2010.62012        10.88212         7.15111
     2010.62286         6.70810         7.15862
     2010.62560         0.97626         6.96635
     2010.62834         2.21126         7.08260
     2010.63107         9.72652         7.13013
     2010.63381         8.06359         6.99708
     2010.63655        12.39228         6.99976
     2010.63929         0.89970         7.06677
     2010.64203        -0.03947         8.07456
     2010.64476         3.99613         7.13514
     2010.64750         6.41927         6.97374
     2010.65024         9.36776         7.13610
     2010.65298         8.02383         7.21995
     2010.65572         7.52102         6.98503
     2010.65845        12.90651         6.96141
     2010.66119         8.86553         6.95543
     2010.66393         2.95379         7.10325
     2010.66667        13.47440        32.46755
     2010.66940         1.48078        32.97011
     2010.67214        16.01278        22.09796
     2010.67488        11.71046        32.78818
     2010.67762         7.34420        32.73446
     2010.68036        -8.73561        31.57997
     2010.68309        -1.14829        31.96781
     2010.68583         5.98535        30.44639
     2010.68857       -11.24504        31.45735
     2010.69131        -9.91052        30.99992
     2010.69405         5.58338        32.23503
     2010.69678         2.28548        31.30736
     2010.69952        10.08791        27.78553
     2010.70226         9.94491        31.67151
     2010.70500       -11.50705        16.91715
     2010.70773         0.46379         7.67089
     2010.71321         5.29812         7.01685
     2010.71595         4.78653         7.18621
     2010.71869         5.38738        11.42147
     2010.72142         8.44199         7.86423
     2010.72416         3.72128         7.38356
     2010.72690        -3.55817         7.22730
     2010.72964         4.08638         7.02281
     2010.73238         3.52322         7.08752
     2010.73511         6.85435         7.44519
     2010.73785        -0.35204         7.20200
     2010.74059         3.54812         7.23257
     2010.74333        10.12311         8.67401
     2010.77892         2.48417        22.74837
     2010.78166         5.62196         7.04338
     2010.78439         7.32007         7.45529
     2010.78713         0.33582         7.55671
     2010.78987         4.88032         7.00099
     2010.79261         5.81918         7.05351
     2010.79535         9.70130         7.11092
     2010.79808         5.03745         7.13593
     2010.80082         3.84736         7.50860
     2010.80356        13.56450         7.26990
     2010.80630        -2.68521         7.02905
     2010.80903         9.62994         7.30358
     2010.81177         8.54405         7.13753
     2010.81451         2.98771         7.24361
     2010.81725         4.70609         7.31069
     2010.81999         4.27772         7.22038
     2010.82272        11.39638         7.22015
     2010.82546         4.28273         7.16772
     2010.82820         3.07138         7.19047
     2010.83094        -3.74249         7.47292
     2010.83368       -10.07443         7.50691
     2010.83641        -5.94946         7.11337
     2010.83915         3.78851         7.45414
     2010.84189         3.04980         7.06546
     2010.84463        13.79094         7.17065
     2010.84736         2.57358         7.21410
     2010.85010         2.33527         7.18403
     2010.85284        -4.14206         7.11720
     2010.85558        -3.57979         7.17655
     2010.85832        -6.16622         7.25378
     2010.86105       -11.85500         6.95548
     2010.86379        -8.90628         7.06707
     2010.86653        -7.30472         7.14125
     2010.86927        -9.40137         7.12964
     2010.87201       -18.61756         7.22069
     2010.87474        -4.96755         7.04627
     2010.87748        -0.26971         7.21037
     2010.88296        -7.01630         7.19833
     2010.88569        -0.74697         7.00828
     2010.88843         4.57159         8.34885
     2010.91855        -6.39304         7.03862
     2010.92129       -11.92603         6.94945
     2010.92402         8.54147         7.37278
     2010.92676        -1.65712         7.09640
     2010.92950        -2.15557         6.92635
     2010.93224        -5.19691         7.08147
     2010.93498        -6.37355         7.04616
     2010.93771        -7.49971         6.90166
     2010.94045        -7.62829         7.06300
     2010.94319        -6.53836         7.03268
     2010.94593       -16.65686         7.09810
     2010.94867       -13.81378         6.95135
     2010.95140       -11.73200         7.22521
     2010.95414       -10.21143         7.08248
     2010.95688       -16.22105         6.93425
     2010.95962         2.17098         7.15906
     2010.96235         9.17420         7.27696
     2010.96509        -1.49245         7.42279
     2010.96783         0.63380         7.24488
     2010.97057        -0.10620         6.94676
     2010.97331        -0.08537         7.09419
     2010.97604       -11.72602         7.50995
     2010.97878        -9.32446         6.94578
     2010.98152       -17.73387         6.91084
     2010.98426       -16.01846         7.24825
     2010.98700        -8.34215         7.25709
     2010.98973        18.20751         7.75519
     2010.99247         5.24827         7.45957
     2010.99521         8.72675         7.51284
     2010.99795         4.36033         7.23088
