# ================= DQRFIT RESULTS ================
# INPUT FILE: series/EUCH.rad
# OUTPUT: LDETRENDED
# FILTER FUNCTION: f(t)
# f(t)=+line(t)
# line(t)=+P 1+P 2*t
# heav(t)=(t<0?0:1)
# TOTAL OBSERVATIONS MTOT=  546
# INITIAL TIME INTERVAL= 2022.7488 - 2021.2567 =  1.4921
# TOTAL OBSERVATIONS AFTER PREFILTER M=  545
# TIME-SPAN= 2022.7488 - 2021.2567 =  1.4921
# OBSERVATIONS: USED M=   545 REJECTED MTOT-M=     1 %USED=   99.8168
# N=  2 PARAMETERS
# MAXSIG= 175.00000
# MAXRES=  17.80618
# SCALE FACTOR FOR LENGTHS: SCL=  10.00000
# SCALE FACTOR FOR SIGMAS: SCLSIG=   1.00000
# CHI^2=    751.749 DOF=   543 CHI^2/DOF=   1.38444
# RMS=      6.606 SDEV=      6.611 MEAN=   -0.05830
#  P #       PARAMETER +-    SIGMA %error PARAMETER NAME
# P 1 =      7191.33893 +- 1313.449  18.26 YZERO                              
# P 2 =        -1.59126 +-    0.650  40.82 SLOPE                              
#       T            LDETRENDED       SIG_OBS
     2021.25667        -3.81947         6.42435
     2021.25941        -0.83212         6.40670
     2021.26214        -3.71076         6.46436
     2021.26488        -5.14040         6.44435
     2021.26762        -4.80205         6.43729
     2021.27036        -3.39469         6.49024
     2021.27310        -5.00133         6.44671
     2021.27583        -4.22498         6.55849
     2021.27857        -5.30762         6.55143
     2021.28131        -8.80326         6.54790
     2021.28405        -0.05691         6.56319
     2021.28679        -1.04555         6.61614
     2021.28952        -1.32419         6.59025
     2021.29226        -2.76784         6.60908
     2021.29500         2.18852         6.60437
     2021.29774         3.52188         6.77734
     2021.30047         5.41023         6.66203
     2021.30321         7.45159         6.58555
     2021.30595         6.27295         6.80911
     2021.30869        15.40730         6.87853
     2021.31143         6.84566         6.54319
     2021.31416         4.31702         6.46318
     2021.31690         2.80137         6.50554
     2021.31964         1.68373         6.57260
     2021.32238         7.94309         6.81264
     2021.32512         0.82244         6.53731
     2021.32785         0.17880         6.49024
     2021.33059         3.78716         6.64085
     2021.33333         1.93251         6.38082
     2021.33607         1.86087         6.44671
     2021.33880         0.66323         6.49730
     2021.34154         4.85458         6.47965
     2021.34428         3.38594         6.67262
     2021.34702       -10.63470         6.40082
     2021.34976        -1.28835         6.42788
     2021.35249        -4.77999         6.36199
     2021.35523         0.20137         6.44906
     2021.35797        -5.30828         6.43023
     2021.36071        -0.99592         6.36905
     2021.36344        -7.56056         6.44788
     2021.36618        -6.14221         6.34552
     2021.36892        -6.72585         6.41258
     2021.37166         2.04751         6.36787
     2021.37440        -5.65714         6.38317
     2021.37713         0.93822         6.39729
     2021.37987        -3.91642         6.58202
     2021.38261        -3.48607         6.72204
     2021.38535        -4.73871         6.57260
     2021.38809        -2.78635         6.52436
     2021.39082         3.09900         6.42788
     2021.39356        -2.09064         6.45612
     2021.39630        -4.43628         6.40788
     2021.39904        -0.62493         6.39611
     2021.40177         8.42943         6.57613
     2021.40451         2.67979         6.57496
     2021.40725         0.83614         6.38788
     2021.40999         6.28950         6.46200
     2021.41273         1.94186         6.38788
     2021.41546        -1.66379         6.35375
     2021.41820        -1.42743         6.33963
     2021.42094        -0.07907         6.43023
     2021.42368         2.62528         6.61026
     2021.42642         0.56564         6.78910
     2021.42915         0.29200         6.55966
     2021.43189         4.50735         6.40905
     2021.43463        -2.77029         6.58437
     2021.43737        -4.92194         6.47024
     2021.44010        -5.81958         6.55731
     2021.44284        -2.00922         6.63732
     2021.44558        -6.42587         6.61496
     2021.44832        -3.34551         6.45612
     2021.45106         0.58585         6.66791
     2021.45379         1.08020         6.56084
     2021.45653        -0.17844         6.63850
     2021.45927        -0.10008         6.33846
     2021.46201        -0.81173         6.34434
     2021.46475        -4.15037         6.42553
     2021.46748        -3.00101         6.39611
     2021.47022         5.11334         6.57731
     2021.47296         6.78870         6.38670
     2021.47570        -3.10894         6.45730
     2021.47843         0.14041         6.56319
     2021.48117        -1.92323         6.52789
     2021.48391         0.19113         6.59378
     2021.48665        -4.08252         6.58319
     2021.48939         2.60584         6.40199
     2021.49212         1.73320         6.56908
     2021.49486        -6.42745         6.45730
     2021.49760         2.89791         6.61614
     2021.50034        -5.38473         6.54554
     2021.50308        -2.91638         6.57966
     2021.50581         1.09998         6.41729
     2021.50855         1.25934         6.39611
     2021.51129         1.88669         6.52436
     2021.51403        -1.28995         6.60673
     2021.51676         3.49841         6.42200
     2021.51950         2.22876         6.71851
     2021.52224        -0.31888         6.45141
     2021.52498         0.85748         6.41023
     2021.52772        -1.46717         6.44082
     2021.53045        -0.91081         6.41611
     2021.53319        -0.62245         6.43141
     2021.53593        -4.03910         6.87147
     2021.53867         6.50526         6.80558
     2021.54141        -1.90538         6.56437
     2021.54414        -5.57703         6.62202
     2021.54688        -6.20367         6.66791
     2021.54962        -0.96131         6.44788
     2021.55236         1.13604         6.37258
     2021.55509         0.87540         6.58202
     2021.55783        -3.85224         6.61849
     2021.56057         1.10311         6.47377
     2021.56331         2.78047         6.43141
     2021.56605        -0.40517         6.37964
     2021.56878         4.78418         6.39611
     2021.57152        -1.04046         6.60437
     2021.57426        -0.46110         6.72674
     2021.57700         9.49825         6.79263
     2021.57974        -6.18739         6.47377
     2021.58247        -4.46403         6.41964
     2021.58521        -2.07568         6.41847
     2021.58795        -8.57132         6.49612
     2021.59069        -2.11196         6.47730
     2021.59342         1.00039         6.64203
     2021.59616        -1.72425         6.62320
     2021.59890        -2.78889         6.60320
     2021.60164         6.77946         6.67262
     2021.60438         1.99882         6.44906
     2021.60711         1.87118         6.53613
     2021.60985         4.89953         6.45730
     2021.61259         5.46389         6.42906
     2021.61533        -2.77175         6.51495
     2021.61807         0.70460         6.52083
     2021.62080        -0.57304         6.45965
     2021.62354         3.31732         6.63144
     2021.62628         5.67667         6.76910
     2021.62902         1.16903         6.48553
     2021.63175        -1.94361         6.65967
     2021.63449         1.76274         6.63850
     2021.63723         1.45510         6.77381
     2021.63997         3.87446         6.57496
     2021.64271         0.79081         6.59025
     2021.64544         1.00817         6.42670
     2021.64818         3.03953         6.53260
     2021.65092         9.62988         6.57496
     2021.65366         0.83124         6.55966
     2021.65639         1.25860         6.70909
     2021.65913         4.99495         6.46906
     2021.66187         4.33631         6.47612
     2021.66461         1.00267         6.46906
     2021.66735         3.66402         6.49612
     2021.67008         3.55338         6.63967
     2021.67282         8.08074         6.74910
     2021.67556         4.12709         6.84440
     2021.67830         2.80545         6.75733
     2021.68104         0.50081         6.51260
     2021.68377         7.64716         6.54790
     2021.68651         5.05752         6.57378
     2021.68925         5.53788         6.54907
     2021.69199         5.15423         6.49965
     2021.69472         3.25659         6.46553
     2021.69746         2.13595         6.49024
     2021.70020        12.82230         6.52319
     2021.70294         0.58066         6.61026
     2021.70568         8.76802         6.48318
     2021.70841         6.82737         6.47259
     2021.71115         7.91473         6.48671
     2021.71389         8.35909         6.74204
     2021.71663         3.87644         6.54554
     2021.71937         4.59880         6.51260
     2021.72210         1.68416         6.51142
     2021.72484        -1.36449         6.66791
     2021.72758         2.86587         6.46906
     2021.73032         1.02423         6.92324
     2021.73305         6.07958         6.57731
     2021.73579        11.73494         6.68674
     2021.73853        10.57230         6.87029
     2021.74127         0.30265         6.61261
     2021.74401         2.85701         6.56437
     2021.74674         5.62137         6.68909
     2021.74948         5.05572         6.54554
     2021.75222         5.90608         6.79263
     2021.75496         0.62744         6.68321
     2021.75770         6.33079         6.59261
     2021.76043         0.13415         6.76675
     2021.76317         5.25351         6.75969
     2021.76591         3.48186         6.57260
     2021.76865         0.45122         6.57378
     2021.77138        -0.53442         6.55849
     2021.77412         7.56393         6.83852
     2021.77686         4.39629         6.56672
     2021.77960        10.35765         6.62320
     2021.78234         7.01600         6.61732
     2021.78507         4.46636         6.59143
     2021.78781         6.55172         6.48083
     2021.79055         9.51607         6.51613
     2021.79329         5.83143         6.53025
     2021.79603         9.95778         6.48553
     2021.79876         8.80614         6.67850
     2021.80150         3.13050         6.87853
     2021.80424         7.69885         6.67379
     2021.80698         3.27721         6.54672
     2021.80971         3.54157         6.61732
     2021.81245        15.01592         6.77734
     2021.81519        13.11428         6.50671
     2021.81793         8.72164         6.64791
     2021.82067         7.02299         6.64673
     2021.82340         9.32935         6.82323
     2021.82614         8.93971         6.66203
     2021.82888         8.99406         6.65026
     2021.83162         5.63342         6.81264
     2021.83436         7.13178         6.86441
     2021.83709         9.70313         6.75616
     2021.83983         0.03249         6.78557
     2021.84257         1.20685         6.98089
     2021.84531        -1.78680         6.71262
     2021.84804         2.72656         6.68556
     2021.85078         5.93892         6.78557
     2021.85352         4.30827         6.65850
     2021.85626        11.75863         6.64673
     2021.85900         6.29299         6.49024
     2021.86173        -3.51066         6.75498
     2021.86447        -2.01030         6.76675
     2021.86721         0.69306         6.76086
     2021.86995        -1.30559         6.77616
     2021.87269         8.87677         6.78675
     2021.87542        -6.50187         6.58672
     2021.87816        -4.62552         6.50318
     2021.88090         1.87584         6.77851
     2021.88364        -2.53780         6.52672
     2021.88637        -6.17945         6.49024
     2021.88911        -2.82309         6.61614
     2021.89185        -8.88173         6.58084
     2021.89459        -3.40038         6.74204
     2021.89733        -0.46702         6.52201
     2021.90006        -3.70066         6.69027
     2021.90280        -5.77231         6.68085
     2021.90554        -3.46695         6.56908
     2021.90828         7.32441         6.62202
     2021.91102         6.76976         6.63497
     2021.91375         6.17312         6.71733
     2021.91649         0.03548         6.65732
     2021.91923         2.14683         6.91382
     2021.92197        -5.66581         6.93147
     2021.92470        -5.51145         6.74086
     2021.92744        -0.62310         6.68909
     2021.93018         1.45426         6.95148
     2021.93292         1.39262         6.75380
     2021.93566        10.79797         6.82205
     2021.93839         1.29933         6.74674
     2021.94113        -2.28131         6.89618
     2021.94387        13.52704         6.88912
     2021.94661         2.19340         6.67615
     2021.94935         5.10076         6.60908
     2021.95208         4.36811         6.75380
     2021.95482         4.77147         6.82911
     2021.95756         7.28583         6.75969
     2021.96030         2.68618         6.81970
     2021.96303        -0.17446         6.86558
     2021.96577         2.21790         6.76086
     2021.96851         4.05925         6.76086
     2021.97125         1.53161         6.83146
     2021.97399         8.24997         6.85617
     2021.97672         6.37932         6.83264
     2021.97946         5.18468         6.77263
     2021.98220         7.98004         6.79734
     2021.98494         7.48239         6.78322
     2021.98767         7.81275         6.83264
     2021.99041         8.04511         6.65967
     2021.99315         1.94846         6.61614
     2021.99589        10.02382         6.67615
     2021.99863        -2.12882         6.66203
     2022.00136         3.99553         6.66320
     2022.00410         0.61589         6.66438
     2022.00684        -7.82875         6.85735
     2022.00958        -9.39340         6.73498
     2022.01232       -12.48204         6.75498
     2022.01505         1.78632         6.77969
     2022.01779        -5.48433         6.75733
     2022.02053        -2.30597         6.73145
     2022.02327        -6.97461         7.15386
     2022.02600       -11.80826         6.89735
     2022.02874        -4.14890         6.80793
     2022.03148        -7.80254         6.85029
     2022.03422        -2.27019         6.83499
     2022.03696        -6.61083         6.67732
     2022.03969       -14.91147         6.69615
     2022.04243        -2.21112         6.92088
     2022.04517        -0.65776         6.69497
     2022.04791        -2.03540         6.60202
     2022.05065        -6.23105         6.59614
     2022.05338       -12.37469         6.75027
     2022.05612       -11.94433         6.68909
     2022.05886       -11.81898         6.77145
     2022.06160        -6.34862         6.73969
     2022.06433        -1.95326         6.67968
     2022.06707        -8.58591         6.71615
     2022.06981        -2.37855         6.64438
     2022.07255       -11.93119         6.62085
     2022.07529        -0.27784         6.63144
     2022.07802        -0.64048         6.73616
     2022.08076         0.29988         6.61967
     2022.08350        -3.98777         6.65144
     2022.08624        -3.40241         6.60320
     2022.08898         0.28695         6.64791
     2022.09171        -5.84670         6.54319
     2022.09445        -8.15134         6.74910
     2022.09719       -11.46198         6.64320
     2022.09993        -6.31963         6.72557
     2022.10266        -7.59427         7.01854
     2022.10540        -2.12491         6.73851
     2022.10814        -1.52556         6.68674
     2022.11088        -2.09120         6.56790
     2022.11362        -2.07284         6.59261
     2022.11635         1.49151         6.62555
     2022.11909        -0.89313         6.60084
     2022.12183         2.01223         6.62673
     2022.12457        -2.15842         6.71380
     2022.12731        -7.13106         6.64085
     2022.13004        -9.06370         6.58084
     2022.13278        -9.32335         6.69850
     2022.13552        -3.18799         6.60202
     2022.13826        -2.65063         6.62202
     2022.14099        -4.50128         6.64085
     2022.14373        -8.03492         6.64791
     2022.14647        -2.50556         6.63850
     2022.14921        -3.18221         6.96560
     2022.15195        -5.85685         6.92441
     2022.15468        -1.76650         6.67026
     2022.15742         0.92686         6.58790
     2022.16016         1.92522         6.72910
     2022.16290        -5.38343         6.71262
     2022.16564        -4.99707         6.74086
     2022.16837        -7.95971         6.61732
     2022.17111        -5.86036         6.67968
     2022.17385        -7.67200         6.66438
     2022.17659        -5.51164         6.64909
     2022.17932        -9.60029         6.66791
     2022.18206        -7.55793         6.58790
     2022.18480        -6.78557         6.61614
     2022.18754        -3.75222         6.62320
     2022.19028        -3.68486         6.66673
     2022.19301        -0.17050         6.75969
     2022.19575         3.51285         6.71733
     2022.19849        -3.87379         6.62438
     2022.20123        -0.37943         6.75027
     2022.20397         1.59692         6.59614
     2022.20670        -6.70172         6.78910
     2022.20944        -5.27536         6.65967
     2022.21218         2.15999         6.61614
     2022.21492        -2.55565         6.65144
     2022.21765       -14.05929         6.56672
     2022.22039        -6.33794         6.56908
     2022.22313        -6.29158         6.73851
     2022.22587        -3.71522         6.68556
     2022.22861        -4.03187         6.77381
     2022.23134        -1.79551         6.58672
     2022.23408        -1.70215         6.60202
     2022.23682        -0.78980         6.89853
     2022.23956        -4.54444         6.55143
     2022.24230         1.41292         6.76204
     2022.24503        -2.31973         6.67497
     2022.24777        -1.12637         6.60202
     2022.25051        -4.04301         6.64085
     2022.25325        -0.37166         6.55025
     2022.25598         2.00770         6.66203
     2022.25872        -5.34694         6.67497
     2022.26146        -6.65059         6.84911
     2022.26420        -0.11123         6.61614
     2022.26694        -2.89387         7.04678
     2022.26967        -2.19352         6.63497
     2022.27241        -0.24416         6.72792
     2022.27515        -2.20580         7.00913
     2022.27789         0.39355         6.82676
     2022.28062       -12.01509         6.65026
     2022.28336         0.27427         6.57849
     2022.28610        -0.11238         6.74321
     2022.28884        -7.12602         6.82087
     2022.29158        -9.40766         6.72674
     2022.29431       -10.88731         6.67379
     2022.29705        -8.33595         6.54554
     2022.29979        -2.02159         6.55378
     2022.30253        -0.50424         6.98795
     2022.30527        -9.31288         6.79616
     2022.30800       -10.31452         6.67615
     2022.31074        -6.80517         6.61849
     2022.31348        -5.78581         6.64320
     2022.31622        -7.11245         6.63379
     2022.31895       -18.78510         6.93500
     2022.32169        -8.55074         6.80322
     2022.32443         0.98162         6.57025
     2022.32717        -7.03903         6.56790
     2022.32991        -5.72967         6.57496
     2022.33264       -16.87631         6.89265
     2022.33538        -8.67596         6.90206
     2022.33812        -4.69960         7.03855
     2022.34086        -6.67424         6.68203
     2022.34360        -4.99989         6.73145
     2022.34633        -0.15853         6.64438
     2022.34907        -7.35617         6.75380
     2022.35181        -0.85682         6.69497
     2022.35455        -3.59246         6.58672
     2022.35728        -6.30310         6.80558
     2022.36002        -4.75675         6.63026
     2022.36276        -5.50039         6.69497
     2022.36550        -7.16803         7.02560
     2022.36824        -4.31868         6.74557
     2022.37097        -7.37532         6.60790
     2022.37371       -16.42796         6.56202
     2022.37645        -6.39561         6.78087
     2022.37919        -0.46325         6.79499
     2022.38193       -14.76989         6.76910
     2022.38466        -8.81654         7.09973
     2022.38740       -19.29918         6.64673
     2022.39014        -5.03282         6.62673
     2022.39288        -6.55147         6.62085
     2022.39561        -8.72311         6.79146
     2022.39835        -8.67375         6.99619
     2022.40109       -10.35640         7.01384
     2022.40383        -3.73704         6.62320
     2022.40657         0.49432         6.59849
     2022.40930       -11.08033         6.87500
     2022.41204        -3.09297         6.89735
     2022.41478        -6.67361         6.51142
     2022.41752        -5.50626         6.73263
     2022.42026        -0.32390         6.91382
     2022.42299        -1.90854         6.56790
     2022.42573        -5.37519         6.64438
     2022.42847        -7.79583         6.74321
     2022.43121        -3.22047         6.71145
     2022.43394         5.65488         6.62320
     2022.43668        -8.67376         6.62202
     2022.43942        -5.86940         6.82087
     2022.44216         1.49295         6.69968
     2022.44490         1.28731         6.73380
     2022.44763         1.17967         6.42082
     2022.45037        -5.16498         6.55260
     2022.45311        -6.41862         6.61026
     2022.45585        -6.60026         6.71733
     2022.45859       -17.56791         6.64673
     2022.46132        -4.66755         6.50554
     2022.46406        -9.95819         6.57849
     2022.46680        -8.09084         6.64438
     2022.46954        -6.75348         6.55025
     2022.47227       -18.59112         6.66203
     2022.47501         2.62623         6.51495
     2022.47775        -7.60841         6.83264
     2022.48049        -5.03905         6.70792
     2022.48323         2.23230         6.65614
     2022.48596         6.80066         6.46083
     2022.48870        -5.83998         6.83264
     2022.49144        -8.26263         6.48671
     2022.49418        -4.28127         6.61379
     2022.49692        -6.37191         6.50318
     2022.49965        -9.29656         6.59261
     2022.50239       -22.40820         6.73263
     2022.50513        -2.88584         6.90324
     2022.50787        11.95251         6.97501
     2022.51060        -6.17613         6.79028
     2022.51334        -8.95578         6.52672
     2022.51608       -13.72642         6.48789
     2022.51882       -13.34006         6.63497
     2022.52156        -7.78371         6.56202
     2022.52429         4.48965         6.52907
     2022.52703         6.85701         6.34434
     2022.52977         7.20936         6.51613
     2022.53251        -9.40928         6.60673
     2022.53525        -1.72792         6.72910
     2022.53798        -3.12957         6.54672
     2022.54072        -4.31121         6.46906
     2022.54346        -1.25585         6.38199
     2022.54620        -1.44350         6.38317
     2022.54893        -4.19214         6.52554
     2022.55167         1.21422         6.49730
     2022.55441         0.31157         6.37846
     2022.55715         7.25593         6.47259
     2022.55989        -3.81971         6.40905
     2022.56262        -5.11336         6.37140
     2022.56536       -14.14700         6.38670
     2022.56810        -0.60164         6.40905
     2022.57084         0.08171         6.39494
     2022.57357         8.88807         6.50907
     2022.57631        -1.97057         6.51024
     2022.57905        -2.69822         6.41729
     2022.58179         4.35214         6.45612
     2022.58453         7.44750         6.64085
     2022.58726        -4.05315         6.47612
     2022.59000         8.19421         6.72557
     2022.59274        -6.44943         6.37376
     2022.59548        -1.05308         6.31728
     2022.59822        -9.31272         6.41494
     2022.60095        -9.57936         6.37729
     2022.60369         1.05099         6.47142
     2022.60643        17.34735         6.79263
     2022.60917         3.34771         6.69733
     2022.61190         9.01906         6.55966
     2022.61464         5.97942         6.36081
     2022.61738         9.57178         6.32904
     2022.62012         1.11413         6.33257
     2022.62286         5.65449         6.60908
     2022.62559         4.78685         6.32198
     2022.62833         6.09020         6.38788
     2022.63107         8.89956         6.53848
     2022.63381         5.41092         6.35022
     2022.63655         7.25527         6.32551
     2022.63928         6.52063         6.40670
     2022.64202         6.71899         6.85029
     2022.64476        10.71334         6.85382
     2022.64750        13.27370         6.54084
     2022.65023         5.25206         6.77969
     2022.65297         9.13941         6.57025
     2022.65571         8.83077         6.52201
     2022.65845        15.73613         6.31728
     2022.66119        10.61048         6.41729
     2022.66392         6.75684         6.33375
     2022.66666         7.93020         6.33140
     2022.66940         9.58855         6.30198
     2022.67214         5.23491         6.29139
     2022.67488        13.08727         6.48553
     2022.67761        14.48262         6.34434
     2022.68035        13.00898         6.34669
     2022.68309        15.57434         6.49377
     2022.68583        16.00469         6.60673
     2022.68856        16.11205         6.48906
     2022.69130         9.00441         6.47142
     2022.69404         8.00876         6.51377
     2022.69678         8.73012         6.56555
     2022.69952         3.00948         6.42200
     2022.70225        14.83083         6.55966
     2022.70499         9.06619         6.61026
     2022.70773         4.15055         6.48906
     2022.71047         6.32390         6.53495
     2022.71321        17.02026         6.33493
     2022.71594        16.31962         6.31140
     2022.71868        13.29697         6.39258
     2022.72142        12.05033         6.39141
     2022.72416         8.96469         6.71498
     2022.72689         9.42304         6.43612
     2022.72963        12.57840         6.30081
     2022.73237        10.14176         6.30316
     2022.73511         6.10811         6.36434
     2022.73785         4.16547         6.42788
     2022.74332        17.80618         6.60084
     2022.74606        13.30954         6.40552
     2022.74880         6.08990         6.38435
