# ================= DQRFIT RESULTS ================
# INPUT FILE: series/FARW.rad
# OUTPUT: LDETRENDED
# FILTER FUNCTION: f(t)
# f(t)=+line(t)
# line(t)=+P 1+P 2*t
# heav(t)=(t<0?0:1)
# TOTAL OBSERVATIONS MTOT=  649
# INITIAL TIME INTERVAL= 2022.7488 - 2020.9692 =  1.7796
# TOTAL OBSERVATIONS AFTER PREFILTER M=  645
# TIME-SPAN= 2022.7488 - 2020.9692 =  1.7796
# OBSERVATIONS: USED M=   645 REJECTED MTOT-M=     4 %USED=   99.3837
# N=  2 PARAMETERS
# MAXSIG= 175.00000
# MAXRES=  94.59627
# SCALE FACTOR FOR LENGTHS: SCL=  10.00000
# SCALE FACTOR FOR SIGMAS: SCLSIG=   1.00000
# CHI^2=    662.966 DOF=   643 CHI^2/DOF=   1.03105
# RMS=     15.869 SDEV=     15.864 MEAN=    0.74074
#  P #       PARAMETER +-    SIGMA %error PARAMETER NAME
# P 1 =     13463.00945 +- 1751.748  13.01 YZERO                              
# P 2 =        -6.27982 +-    0.866  13.79 SLOPE                              
#       T            LDETRENDED       SIG_OBS
     2020.96919         2.99474        15.23618
     2020.97193       -13.36707        15.17526
     2020.97347       -78.18943        81.42243
     2020.97741       -14.36768        15.15292
     2020.98015       -18.28349        15.38443
     2020.98288        -0.59329        16.39374
     2020.98562         2.19490        15.73779
     2020.98836        -3.78891        16.03632
     2020.99110        -3.97071        15.07676
     2020.99384         8.47048        15.17932
     2020.99657         4.73667        15.06559
     2020.99931        21.35187        15.50120
     2021.00205       -21.78294        15.43723
     2021.00479         2.72725        15.42403
     2021.00752        14.81845        15.28492
     2021.01026         7.03164        15.02294
     2021.01300        -3.00217        15.12753
     2021.01574         2.64402        16.37953
     2021.01848        10.13922        15.26867
     2021.02121         4.41741        14.97827
     2021.02395        11.01760        14.93664
     2021.02669         0.45180        15.14276
     2021.02943         7.40299        15.26360
     2021.03216        -3.01382        14.91531
     2021.03490        37.16838        16.48919
     2021.03764        -3.50043        15.00568
     2021.04038        -5.17424        15.22704
     2021.04312        -4.44404        14.98030
     2021.04585         8.11715        15.07575
     2021.04859         3.64634        15.15495
     2021.05133         9.49954        15.21486
     2021.05407        22.71773        15.75201
     2021.05681        17.40992        15.50019
     2021.05954         9.23712        15.08082
     2021.06228        13.89231        15.36920
     2021.06502        21.03550        15.77942
     2021.06776        28.45570        15.52049
     2021.07049        19.44089        15.61087
     2021.07323        12.60108        15.49511
     2021.07597        13.44728        15.68093
     2021.07871        13.21447        15.61493
     2021.08145        18.80266        15.86269
     2021.08418        14.43686        15.50526
     2021.08692         5.52705        15.47175
     2021.08966        -1.32376        15.84339
     2021.09240        14.68443        15.51542
     2021.09514        20.78363        16.39984
     2021.09787        15.81682        15.85456
     2021.10061        28.35801        15.49612
     2021.10335         7.69421        15.31741
     2021.10609        -1.53560        15.63523
     2021.10882         4.68759        15.73982
     2021.11156         8.10579        15.57939
     2021.11430         1.04298        15.66367
     2021.11704         4.31117        15.59563
     2021.11978        -0.05363        15.33975
     2021.12251        -0.00544        15.68397
     2021.12799         5.25095        15.17322
     2021.13073         5.15614        15.14378
     2021.13347         8.40833        15.35701
     2021.13620        -2.55647        15.28695
     2021.13894         6.52572        15.49003
     2021.14168        12.64391        14.99248
     2021.14442         6.18811        14.98944
     2021.14715        -7.84970        15.06661
     2021.14989         3.14549        14.99451
     2021.15263        -1.72731        15.02193
     2021.15537        13.35388        15.10012
     2021.15811        17.08607        14.96811
     2021.16084         6.94726        14.83103
     2021.16358        -4.22754        14.77620
     2021.16632         1.71265        15.30421
     2021.16906         9.87384        15.83019
     2021.17180        16.53104        15.13058
     2021.17453         0.40123        14.98741
     2021.17727        -7.59758        14.88688
     2021.18001        -4.68438        15.27984
     2021.18275       -17.88519        15.47886
     2021.18548       -10.86000        15.17627
     2021.18822        -2.09480        15.23821
     2021.19096        -0.06061        15.09808
     2021.19370        -3.67742        16.19675
     2021.19644        -0.00222        14.61983
     2021.19917        16.42097        14.84423
     2021.20191       -13.49584        14.88079
     2021.20465        -7.21964        14.57312
     2021.20739       -10.95245        14.64724
     2021.21013       -13.62826        14.46346
     2021.21286         4.82594        15.19150
     2021.21560        -0.49487        14.09080
     2021.21834        -3.34468        14.32536
     2021.22108         2.85652        14.59241
     2021.22381        -6.04029        14.42182
     2021.22655       -14.72110        14.17813
     2021.22929        12.16710        14.12939
     2021.23203        14.12829        14.15985
     2021.23477         5.07848        14.27357
     2021.23750        -7.45333        13.82375
     2021.24024        -3.98313        14.77214
     2021.24298         1.39206        13.88467
     2021.24572         1.77725        13.70698
     2021.24846        -3.27155        14.20554
     2021.25119         1.34864        13.58817
     2021.25393       -17.62417        14.29896
     2021.25667        -0.57397        13.91209
     2021.25941        11.21922        14.22788
     2021.26214        -2.04259        13.75064
     2021.26488         7.51561        13.83796
     2021.26762         0.81380        18.03363
     2021.27036        -2.33201        18.30271
     2021.27310        11.72419        13.85421
     2021.27583        -7.76662        13.64605
     2021.27857         1.28157        13.94966
     2021.28131        -2.09423        13.69276
     2021.28405        -2.97504        13.61458
     2021.28679        -6.58085        13.63691
     2021.29226        -8.63446        13.87960
     2021.29500        -2.10427        13.92834
     2021.29774        -1.85007        13.98215
     2021.30047        -6.93388        14.37512
     2021.30321         2.35831        13.87655
     2021.30595        10.48850        14.45127
     2021.30869         3.56570        14.21976
     2021.31143         5.93189        14.26951
     2021.31416         0.75808        14.58226
     2021.31690       -11.92072        14.86149
     2021.32021         5.88605        18.93023
     2021.32295       -13.48175        19.70194
     2021.32569       -29.74356        20.22183
     2021.32842        -2.01237        19.39122
     2021.33116         2.51283        19.60243
     2021.33390        13.06902        19.18408
     2021.33664        -7.48079        19.90299
     2021.33937        -3.63059        19.30796
     2021.34211         2.95160        19.50190
     2021.34485       -13.83421        19.97610
     2021.34759       -15.77102        20.60159
     2021.35033        11.00218        20.56199
     2021.35306        -9.73863        19.59024
     2021.35580       -19.03944        19.70905
     2021.35854       -16.85824        19.84917
     2021.36128        -5.14605        20.69805
     2021.36402       -12.09386        20.33657
     2021.36653       -18.12710        19.36584
     2021.36892       -28.05005        15.95712
     2021.37166       -22.23386        16.02109
     2021.37440       -17.81466        16.10841
     2021.37770        -3.86289        22.08815
     2021.38044        -4.17370        21.10929
     2021.38318        -0.98850        34.30654
     2021.38592        32.92569        34.40706
     2021.38866        -7.49512        21.01080
     2021.39413        23.40727        22.17141
     2021.39687        -4.08654        21.12046
     2021.39938         0.84222        19.74763
     2021.40177        -3.09173        17.34416
     2021.40451         1.19346        20.57519
     2021.40782        -1.18276        20.79553
     2021.41056        -4.96857        20.92347
     2021.41330       -16.73038        20.67267
     2021.41603        -9.18518        19.72326
     2021.41877        -8.65699        20.10506
     2021.42151       -30.60780        20.36602
     2021.42425       -11.33061        20.12435
     2021.42699        15.37159        20.71430
     2021.42972        -2.12822        19.08863
     2021.43246       -13.16403        19.26735
     2021.43520       -19.22683        19.61461
     2021.43794        13.85036        19.69483
     2021.44068       -16.79145        19.21556
     2021.44341       -17.53525        18.93531
     2021.44615        -6.53406        19.77809
     2021.44889       -21.64687        18.93531
     2021.45163        -4.59467        19.13839
     2021.45436       -63.62848        19.73443
     2021.45710       -13.01029        18.43268
     2021.45984       -25.06309        18.26108
     2021.46258       -23.35990        18.83174
     2021.46528       -24.46892        18.76777
     2021.46805        -8.75351        18.28240
     2021.47081       -16.75223        20.35891
     2021.47353         6.68087        25.84007
     2021.47627       -33.80893        25.92740
     2021.47901       -34.57674        28.11662
     2021.48174       -12.58455        24.80944
     2021.48448       -48.53435        25.62075
     2021.48722       -25.84816        25.53850
     2021.48996       -41.27497        27.21493
     2021.49269       -25.97678        28.81928
     2021.49520       -31.68301        26.93468
     2021.49817       -49.93439        26.94078
     2021.50091       -12.76820        25.98122
     2021.50365        15.34800        25.44508
     2021.50638       -27.08184        25.72127
     2021.50912       -33.23665        26.01980
     2021.51185       -20.73645        24.77593
     2021.51459       -27.15829        26.20562
     2021.51733       -19.02107        28.60807
     2021.52007       -46.47287        27.02912
     2021.52281       -50.25068        25.55068
     2021.52554         9.95751        25.21154
     2021.52828       -29.59029        25.33339
     2021.53102       -21.39210        28.25776
     2021.53376       -15.08291        26.95194
     2021.53650        22.65029        36.17590
     2021.53923       -11.91252        35.00311
     2021.54197        16.19267        25.72026
     2021.54471       -10.06813        26.94078
     2021.54745       -23.51094        26.99358
     2021.55018        63.62325        29.37877
     2021.55293        35.21651        29.56966
     2021.55566        -3.24433        26.06651
     2021.55840         4.28286        26.02691
     2021.56114       -20.88094        26.44729
     2021.56388         2.06125        27.37638
     2021.56605       -11.72814        20.16192
     2021.56878         4.75305        22.19273
     2021.57152       -67.72875        22.30950
     2021.57426        19.09444        20.86560
     2021.57700        14.52163        21.52866
     2021.57974        11.82283        22.70247
     2021.58247       -10.52998        21.24637
     2021.58521        -8.01379        20.89504
     2021.58795        -4.28059        20.38937
     2021.59069       -23.49840        20.18629
     2021.59342        -1.79021        21.81602
     2021.59616       -49.81502        21.59770
     2021.59890        16.09618        20.84326
     2021.60164        -1.44063        21.51343
     2021.60438        -8.83144        20.69501
     2021.60711        29.01476        21.49210
     2021.60985       -13.51905        21.32659
     2021.61259       -41.06786        23.20814
     2021.61533       -18.92266        21.25856
     2021.61807        22.18253        20.93972
     2021.62080        -2.31828        22.16938
     2021.62354         9.71592        21.07985
     2021.62628         3.48311        21.57232
     2021.62902        33.01630        22.24249
     2021.63175       -22.44950        20.53965
     2021.63449       -25.48331        20.81381
     2021.63723        16.35188        21.69518
     2021.63997         5.46008        21.10117
     2021.64271        44.89527        21.04634
     2021.64544        -4.35154        20.70008
     2021.64818        12.42666        20.34875
     2021.65092         6.26985        21.61192
     2021.65366        21.49204        21.57537
     2021.65639        11.69124        20.98846
     2021.65913         8.91443        20.55387
     2021.66187        21.46662        20.51528
     2021.66461       -13.28719        21.73783
     2021.66735         3.68401        21.34081
     2021.67008         6.85620        20.64221
     2021.67282         3.90939        20.63611
     2021.67556        -5.22341        20.57113
     2021.67830        37.35578        25.88475
     2021.68104        24.28497        22.26178
     2021.68377        13.63117        21.33167
     2021.68651        37.74536        23.44778
     2021.68925        27.80055        24.26213
     2021.69199         1.32875        21.81297
     2021.69472         0.01794        22.49329
     2021.69746        12.66413        21.86171
     2021.70020         2.79633        23.15635
     2021.70294         8.59652        22.48415
     2021.70568       -11.91429        23.32288
     2021.70841        12.67791        21.46672
     2021.71115        16.86110        21.82516
     2021.71389        29.73429        23.14011
     2021.71663        17.99449        22.28920
     2021.71937        21.24768        21.82109
     2021.72210        -2.27513        22.72582
     2021.72484        20.43407        21.40478
     2021.72758        27.22626        22.35926
     2021.73032        13.05745        21.57943
     2021.73305        23.00165        22.25772
     2021.73579        -1.58816        21.88506
     2021.73855        69.71915        22.84767
     2021.74127        17.90722        22.40800
     2021.74401        -2.66958        22.01301
     2021.74674         9.64961        21.39158
     2021.74948       -22.72020        22.99795
     2021.75222        -7.11800        21.30933
     2021.75496        22.98519        21.69924
     2021.75706        32.21938        32.22901
     2021.76043         1.88558        21.77743
     2021.76317        19.97677        21.57638
     2021.76591        12.03296        21.65152
     2021.76865        40.22216        21.27480
     2021.77138        20.22735        21.58044
     2021.77412        33.48854        21.76728
     2021.77686         8.40074        21.50733
     2021.77960        16.83793        21.71346
     2021.78234        -1.96688        21.12351
     2021.78507        19.81032        21.60075
     2021.78781         6.68051        21.82516
     2021.79055        -5.32330        21.88506
     2021.79329        14.08090        22.12368
     2021.79603        16.03609        21.94193
     2021.79876         8.32128        20.76609
     2021.80150         7.61548        21.30222
     2021.80424        13.17067        21.72565
     2021.80698         1.18186        21.63020
     2021.80971        19.03905        21.71752
     2021.81245         6.60025        21.37025
     2021.81519        -9.67056        22.98373
     2021.81793         7.75463        21.23622
     2021.82067        17.83283        21.12554
     2021.82340        21.98002        23.16245
     2021.82614        36.25621        22.50649
     2021.82888       -14.69559        21.80079
     2021.83162        -9.36840        21.04329
     2021.83436         5.61379        21.37736
     2021.83709        37.67099        22.66591
     2021.83983       -15.11182        21.10117
     2021.84257         5.32537        20.79046
     2021.84531       -30.97143        22.16125
     2021.84804         5.91776        21.40173
     2021.85078        20.62295        21.37736
     2021.85352        11.12515        21.89116
     2021.85626       -18.49766        21.24942
     2021.85900        -0.75647        20.98846
     2021.86447       -28.25508        22.82533
     2021.86721       -14.80289        21.30831
     2021.86995        29.92431        22.08408
     2021.87269        18.42650        23.33405
     2021.87542        13.22969        24.85716
     2021.87816        -5.05211        21.27582
     2021.88090        -4.11992        21.62309
     2021.88364        94.59627        24.17481
     2021.88637         7.75046        21.26668
     2021.88911        -3.68534        21.75509
     2021.89185        33.27085        22.05667
     2021.89459         2.28904        21.46773
     2021.89733        22.55924        21.46570
     2021.90006         2.77543        21.67284
     2021.90280       -22.13138        21.82922
     2021.90554         8.57482        21.23520
     2021.90828        12.80701        22.39480
     2021.91102        -8.48880        23.78083
     2021.91375        14.52740        22.08510
     2021.91649         0.93259        21.51850
     2021.91923         0.20478        26.53258
     2021.92197       -12.70402        26.62905
     2021.92470        -1.54983        27.44239
     2021.92744        -0.37464        28.31462
     2021.93018        -5.02844        26.50821
     2021.93292         4.49275        27.34085
     2021.93566         7.19294        26.15993
     2021.93839       -37.41386        56.06264
     2021.94113        -1.63467        57.64262
     2021.94387        35.18352        28.48318
     2021.94661        15.77572        26.25639
     2021.94935        12.13391        26.45846
     2021.95208        30.57610        27.17330
     2021.95482         5.79529        27.32561
     2021.95756        23.52749        27.29515
     2021.96030        35.12368        27.30531
     2021.96303       -16.32513        26.86157
     2021.96577         9.78307        25.97715
     2021.96851       -11.12374        26.81080
     2021.97125       -44.71755        28.20293
     2021.97399         1.88465        27.58150
     2021.97672        23.62084        27.96431
     2021.97946        25.22903        26.08073
     2021.98220        -1.28677        26.51126
     2021.98494        45.81442        27.05653
     2021.98767        15.31361        26.66255
     2021.99041        32.55481        26.84837
     2021.99315         3.30900        25.99137
     2021.99589       -15.91081        35.22954
     2021.99863        16.60239        26.44221
     2022.00136        10.31458        27.00271
     2022.00410        10.60677        26.76511
     2022.00684        -9.17003        26.94484
     2022.00958       -15.62184        26.90727
     2022.01232       -13.68365        34.28420
     2022.01505        -0.56545        28.41210
     2022.01779        21.31874        28.69134
     2022.02345       -46.12471        36.72117
     2022.02600        -0.26368        29.34018
     2022.02874        -1.75249        30.09564
     2022.03148       -16.71030        30.48251
     2022.03422        -4.89910        30.19312
     2022.03696       -11.20591        27.98360
     2022.03969       -20.17472        28.60503
     2022.04243        -4.01752        30.29060
     2022.04517         6.04367        30.68560
     2022.04791       -11.41114        30.29365
     2022.05065         3.19806        29.13101
     2022.05338       -19.71475        28.58573
     2022.05612       -18.03256        30.68661
     2022.05886       -13.07236        31.92541
     2022.06160        -6.96717        30.03980
     2022.06433         3.76902        29.24778
     2022.06707       -14.76778        27.42614
     2022.06981       -18.39559        27.31749
     2022.07255         6.87660        20.47060
     2022.07529         6.54280        20.57113
     2022.07802        -0.04101        19.56994
     2022.08076         4.81418        20.05733
     2022.08350         7.76338        19.74154
     2022.08624         4.37357        19.24501
     2022.08898        25.04276        19.64711
     2022.09171         6.32496        19.57806
     2022.09445         2.03015        20.34469
     2022.09719        -5.36966        23.26196
     2022.09993        -0.36647        20.77015
     2022.10266         9.98773        25.21560
     2022.10540         5.94892        19.19830
     2022.10814         9.11411        19.05919
     2022.11088        17.65731        19.41153
     2022.11362        -2.21050        19.10183
     2022.11635        24.70269        21.18443
     2022.11909         3.92289        20.01976
     2022.12183        15.56808        19.64914
     2022.12457        17.60227        20.36703
     2022.12731        21.90347        19.95782
     2022.13004        19.56766        20.70212
     2022.13278        23.43285        20.37820
     2022.13552        13.95905        22.15618
     2022.13826        10.35924        19.78216
     2022.14099        -0.41657        20.71938
     2022.14373         0.87763        19.78419
     2022.14647        20.39882        19.42169
     2022.14921         7.45101        21.09609
     2022.15195         5.54921         8.74773
     2022.15468         6.39440         5.65175
     2022.15742         9.39859         5.61520
     2022.16016         0.61479         5.59185
     2022.16290         6.32798         5.59591
     2022.16564        -3.72983         5.79797
     2022.16837        -0.04364         5.57255
     2022.17111         1.52356         5.55529
     2022.17385         4.87775         5.51874
     2022.17659         2.67994         5.61926
     2022.17932         0.54714         5.59185
     2022.18206         2.07233         5.60302
     2022.18480        -1.75948         5.52787
     2022.18754         3.07472         5.65886
     2022.19028        -1.25009         5.58575
     2022.19301         3.88110         5.51366
     2022.19575         8.37230         5.56138
     2022.19849         4.41449         5.61215
     2022.20123         3.25468         5.72588
     2022.20397         8.86588         5.53092
     2022.20670        -0.57493         5.66191
     2022.20947         7.74444         5.77868
     2022.21218         5.50746         5.57357
     2022.21492         1.99565         5.55935
     2022.21765        -0.27016         5.55021
     2022.22039        -4.50596         5.55529
     2022.22313         1.60523         5.53397
     2022.22587        -0.94358         5.80813
     2022.22861         0.22162         5.63246
     2022.23133         4.00775         5.57865
     2022.23409         3.28603         5.63652
     2022.23682         4.16220         5.78274
     2022.23956         1.43539         5.60708
     2022.24228         2.12146         6.03964
     2022.24451         5.92652         8.93457
     2022.24774         7.55876         7.25813
     2022.25051        -1.73881         8.20246
     2022.25325         1.94435         7.01443
     2022.25598        10.79655         5.73705
     2022.25872         7.22874         5.62535
     2022.26146        -5.16407         5.61317
     2022.26420        -0.22187         5.58778
     2022.26694        -8.28368         5.80711
     2022.26967         2.99351         5.76243
     2022.27241         7.96471         5.66089
     2022.27515         8.94390         5.74111
     2022.27789         7.63809         5.65886
     2022.28062        -0.56771         5.63754
     2022.28336         3.72348         5.50351
     2022.28610         1.12767         5.59692
     2022.28884        -1.12113         5.78680
     2022.29158        -0.90694         5.60606
     2022.29431         0.22125         5.57255
     2022.29705        -0.65755         5.71674
     2022.29979         5.27964         5.82945
     2022.30253        -2.35717         5.74517
     2022.30527        -0.27197         5.66292
     2022.30800         0.84122         5.65480
     2022.31074         0.26841         5.73603
     2022.31348        -6.38840         5.58271
     2022.31622        -8.89720         5.55224
     2022.31895       -15.59501         5.84164
     2022.32169         3.25518         5.91271
     2022.32443         0.25438         5.68526
     2022.32717        -5.16243         5.91373
     2022.32991        -1.93124         5.71471
     2022.33265        -8.44201         5.82640
     2022.33538        -4.47185         6.24475
     2022.33812        -2.78666         6.00715
     2022.34086        -5.34246         5.76345
     2022.34360        -2.29127         5.84164
     2022.34633         5.04492         5.63043
     2022.34907        -0.21988         5.57763
     2022.35181         2.97531         5.59997
     2022.35455         0.19950         5.61622
     2022.35728        -3.59330         5.64465
     2022.36002        -1.88711         5.64972
     2022.36276        -7.67392         5.72791
     2022.36550        -5.88372         5.63551
     2022.36818        -0.56389         5.96348
     2022.37105        -5.85783         5.95638
     2022.37371        -5.32314         5.58981
     2022.37645        -5.98495         5.82336
     2022.37919        -0.61676         5.88225
     2022.38193        -4.92356         5.76142
     2022.38466        -6.79237         5.74822
     2022.38740       -14.88718         5.65379
     2022.39014        -2.02799         5.71776
     2022.39288        -7.41379         5.76650
     2022.39561        -9.82060         5.76040
     2022.39835        -0.91941         5.95435
     2022.40109        -0.09021         6.16250
     2022.40383        -0.33502         5.69034
     2022.40657        -0.27883         5.52787
     2022.40930        -8.69763         5.63652
     2022.41204        -6.17244         5.76650
     2022.41478        -5.95425         5.57966
     2022.41752        -5.34005         5.92795
     2022.42026        -8.80786         6.09853
     2022.42299        -1.20767         5.91576
     2022.42573        -8.05947         5.63855
     2022.42847        -4.51328         5.64566
     2022.43121        -5.60409         5.67409
     2022.43394         0.27111         5.98582
     2022.43668        -8.05670         5.57865
     2022.43942        -5.12151         5.65988
     2022.44216        -2.40631         6.00816
     2022.44490         0.68288         5.75634
     2022.44763        -1.97793         5.49335
     2022.45037        -1.34173         5.49437
     2022.45311        -8.47054         5.57966
     2022.45585       -11.08135         5.59895
     2022.45859       -12.52116         5.78071
     2022.46132        -5.20096         5.63043
     2022.46406        -4.32177         5.64566
     2022.46680       -10.08558         5.86499
     2022.46954        -7.32338         5.69948
     2022.47227       -14.89719         5.62738
     2022.47501         2.86700         5.79087
     2022.47775       -10.14080         5.95942
     2022.48049        -9.35861         5.61723
     2022.48323        -3.72942         5.56849
     2022.48596        -0.02122         5.65074
     2022.48870        -9.75503         6.03253
     2022.49144        -6.88284         5.64363
     2022.49418        -6.13364         5.87007
     2022.49692       -12.00445         5.54006
     2022.49965        -6.79626         5.60606
     2022.50239       -17.05806         5.83047
     2022.50513        -4.71687         5.93911
     2022.50787        11.60732         5.89951
     2022.51060        -2.74548         5.73400
     2022.51334        -7.49429         5.90662
     2022.51608       -14.18810         5.72080
     2022.51882       -12.06890         5.64972
     2022.52156        -8.18071         5.61418
     2022.52429        -5.72352         5.51163
     2022.52703        -2.64032         5.51467
     2022.52977         0.02587         5.73299
     2022.53251        -6.90094         5.84773
     2022.53525        -4.58975         5.80407
     2022.53798        -6.33955         5.87007
     2022.54072        -8.68836         5.62434
     2022.54347        -3.37311         5.57357
     2022.54620        -4.74697         5.56748
     2022.54893        -2.67678         5.82742
     2022.55167        -1.90359         5.79391
     2022.55441        -4.34139         5.87616
     2022.55715        -1.06820         5.64465
     2022.55989       -13.31401         5.72994
     2022.56262        -8.04481         5.68425
     2022.56536       -15.66662         5.64465
     2022.56810        -7.13643         5.82640
     2022.57084       -11.73623         5.76446
     2022.57357        -5.07904         5.88834
     2022.57631        -5.85685         5.70760
     2022.57905        -5.00965         5.66089
     2022.58179         2.79454         5.61114
     2022.58453         4.35673         5.91475
     2022.58726        -8.81007         5.71877
     2022.59000         2.64512         6.02949
     2022.59274        -6.86169         5.76751
     2022.59548         0.14351         5.71776
     2022.59820       -10.40039         5.59286
     2022.60095       -16.75011         5.57154
     2022.60369        -6.72292         5.61825
     2022.60643        -1.14972         5.63246
     2022.60917       -11.90353         6.02949
     2022.61190         2.31466         6.19500
     2022.61464         3.60286         5.73806
     2022.61738         3.89105         5.52991
     2022.62012        -0.48376         5.53194
     2022.62286        -1.81156         5.54514
     2022.62559        -0.26937         5.63855
     2022.62833        -1.44618         5.73705
     2022.63107        -0.57898         5.58575
     2022.63381         7.55121         5.80508
     2022.63655        -3.13960         5.65175
     2022.63928         6.35860         5.54818
     2022.64202        -7.08521         6.05386
     2022.64476         0.75498         6.07112
     2022.64750         1.19718         6.09549
     2022.65023         6.40737         5.92287
     2022.65297        10.28056         5.86601
     2022.65571        11.61576         5.67409
     2022.65843         8.07683         5.65683
     2022.66119         5.58814         5.65582
     2022.66392         3.33734         5.60098
     2022.66666         7.16353         5.94825
     2022.66940         7.69272         5.53092
     2022.67214         6.58792         5.77970
     2022.67488         7.85411         5.54818
     2022.67761        11.07530         5.60911
     2022.68035         8.76349         5.57763
     2022.68309         6.14469         5.64059
     2022.68583         8.72788         5.89951
     2022.68856        10.41007         5.69846
     2022.69130         9.74827         5.57052
     2022.69404        11.87946         5.57357
     2022.69678        12.78165         5.65886
     2022.69950         2.22176         5.76954
     2022.70225         3.22404         6.11376
     2022.70499         5.62723         5.92287
     2022.70773        11.67843         5.76446
     2022.71047        10.88762         5.68729
     2022.71321        18.41381         5.62535
     2022.71868        10.53220         5.48523
     2022.72142        12.33239         5.59591
     2022.72416        11.66159         5.65379
     2022.72689        15.84478         5.70557
     2022.72963        11.50697         5.79087
     2022.73238        12.80826         5.54920
     2022.73511        12.58736         5.53904
     2022.73785        11.10855         5.61317
     2022.74058        16.48975         5.82336
     2022.74332        13.02894         5.98887
     2022.74606        13.79013         5.70252
     2022.74880         9.56732         5.75431
