# ================= DQRFIT RESULTS ================
# INPUT FILE: series/FND1.rad
# OUTPUT: LDETRENDED
# FILTER FUNCTION: f(t)
# f(t)=+line(t)
# line(t)=+P 1+P 2*t
# heav(t)=(t<0?0:1)
# TOTAL OBSERVATIONS MTOT=  218
# INITIAL TIME INTERVAL= 2010.9979 - 2010.3463 =  0.6516
# TOTAL OBSERVATIONS AFTER PREFILTER M=  217
# TIME-SPAN= 2010.9979 - 2010.3463 =  0.6516
# OBSERVATIONS: USED M=   217 REJECTED MTOT-M=     1 %USED=   99.5413
# N=  2 PARAMETERS
# MAXSIG= 175.00000
# MAXRES=  45.96315
# SCALE FACTOR FOR LENGTHS: SCL=  10.00000
# SCALE FACTOR FOR SIGMAS: SCLSIG=   1.00000
# CHI^2=    281.904 DOF=   215 CHI^2/DOF=   1.31118
# RMS=     10.476 SDEV=     10.493 MEAN=   -0.39683
#  P #       PARAMETER +-    SIGMA %error PARAMETER NAME
# P 1 =    -19148.46812 +- 6149.079  32.11 YZERO                              
# P 2 =         9.55161 +-    3.058  32.02 SLOPE                              
#       T            LDETRENDED       SIG_OBS
     2010.34634         7.74140        17.05366
     2010.34908        -0.96863         7.70023
     2010.35181         4.58992         7.93641
     2010.35455         8.38731         8.61444
     2010.35729        -9.15480        18.86502
     2010.36003        -3.54273         8.02722
     2010.36277         4.81717         7.63558
     2010.36550        -1.20900         8.24557
     2010.36824         7.59999         7.93271
     2010.37098         5.50729         7.63246
     2010.37372         1.36663         7.56829
     2010.37645         2.12742         7.82647
     2010.37919        -4.36374         7.92387
     2010.38193       -12.81019         7.92865
     2010.38467        -2.97653         7.85530
     2010.38741        -1.55142         7.77756
     2010.39014       -11.25397         7.78868
     2010.39288       -12.75181         8.04735
     2010.39562        -8.03337         8.16141
     2010.39836        -9.96823         7.60279
     2010.40110        -5.85047         7.74697
     2010.40383        -1.91951         7.77887
     2010.40657       -22.51372         7.88663
     2010.40931       -11.85769         7.71732
     2010.41205       -16.09601         7.75828
     2010.41478         4.09528         7.80236
     2010.41752        -4.48415        16.48187
     2010.42026         9.88061        27.84968
     2010.42300       -14.64452        30.35951
     2010.42574       -17.14909        27.80149
     2010.42847        -7.98981        17.59603
     2010.43121       -24.90587        17.42075
     2010.43395       -13.11730        16.50267
     2010.43669       -28.91010        20.36685
     2010.43943       -29.93660        27.86487
     2010.44216       -26.38877        28.44994
     2010.44490        -4.31450        28.68372
     2010.44764        11.73401        22.73999
     2010.45038       -27.30543        21.40396
     2010.45311         1.88306        12.68256
     2010.45585       -13.27486         9.10304
     2010.45859         1.41237        14.81327
     2010.46133       -15.48744        23.28527
     2010.46407         2.66344        27.77437
     2010.46680        -4.86940        21.64446
     2010.46954         6.88559        26.93760
     2010.47228        15.10436        26.10001
     2010.47502        -8.78119        19.49292
     2010.47775         8.55390        27.63409
     2010.48049        -0.54049        19.37508
     2010.48323         2.16355         7.72694
     2010.48597         0.12616         7.82968
     2010.48871        -4.18129         9.03393
     2010.49144         7.21344        88.52356
     2010.49418        -5.27456         8.51659
     2010.49692        -3.55097         7.57971
     2010.49966        -8.83134         7.79099
     2010.50240        -5.34951         7.75353
     2010.50513        -2.97391         7.72652
     2010.50787        -1.23447         7.56546
     2010.51061        -0.06869         7.74749
     2010.51335         5.43845         7.74333
     2010.51608         0.28480         7.52208
     2010.51882         1.73242         7.48064
     2010.52156        -5.11469         7.49475
     2010.52430         2.43399         7.51367
     2010.52704       -11.29485         7.85234
     2010.52977        -0.09810         7.55000
     2010.53251        -0.64001         7.50417
     2010.53525         2.99973         7.50239
     2010.53799        -3.58997         7.51603
     2010.54073         3.75071         7.71866
     2010.54346        -1.05650         8.34038
     2010.54620        -0.15891         7.58279
     2010.54894         8.67159         8.29174
     2010.55168         3.68245         7.64636
     2010.55441         7.89519         7.57703
     2010.55715        -1.44046         7.55391
     2010.55989        -4.02315         7.57550
     2010.56263         9.98233         7.66418
     2010.56537         1.72760         7.87282
     2010.56810        -0.98295         7.55722
     2010.57084         2.32429         7.62721
     2010.57358        -4.92094         7.85836
     2010.57632         3.48250         7.76761
     2010.57906        -3.76648         7.65525
     2010.58179         5.65856         7.70773
     2010.58453        -7.58610         7.71810
     2010.58727         3.19775         7.75910
     2010.59001         7.02696         8.20033
     2010.59274         6.22009         7.71818
     2010.59548         8.63856         7.62638
     2010.59822         4.06490         7.69841
     2010.60096        -0.01378         7.59351
     2010.60370         2.87634         7.58567
     2010.60643         3.08621         7.56150
     2010.60917         7.39576         7.56476
     2010.61191         3.44675         7.56733
     2010.61465         4.06130         7.68347
     2010.61739         8.29708         7.60262
     2010.62012         9.37478         7.81413
     2010.62286         5.31352         7.55313
     2010.62560         0.04399         7.62099
     2010.62834         1.48782         7.81466
     2010.63107         7.90596         7.79385
     2010.63381         9.87035         7.62831
     2010.63655        13.18182         7.61111
     2010.63929         0.98829         7.63422
     2010.64203         5.20621         8.37361
     2010.64476         0.91431         7.73963
     2010.64750         8.34873         7.63507
     2010.65024        11.71592         7.65146
     2010.65298        13.47312         7.93087
     2010.65572         6.24712         7.62487
     2010.65845        13.58614         7.74237
     2010.66119         3.85865         7.62505
     2010.66393         8.93928         7.55865
     2010.66667         4.20440        28.31029
     2010.66940        24.05341        22.58456
     2010.67214        16.23813        16.96182
     2010.67488        14.75143        17.93528
     2010.67762         7.60525        28.75323
     2010.68036        -3.10318        29.08171
     2010.68309         8.96812        29.24312
     2010.68583       -37.51620        22.65405
     2010.68857       -24.31777        27.53446
     2010.69131       -15.42725        18.83780
     2010.69405        12.04671        18.05324
     2010.69678         7.86918        19.25985
     2010.69952        45.96315        23.71650
     2010.70226        10.08230        28.91288
     2010.70500         3.83553        15.73486
     2010.70773         5.71375         8.39258
     2010.71321         6.97749         7.67719
     2010.71595         1.90992         7.69221
     2010.71869        -5.44956        11.75059
     2010.72142         6.33414         8.31020
     2010.72416         0.36668         7.86367
     2010.72690        -4.61481         7.71753
     2010.72964         8.24841         7.66836
     2010.73238        -0.24345         7.52620
     2010.73511         2.03937         7.69016
     2010.73785        -8.05362         7.83145
     2010.74059        -2.72032         8.12422
     2010.74333        12.41435         9.45034
     2010.77892         3.26033        22.22558
     2010.78166         6.77907         7.82680
     2010.78439        14.92327         8.17789
     2010.78713        -2.49993         8.00439
     2010.78987        11.41297         7.89064
     2010.79261        13.82132         7.82295
     2010.79535         4.84604         7.88098
     2010.79808         5.35278         8.09356
     2010.80082         1.09192         7.92383
     2010.80356         2.51942         7.80824
     2010.80630        -1.95367         7.70154
     2010.80903        15.67193         7.75044
     2010.81177        14.70560         8.05121
     2010.81451         4.39255         7.77165
     2010.81725        -2.26645         7.78396
     2010.81999         4.80677         7.74430
     2010.82272        11.28764         7.74440
     2010.82546         2.34978         7.73903
     2010.82820         3.57086         7.79899
     2010.83094        -1.89387         8.17875
     2010.83368       -10.82855         8.11014
     2010.83641        -9.84879         8.02534
     2010.83915        -3.78928         8.45450
     2010.84189         1.07242         7.77440
     2010.84463        11.47634         7.85792
     2010.84736         3.69092         7.82124
     2010.85010         2.79291         7.83842
     2010.85284       -10.37380         7.83422
     2010.85558        -1.38926         8.25710
     2010.85832        -6.71467         7.77392
     2010.86105       -15.69996         7.69271
     2010.86379        -7.52675         7.75386
     2010.86653        -8.69375         8.05011
     2010.86927        -0.91496         7.71584
     2010.87201       -22.11475         8.00873
     2010.87474       -12.36645         7.95149
     2010.87748        -4.61263         7.88813
     2010.88296        -4.21325         7.84653
     2010.88569        -8.44714        15.33213
     2010.88843         4.65851         8.09283
     2010.89117        -9.25537        31.50015
     2010.91581         5.68892        37.03309
     2010.91855       -13.29704         7.66577
     2010.92129       -12.10244         7.76474
     2010.92402         6.88828         7.93163
     2010.92676        -2.08733         7.90126
     2010.92950         0.96085         7.70440
     2010.93224        -6.55444         7.73272
     2010.93498        -2.35379         7.82650
     2010.93771        -9.96152         7.90958
     2010.94045       -11.97340         8.02228
     2010.94319        -7.35603         7.73109
     2010.94593       -17.11048         7.63986
     2010.94867       -21.75839         7.70354
     2010.95140        -7.93295         8.01024
     2010.95414       -10.23269         7.86713
     2010.95688       -10.01701         7.83860
     2010.95962        -3.16763         7.82590
     2010.96235         7.78834         8.60477
     2010.96509        -2.34040         8.73141
     2010.96783         2.04976         7.85882
     2010.97057         3.47077         7.66467
     2010.97331        -7.06952         7.53647
     2010.97604        -5.72607         7.81642
     2010.97878        -5.39312         7.65391
     2010.98152       -11.24731         7.70561
     2010.98426       -11.39249         7.80443
     2010.98700         5.99911         7.83870
     2010.98973        32.18008         8.48890
     2010.99247        -8.23753         7.83897
     2010.99521        19.60870         7.97880
     2010.99795        21.69651         7.63557
