# ================= DQRFIT RESULTS ================
# INPUT FILE: series/FRID.rad
# OUTPUT: LDETRENDED
# FILTER FUNCTION: f(t)
# f(t)=+line(t)+annual(t)+jumps(t)
# line(t)=+P 1+P 2*t
# annual(t)=+P 3*sin(2*pi*t+P 4)
# jumps(t)=+P 5*heav(t-2012.3313  )
# heav(t)=(t<0?0:1)
# TOTAL OBSERVATIONS MTOT= 2274
# INITIAL TIME INTERVAL= 2016.1530 - 2007.0281 =  9.1250
# TOTAL OBSERVATIONS AFTER PREFILTER M= 2243
# TIME-SPAN= 2016.1478 - 2007.0281 =  9.1197
# OBSERVATIONS: USED M=  2243 REJECTED MTOT-M=    31 %USED=   98.6368
# N=  5 PARAMETERS
# MAXSIG= 175.00000
# MAXRES=  38.33932
# SCALE FACTOR FOR LENGTHS: SCL=  10.00000
# SCALE FACTOR FOR SIGMAS: SCLSIG=   1.00000
# CHI^2=   3490.382 DOF=  2238 CHI^2/DOF=   1.55960
# RMS=     13.758 SDEV=     13.365 MEAN=   -3.27759
#  P #       PARAMETER +-    SIGMA %error PARAMETER NAME
# P 1 =    -36249.25363 +-  348.888   0.96 YZERO                              
# P 2 =         7.38096 +-    0.174   2.35 SLOPE                              
# P 3 =         7.96703 +-    0.193   2.42 ANNUAL AMPLITUDE                   
# P 4 =        -0.81347 +-    0.027   3.28 ANNUAL PHASE                       
# P 5 =     21377.70296 +-    1.149   0.01 OFFSET 2012.3313                   
#       T            LDETRENDED       SIG_OBS
     2007.02806        12.92411        42.01944
     2007.03080         5.25890        31.58643
     2007.03353         0.81070        25.39919
     2007.03627         5.39349        30.30673
     2007.03901         5.12528        29.52137
     2007.04175         6.94407        31.74179
     2007.04449         6.55986        30.73171
     2007.04722        12.50366        37.90242
     2007.04996        16.74945        44.54032
     2007.05270        14.17424        39.78299
     2007.05544        12.54503        36.32192
     2007.05817         9.62883        33.59450
     2007.06091        14.15062        37.72880
     2007.06365        13.01741        35.67824
     2007.06639         8.46220        30.51916
     2007.06913         8.38199        28.99895
     2007.07186        10.31879        30.89475
     2007.07460         7.20958        27.03527
     2007.07734         3.90337        22.83484
     2007.08008         5.92716        24.83813
     2007.08282         6.61195        25.06854
     2007.18138        19.46547        26.99267
     2007.18412         2.65026         6.42971
     2007.18685         9.30905        14.48324
     2007.18959        16.33584        22.34686
     2007.19233         7.13963        11.40653
     2007.19507         3.63943         6.06945
     2007.19780         2.04522         3.87147
     2007.20054         0.79801         2.08479
     2007.20328         8.43580        10.93926
     2007.20602        14.54559        17.62803
     2007.20876        14.03139        17.01087
     2007.21149         3.17618         3.61571
     2007.21423        13.52197        15.55003
     2007.21697         8.12376         8.74532
     2007.21971        10.38855        11.00157
     2007.22245         7.71535         7.71588
     2007.22518        18.01814        19.94643
     2007.22792         9.22693         8.99487
     2007.23066         5.31272         3.99452
     2007.23340         6.22451         4.84140
     2007.23613         3.71331         1.60640
     2007.23887         0.12110         2.91044
     2007.24161         2.35389         0.54622
     2007.24435        12.04768        10.61191
     2007.24709         8.92747         6.66351
     2007.24982         5.57127         2.47530
     2007.25256         2.05806         1.87869
     2007.25530         1.93185         2.27195
     2007.25804         7.71864         4.37273
     2007.26078         6.81943         3.02264
     2007.26351         9.48723         5.95639
     2007.26625        15.75902        13.34972
     2007.26899        14.90181        12.01103
     2007.27173         7.14360         2.63864
     2007.27446        15.56439        12.14326
     2007.27720        18.26019        15.32625
     2007.27994        12.66398         8.42738
     2007.28268        15.12077        11.39817
     2007.28542        11.48756         6.79671
     2007.31553        10.76528         4.42690
     2007.31827        16.70507        11.61346
     2007.32101        12.75686         6.72746
     2007.32375        11.82065         5.43910
     2007.32648         7.39844         0.12515
     2007.32922        10.75124         3.98697
     2007.33196         6.98803         0.50600
     2007.33470         3.36082         4.92667
     2007.33744         8.22061         0.86066
     2007.34017         7.47040         0.07732
     2007.34291         0.59220         8.32026
     2007.34565         6.39499         1.41586
     2007.34839        13.49778         7.03696
     2007.35112         4.44057         3.81902
     2007.35386         8.37836         0.93329
     2007.35660         3.58216         5.09494
     2007.35934         7.16595         0.56275
     2007.36208         4.48474         3.80472
     2007.36481         6.36553         1.52106
     2007.36755        10.20332         3.13869
     2007.37029         7.28812         0.34576
     2007.37303         3.47391         5.03290
     2007.37577        -0.33530         9.70481
     2007.37850         4.15649         4.01101
     2007.38124        13.04428         6.69430
     2007.38398        10.08908         3.30270
     2007.38672         2.85987         5.29326
     2007.38945         3.61966         4.29604
     2007.39219         4.74845         2.95059
     2007.39493         4.02224         3.70702
     2007.39767         5.26404         2.12384
     2007.40041         6.32383         0.74875
     2007.40314         5.57962         1.49845
     2007.40588         2.55841         4.92929
     2007.40856        -2.49437        11.31872
     2007.41136         1.22300         6.34286
     2007.41410         9.15179         3.19795
     2007.41683         6.92658         0.70052
     2007.41957         5.47537         0.90486
     2007.42231         8.22416         2.63319
     2007.42505        20.75496        18.01147
     2007.42778        13.90175         9.43996
     2007.43052         9.65054         4.61256
     2007.43326         9.73033         4.93043
     2007.43600         7.74612         2.84123
     2007.43868         9.72634         5.35238
     2007.44147         6.31971         1.48164
     2007.44398         5.56618         1.06180
     2007.44695         0.71529         4.77618
     2007.44969        -2.64192         8.46191
     2007.45243         7.59288         3.75419
     2007.45516         5.88067         1.95473
     2007.45790        10.05146         7.12448
     2007.46064         5.88925         2.40046
     2007.46338         6.20104         3.01602
     2007.46611         5.71584         2.68066
     2007.46885        10.54563         8.53899
     2007.47159         8.37342         6.30264
     2007.47433         6.10021         3.84520
     2007.47707         9.95700         8.82836
     2007.47980         0.49280         2.21559
     2007.48254        -2.68741         5.73196
     2007.48528         3.11438         1.39441
     2007.48802         2.81417         1.30474
     2007.49093        13.58770        15.34188
     2007.49384         4.97123         5.07459
     2007.49623         5.24755         4.96655
     2007.49897        12.63934        13.95915
     2007.50171         1.98313         1.72907
     2007.50462         6.01166         7.32095
     2007.50718         7.08672         8.31124
     2007.50992         2.87551         3.70952
     2007.51266         0.81730         1.55158
     2007.51540        12.68109        16.25738
     2007.51813         3.75989         5.63857
     2007.52087         3.48668         5.61312
     2007.52342         6.89184        10.64979
     2007.52635         9.85026        14.01778
     2007.52908        20.92705        27.89867
     2007.53182         6.08085        10.19298
     2007.53456         6.65564        11.39840
     2007.53730        11.31043        17.13701
     2007.54004        11.93422        18.28158
     2007.54277        12.52001        19.08051
     2007.54551        17.88881        26.22874
     2007.54825         8.56160        15.33781
     2007.55099         6.16639        12.62994
     2007.55373         8.53718        15.68890
     2007.55646        20.30997        30.75024
     2007.55920        14.97677        24.18241
     2007.56194         7.81156        15.80922
     2007.56468        11.69135        20.73373
     2007.56741         7.61514        16.62309
     2007.57015        17.70793        28.95641
     2007.57289        18.94073        30.57191
     2007.57563         7.31452        17.01775
     2007.57837         4.85731        14.28874
     2007.58110        11.18310        22.15204
     2007.58384        16.69789        29.67406
     2007.58658        13.73569        26.24164
     2007.58932        12.36348        24.70330
     2007.59206        11.51127        23.86039
     2007.59479        12.57706        26.01709
     2007.59753        15.44885        29.87306
     2007.60027        15.11265        29.28099
     2007.60301        17.13744        31.85002
     2007.60574        15.42223        30.35919
     2007.60848        13.41202        27.98623
     2007.61122        18.48681        34.88621
     2007.61396        16.85561        33.12641
     2007.61670        13.80340        33.01453
     2007.61943        20.98719        42.03246
     2007.62217        19.96598        39.65377
     2007.62491        15.76777        35.13316
     2007.62765        18.86057        40.00858
     2007.63039        23.87936        45.67126
     2007.63312        18.37315        39.23401
     2007.63586        17.25494        37.48864
     2007.63860        11.23273        30.19047
     2007.64134        15.92453        35.89330
     2007.64407        18.13132        40.61307
     2007.64681        13.71011        35.88145
     2007.64955        21.59990        46.26311
     2007.65229        17.76369        41.27934
     2007.65503        14.19449        36.46464
     2007.65776        14.64828        37.13480
     2007.66050        12.60707        35.17717
     2007.66324        18.85386        44.26032
     2007.66598        16.46165        40.98153
     2007.66872        19.70145        45.85644
     2007.67145        11.98024        37.45277
     2007.67419        14.03403        39.21602
     2007.67693        22.62182        49.81390
     2007.67967        21.98361        50.59625
     2007.68240        19.39641        46.13803
     2007.68514        12.66520        39.69904
     2007.68788        22.84899        51.94032
     2007.69062        17.28278        44.22553
     2007.69336        22.65257        51.77915
     2007.69609        15.56737        43.73993
     2007.69883        14.78016        42.44341
     2007.70157        16.58595        45.16425
     2007.70431        20.58274        51.31818
     2007.70705        16.51053        47.05982
     2007.70978        21.86033        53.40241
     2007.71252        12.80912        41.32481
     2007.71526        24.77291        55.31670
     2007.71800        22.37470        53.08789
     2007.72073        14.66249        44.01708
     2007.72347        19.49429        50.66179
     2007.72621        21.48608        52.04379
     2007.72895        11.11387        40.42920
     2007.73169        16.70366        47.79736
     2007.73442        17.21845        47.94179
     2007.73716        11.60125        42.76047
     2007.73990        19.66304        51.50646
     2007.74264        21.80383        54.09637
     2007.74538        18.28762        49.70441
     2007.74811        30.53342        66.25456
     2007.75085        29.89921        68.54612
     2007.75359        23.20400        57.94309
     2007.75633        18.28879        50.98660
     2007.75906        19.72658        52.15871
     2007.76180        20.08938        53.67332
     2007.76454        19.01917        53.01700
     2007.76728        19.28896        56.25788
     2007.77002        25.88975        65.44083
     2007.77275        19.84354        56.67381
     2007.77549        14.15034        46.64804
     2007.77823        15.87913        49.34287
     2007.78097        13.59992        46.01409
     2007.78371        16.58371        50.26593
     2007.78644        22.42350        57.99766
     2007.78918        18.81330        54.23663
     2007.79192        13.07809        48.50483
     2007.79466        22.31588        58.63911
     2007.79739        21.24767        58.00547
     2007.80013        31.34046        70.45541
     2007.80264        23.36094        63.09614
     2007.80561        12.98805        46.67981
     2007.80835        13.45884        47.72247
     2007.81108        17.78863        54.53722
     2007.81382        13.05942        47.44092
     2007.81656        11.41322        47.45608
     2007.81930         7.58901        40.90090
     2007.82203        13.65880        48.64232
     2007.82477        13.58259        49.31158
     2007.82751         6.30438        39.30141
     2007.83025        10.86618        46.29055
     2007.83299        16.00497        50.54893
     2007.83572         8.23876        40.84257
     2007.83846        16.23155        50.77368
     2007.84120        13.28734        49.23343
     2007.84394         5.06814        37.24692
     2007.84668         1.87393        34.25721
     2007.84941        16.49472        51.42959
     2007.85215        17.74551        54.71988
     2007.85489        16.07630        54.76139
     2007.85763         2.72010        35.65918
     2007.86036         9.89289        43.29471
     2007.86310        16.48968        51.55342
     2007.86584        11.03847        45.22785
     2007.86858        10.89226        43.60156
     2007.87132        13.54506        47.52448
     2007.87405        16.13285        50.03058
     2007.87679        21.44264        57.10224
     2007.87953         9.12443        41.67909
     2007.88227        11.07122        43.50091
     2007.88501        16.74302        49.99342
     2007.88774         3.00281        33.79949
     2007.89048         5.67760        36.74198
     2007.89305         4.74866        51.65337
     2007.89596        14.89718        49.29968
     2007.89869        12.06798        44.22813
     2007.90132         8.91161        42.23996
     2007.90948        13.98941        49.32906
     2007.91238        11.18294        43.03763
     2007.91512        13.93173        45.48385
     2007.91786        17.53052        49.45990
     2007.92060         9.37131        40.22801
     2007.92334        16.30210        49.17165
     2007.92607        14.88990        46.83356
     2007.92881         4.29469        33.89305
     2007.93155         6.30348        35.53600
     2007.93429         5.90127        34.69268
     2007.93697         6.36649        36.24010
     2007.93965         8.85270        45.57513
     2007.94136        14.66707        99.61879
     2007.95448         8.61924        79.59371
     2007.95619        10.24861        38.91548
     2007.95887        20.69582        52.57475
     2007.96167        18.52519        63.59258
     2007.96440        15.80998        44.85860
     2007.96714        12.25678        49.79747
     2007.96988         3.71757        28.73400
     2007.97262         0.98636        25.78847
     2007.97535        -0.50085        23.16769
     2007.97809        18.91695        47.09073
     2007.98083        10.60174        35.76779
     2007.98357        13.61453        38.88307
     2007.98631        12.01632        37.73763
     2007.98904         9.09611        34.60074
     2007.99178        11.90791        37.03737
     2007.99452        13.62370        38.57204
     2007.99726         6.53549        28.30697
     2008.00000        -4.30572        15.52875
     2008.00273         4.73007        25.79549
     2008.00547         6.32287        27.28195
     2008.00821        13.48266        34.76810
     2008.01095        10.62245        32.45196
     2008.01368        11.37124        31.83413
     2008.01642         7.80803        27.14099
     2008.01916         7.22783        26.56623
     2008.02190        17.43162        39.15838
     2008.02464        13.74641        33.10655
     2008.02743        15.12078        36.03829
     2008.03011        10.30699        29.01704
     2008.03285         2.74679        19.09104
     2008.03559         6.80158        23.95925
     2008.03833        -1.67463        12.81247
     2008.04106         1.67916        16.69152
     2008.04380         2.38995        17.73885
     2008.04654         9.05075        25.15324
     2008.04928         2.21954        16.07245
     2008.05201         3.79733        17.39123
     2008.05475        -0.35788        11.98271
     2008.05749         0.50391        12.65342
     2008.06023         5.46471        18.26600
     2008.06297         7.82450        20.75563
     2008.06570         7.82229        20.04258
     2008.06844         8.44108        20.53046
     2008.07118        11.89287        24.84291
     2008.07392        20.22867        35.73450
     2008.07666        18.85146        33.57369
     2008.07939        12.68125        25.10044
     2008.08213        11.86504        23.34811
     2008.08487         8.78083        18.23723
     2008.08761         7.78563        16.90956
     2008.09034        13.52742        23.21405
     2008.09308         8.05521        16.33839
     2008.09582        13.64500        23.43238
     2008.09856        10.67279        19.51789
     2008.10130         7.24559        14.71324
     2008.10404         6.07431        12.35746
     2008.10677        17.40617        25.51833
     2008.10951         9.01396        15.47647
     2008.11225        11.07375        18.12004
     2008.11498         7.87855        13.22693
     2008.11772         7.29034        11.53202
     2008.12046         6.21813         9.98223
     2008.12320         6.88792        10.73785
     2008.12594        12.46671        16.72972
     2008.12867         4.45751         6.73102
     2008.13141         5.89730         7.98148
     2008.13415        11.45509        14.08070
     2008.13689        12.70288        16.24743
     2008.13963        12.33267        14.52435
     2008.14236        11.50347        13.09078
     2008.14510         9.55326        10.37609
     2008.14784         9.56605         9.92956
     2008.15058         3.91784         2.85783
     2008.15331         2.52863         0.83938
     2008.15605         4.31543         2.77606
     2008.15879         4.94022         2.99679
     2008.16351        -7.59462        20.32969
     2008.19532         1.83757         8.89496
     2008.19712         8.68031         2.31502
     2008.19986        11.14510         4.83804
     2008.20260         3.46389         4.51144
     2008.20533        -1.81132        11.25643
     2008.20807         2.47647         6.58446
     2008.21081         4.94427         3.83922
     2008.21355         5.21906         3.77888
     2008.21629        10.88185         2.69887
     2008.21902         6.20664         3.25736
     2008.22176        -4.47756        16.25272
     2008.22450         6.23323         3.81540
     2008.22724         3.93302         6.89557
     2008.22997         0.98781        10.85128
     2008.23271         4.33360         7.07980
     2008.23545         4.18440         7.50766
     2008.23819         4.58819         7.18901
     2008.24093        10.55998         0.29575
     2008.24366         7.78077         3.86310
     2008.24640         6.94256         5.17539
     2008.24914         1.13836        12.08385
     2008.25188         4.14115         8.94140
     2008.25462         5.17894         7.85205
     2008.25735         4.01773         9.73012
     2008.26009         8.70452         4.14818
     2008.26283         6.39432         7.10451
     2008.26557         6.55511         7.14397
     2008.26830         2.96390        11.49804
     2008.27104        13.99969         1.20764
     2008.27378         0.91448        14.36447
     2008.27652         2.26528        13.17348
     2008.27926         6.89507         7.90499
     2008.28199        -0.32414        16.83224
     2008.28473        10.99065         3.27765
     2008.28747        12.80144         1.31646
     2008.29021         5.15324        10.74505
     2008.29295         8.40803         6.71813
     2008.29568         4.02682        12.09362
     2008.29848         6.67319        10.13768
     2008.30116         2.58140        14.43904
     2008.30390         6.96320         9.02521
     2008.30663         9.34999         6.30816
     2008.30937         2.71478        14.51150
     2008.31211         4.96657        12.08815
     2008.31485         4.06336        12.96550
     2008.31759        -1.64784        19.84627
     2008.32032        -1.26005        20.04266
     2008.32306         0.39174        18.10803
     2008.32580        13.97253         1.65044
     2008.32854         3.17732        14.86255
     2008.33128         0.91012        17.31465
     2008.33401         4.41491        12.80407
     2008.33675        13.92370         1.89569
     2008.33949         8.86049         8.05774
     2008.34223         0.81528        17.34307
     2008.34496         0.72208        17.30774
     2008.34770         5.07687        12.30564
     2008.35044         3.33366        14.46702
     2008.35318         1.69345        16.24565
     2008.35592         6.93124        10.18574
     2008.35865         8.83404         8.10237
     2008.36139         6.83183        10.26173
     2008.36413         8.84762         7.96846
     2008.36687         9.14341         7.67305
     2008.36961        -2.25980        21.14908
     2008.37234        -2.55400        21.49027
     2008.37508         0.85879        17.26417
     2008.37782         3.09458        15.38575
     2008.38056         0.59337        18.40643
     2008.38329         5.56616        11.65196
     2008.38603         6.38596        10.48476
     2008.38877         4.26575        13.05420
     2008.39151         0.47554        17.65637
     2008.39425         5.21733        11.52604
     2008.39698         1.61112        15.88672
     2008.39972         6.39992         9.97608
     2008.40246         1.52271        15.63112
     2008.40520         3.82250        12.72927
     2008.40794         3.74929        13.13275
     2008.41067         4.59508        11.96630
     2008.41341         3.33088        13.05930
     2008.41615         4.11667        12.43694
     2008.41889         0.80046        15.59411
     2008.42162        10.20025         4.92727
     2008.42436         4.82304        10.71140
     2008.42710         5.21384        10.33357
     2008.42984         8.34963         6.52812
     2008.43258         2.46742        13.28419
     2008.43531         1.95321        14.12222
     2008.43805        -0.03699        15.88750
     2008.44079        11.49580         2.00180
     2008.44353         0.54559        14.38425
     2008.44626        -2.31362        17.94504
     2008.44900        -0.50083        15.35218
     2008.45174        -6.50703        23.00324
     2008.45448         1.58376        12.71457
     2008.45722         0.23155        13.82944
     2008.45995        -1.06866        15.30058
     2008.46269        -3.72887        17.91209
     2008.46543         1.22593        12.21292
     2008.46817        -0.80328        14.14502
     2008.47091        -1.53749        14.85998
     2008.47364         5.53430         6.41645
     2008.47638         1.38909        11.04332
     2008.47912        -4.48111        17.65271
     2008.48186        -1.18732        13.53201
     2008.48459         5.55547         5.38674
     2008.48733         1.62726         9.62089
     2008.49007        -0.13795        11.38809
     2008.49281        -0.69015        11.68894
     2008.49555        -0.69436        11.53865
     2008.49828        -2.21557        13.44685
     2008.50102         1.10722         9.18604
     2008.50376         8.16501         0.26338
     2008.50650         1.80481         7.52044
     2008.50924        -5.06740        15.25740
     2008.51197         1.87839         6.81117
     2008.51471         2.94518         5.29728
     2008.51745         3.37697         4.35322
     2008.52019         5.76677         1.24577
     2008.52292         0.30456         7.53082
     2008.52566         1.16635         6.27418
     2008.52840         6.87914         1.01080
     2008.53108         7.20635         1.77543
     2008.53388         2.95573         2.99372
     2008.53661        -1.60148         7.94745
     2008.53935        -0.34369         6.09139
     2008.54209         2.56410         2.39533
     2008.54483         5.29889         1.15845
     2008.54757         4.85869         0.96500
     2008.55030         1.75848         2.55032
     2008.55304         4.79827         1.57000
     2008.55578         9.33706         7.14077
     2008.55852         8.00985         6.10447
     2008.56125         5.45965         3.35993
     2008.56399         7.32044         5.97116
     2008.56673         3.19023         1.41769
     2008.56947         6.54302         5.64522
     2008.57221         8.11081         8.13211
     2008.57494        10.10361        11.07875
     2008.57768         9.08040         9.99018
     2008.58042         7.26719         7.95489
     2008.58316        12.41198        14.56200
     2008.58590         9.21977        10.74690
     2008.58863         8.89657        11.24145
     2008.59137         3.53336         4.98146
     2008.59411         7.70715        10.12532
     2008.59685         2.61894         4.60116
     2008.59958         8.41973        12.27245
     2008.60232         8.94753        13.28763
     2008.60506        16.03632        22.39986
     2008.60780        10.46611        15.56638
     2008.61054         1.98690         5.67683
     2008.61327        11.15169        16.84428
     2008.61601         9.45549        15.19966
     2008.61875         2.97828         7.93107
     2008.62149         4.37507        10.05511
     2008.62423         8.73686        15.52535
     2008.62696        11.67065        19.38003
     2008.62970         7.00845        14.37578
     2008.63244        11.11124        19.35667
     2008.63518        11.11503        20.53362
     2008.63791        21.53682        34.98557
     2008.64065        11.67861        21.00192
     2008.64339        10.90641        21.36604
     2008.64613        14.76020        26.52644
     2008.64892        17.21057        30.40567
     2008.65160         8.35178        18.35774
     2008.65434        10.69457        22.40695
     2008.65708        16.07737        29.79219
     2008.65982         3.49516        14.37173
     2008.66256        12.93395        25.93401
     2008.66529         5.25974        16.51230
     2008.66803         3.71653        15.08313
     2008.67077         0.88433        12.18617
     2008.67351         7.95412        20.87365
     2008.67624         3.04391        16.58135
     2008.67898         6.14670        19.47381
     2008.68172         7.72550        21.58230
     2008.68446         7.28029        21.23084
     2008.68720         4.89008        18.73806
     2008.68993        12.62887        28.49933
     2008.69267         4.02266        18.19076
     2008.69541         5.40646        20.69822
     2008.69815        10.70725        27.39104
     2008.70089         6.44904        22.08870
     2008.70362         9.30383        25.78377
     2008.70636        11.57862        28.70068
     2008.70910         7.39742        24.57214
     2008.71184         8.02921        25.69903
     2008.71457        -0.15200        15.87833
     2008.71731         3.94279        21.19292
     2008.72005         6.89058        24.23841
     2008.72279        18.11838        38.69633
     2008.72553         5.70817        24.27950
     2008.72826         3.23396        20.36198
     2008.73100         4.97275        23.41769
     2008.73374         8.27954        27.37576
     2008.73648         7.69034        26.11068
     2008.73921         2.82213        21.18978
     2008.74469        10.54871        30.49148
     2008.74743         9.95750        29.99831
     2008.75017         4.88930        24.85576
     2008.75290        10.29109        30.83766
     2008.75564        11.82888        35.24946
     2008.75838        14.89267        37.20808
     2008.76112        16.35446        39.07965
     2008.76386         2.79426        23.30469
     2008.76659         2.50405        23.40655
     2008.76933         5.15784        26.17422
     2008.77207         0.74163        20.33822
     2008.77481        -2.51858        16.92146
     2008.77754         5.76622        26.39188
     2008.78028         1.56701        22.71620
     2008.78302         9.69080        31.41665
     2008.78576         6.08459        27.34939
     2008.78850         3.52638        25.02583
     2008.79123        12.37318        36.15194
     2008.79397         1.34897        22.99897
     2008.79671        11.12176        34.05773
     2008.79945         2.47255        23.55438
     2008.80219         7.73934        30.14248
     2008.80492         5.34714        27.15261
     2008.80766         2.64693        24.16931
     2008.81040         5.00672        30.06906
     2008.81314         5.04151        27.59173
     2008.81587         9.95730        32.83320
     2008.81861        -0.57490        20.60404
     2008.82135        -1.75811        19.73711
     2008.82409         2.75468        25.76068
     2008.82683        -0.48453        21.04470
     2008.82956        -0.60174        20.91528
     2008.83230         2.60606        25.14340
     2008.83504        10.29485        33.68448
     2008.83778        11.95564        36.48805
     2008.84052         8.22443        31.72246
     2008.84599        10.90502        33.87719
     2008.85147         6.23360        29.35605
     2008.86242         5.21977        27.57306
     2008.86516        13.44156        37.42643
     2008.86789        -0.20565        21.02735
     2008.87063        -1.65186        19.60447
     2008.87337        -4.35206        15.80751
     2008.87611         1.04373        21.91845
     2008.87885         2.13552        23.32312
     2008.88158         5.17631        27.33020
     2008.88432        -5.79490        13.66169
     2008.88706        -0.66110        19.76448
     2008.88980        -4.63431        15.27630
     2008.89253         1.87348        22.42646
     2008.89527        -1.57373        18.45129
     2008.89801        -2.10493        17.55295
     2008.90075        -3.81914        15.66216
     2008.90349        -4.77635        13.77646
     2008.90622        -2.68956        16.16190
     2008.90896         7.81523        28.76007
     2008.91170         4.36703        24.51522
     2008.91444        10.71382        31.81146
     2008.91718         6.56761        26.25202
     2008.91991         7.30240        27.63934
     2008.92265        -1.94381        16.08202
     2008.92539        -7.54501         9.19932
     2008.92813         1.43678        19.97185
     2008.93086         4.37557        24.30322
     2008.93360         2.11136        20.28648
     2008.93634        -2.30485        14.59625
     2008.93908        -5.55305        10.48154
     2008.94182        -0.91526        15.52423
     2008.94455        -4.07847        11.78380
     2008.94729        -0.78968        15.51591
     2008.95003         6.59611        23.75817
     2008.95277        -3.48609        11.51274
     2008.95551        -2.75130        11.93742
     2008.95824        -6.74251         6.94018
     2008.96098        -2.15372        12.17315
     2008.96372        -1.36493        13.13314
     2008.96646        -4.02513         9.60788
     2008.96919        -9.51534         2.68424
     2008.97193        -1.89655        11.24051
     2008.97467         2.34824        15.86541
     2008.97741         1.90203        15.17065
     2008.98927         2.15247        25.13649
     2008.99110         0.39099        11.97921
     2008.99384        -0.17021        11.12968
     2008.99657        -5.69042         4.02822
     2008.99931        -4.53863         5.15708
     2009.00479         2.00095        11.90899
     2009.00752        -1.62225         7.41197
     2009.01026        -5.57446         2.42072
     2009.01300         9.67233        20.42266
     2009.01545         4.78423        16.20586
     2009.02389        -2.04708         6.06353
     2009.02581        10.55082        56.26501
     2009.02937        -5.25850         0.26852
     2009.03183       -12.93563        11.05728
     2009.03833       -12.53463        13.48964
     2009.04038       -12.46475         9.66319
     2009.04312       -15.11796        13.33512
     2009.04585       -12.94717        10.98768
     2009.04859       -11.37737         9.50894
     2009.05133       -10.73858         9.20983
     2009.05407       -10.23479         9.05055
     2009.05681        -7.42400         6.19472
     2009.05954        -8.54821         7.88955
     2009.06228       -11.53941        11.71447
     2009.06502        -6.98862         6.77937
     2009.06776        -5.55483         5.50954
     2009.07049        -6.96704         7.85392
     2009.07323        -2.73925         3.17792
     2009.07597        -9.54945        11.63860
     2009.07871        -8.76866        10.73218
     2009.08145        -5.75587         8.18044
     2009.08418        -7.32708        10.36267
     2009.08692        -4.26829         6.92078
     2009.08966        -8.46949        12.25342
     2009.09240        -9.88670        14.27361
     2009.09514        -8.11291        12.49643
     2009.09787        -3.14212         7.71673
     2009.10061        -0.20433         4.13984
     2009.10335        -5.46353        11.00816
     2009.10609        -2.96774         8.20835
     2009.10882        -1.69495         7.27347
     2009.11156        -1.67316         7.60560
     2009.11430         2.83963         2.69211
     2009.11704         2.22043         3.80516
     2009.11978        -5.35478        13.04615
     2009.12251        -3.31499        10.95956
     2009.12525        -3.87920        11.96107
     2009.12799        -3.14941        11.73760
     2009.13073        -1.20261         9.74296
     2009.13347        -7.11282        17.02999
     2009.13620        -9.16303        19.85716
     2009.13894        -8.10424        18.92190
     2009.14168        -5.50544        16.38096
     2009.14442        -6.59765        18.26418
     2009.14715        -9.71786        22.31901
     2009.14989        -0.72307        12.41658
     2009.15263        -1.44828        13.29648
     2009.15537        -3.78848        16.75747
     2009.15811        -5.56969        19.30171
     2009.16084        -8.91790        23.14793
     2009.16358         3.39389         9.06630
     2009.16632        -4.23532        18.44236
     2009.16906         3.02348        10.46440
     2009.17180        -0.53673        14.69473
     2009.17453        -8.69994        24.94442
     2009.17727        -1.30015        16.84111
     2009.18001        -7.14836        23.63894
     2009.18275        -3.90856        20.13588
     2009.18548        -6.47577        23.32990
     2009.18822        -7.58798        24.81631
     2009.19096        -9.87519        28.05787
     2009.19370        -4.00540        21.40917
     2009.19644        -8.16760        26.74094
     2009.19917         2.42919        14.74908
     2009.20191         0.99998        16.89981
     2009.20465         1.48277        16.71811
     2009.20739         0.17156        19.37557
     2009.21007       -10.19122        31.55421
     2009.21286        -3.94885        23.57273
     2009.21560        -6.74306        27.19886
     2009.21834        -3.19127        23.45844
     2009.22108        -0.02748        19.89467
     2009.22381        -1.46168        22.53729
     2009.22655        -6.24589        28.64343
     2009.22929        -6.28110        28.11218
     2009.23203        -2.16731        23.78611
     2009.23482        -1.82194        25.98771
     2009.23750        -4.82272        27.45394
     2009.24024         0.14307        21.96670
     2009.24298        -3.37314        26.37114
     2009.24572        -1.00935        24.88365
     2009.24840         6.49687        15.91633
     2009.25119         2.99224        20.63945
     2009.25393        -0.60797        25.11966
     2009.25667        -5.80718        30.33667
     2009.25941        -3.75339        28.09340
     2009.26214        -2.21760        27.69604
     2009.26488        -2.95880        28.88639
     2009.26762         2.39599        22.10959
     2009.27036        -2.21322        27.33987
     2009.27310        -8.70043        35.14961
     2009.27583        -4.11864        30.19914
     2009.27857        -4.52984        31.47023
     2009.28131        -0.95905        27.68234
     2009.28405        -7.78226        35.38545
     2009.28679        -5.64247        32.71485
     2009.28952        -7.89168        35.23876
     2009.29226        -8.22788        36.48589
     2009.29500       -10.39409        38.85030
     2009.29774        -5.14030        33.05789
     2009.30047        -6.59551        35.17715
     2009.30321       -12.40872        41.83089
     2009.30595       -10.69592        42.41449
     2009.30869        -2.47813        30.24868
     2009.31143        -7.88634        40.47293
     2009.31416        -6.25655        34.79902
     2009.31690       -12.61076        42.53425
     2009.31964        -7.22296        36.37859
     2009.32238       -10.19217        39.51169
     2009.32512        -8.10138        38.17633
     2009.32785        -9.30359        39.67618
     2009.33059        -9.49080        38.81372
     2009.33333        -7.96100        37.03286
     2009.33607       -11.87621        42.86888
     2009.33880        -6.21242        34.71089
     2009.34154        -6.16363        36.51116
     2009.34428        -3.63284        33.26768
     2009.34702        -3.72004        32.60716
     2009.34976        -5.90025        36.26756
     2009.35249        -5.51546        37.71737
     2009.35517       -13.48725        44.56436
     2009.35797        -2.96288        31.36069
     2009.36071        -6.67908        37.76036
     2009.36344        -1.54629        30.96250
     2009.36618        -0.66750        28.93770
     2009.36892        -5.80671        34.81424
     2009.37166       -10.14391        40.28883
     2009.37440        -8.28312        39.33544
     2009.37713       -11.73133        44.16736
     2009.37987        -0.16154        29.23279
     2009.38267        -5.76317        35.15651
     2009.38535       -11.70695        40.93322
     2009.38809       -15.96416        46.63766
     2009.39082       -16.65237        46.81784
     2009.39356       -15.17258        47.80664
     2009.39630       -10.32079        39.62610
     2009.39904        -4.78299        32.87695
     2009.40177        -9.76120        38.55730
     2009.40451        -6.84341        35.02780
     2009.40725       -11.01262        39.61450
     2009.40999        -3.75883        31.32396
     2009.41273        -4.43903        32.39673
     2009.41546        -1.23624        28.52011
     2009.41820        -3.80945        31.00103
     2009.42094       -17.16966        46.89272
     2009.42368        -6.54287        33.69872
     2009.42642       -10.34007        38.23967
     2009.42915        -4.09528        30.97600
     2009.43189        -8.16949        35.11994
     2009.43463        -6.77170        33.52585
     2009.43737        -6.90691        33.38028
     2009.44010        -9.50711        36.00047
     2009.44284        -8.56332        35.06494
     2009.44558        -5.78453        31.39662
     2009.44832        -7.32174        33.33007
     2009.45106        -7.22695        33.07472
     2009.45379        -9.69415        35.36288
     2009.45653        -7.72136        32.94138
     2009.45927        -7.09957        32.44601
     2009.46201        -5.29878        29.59964
     2009.46475        -6.17299        31.22826
     2009.46748       -10.87819        37.67231
     2009.47022        -4.72340        28.27987
     2009.47296        -6.85561        30.68736
     2009.47570       -10.38682        34.90639
     2009.47843        -5.12903        28.33797
     2009.48117        -3.33123        25.72137
     2009.48391        -9.43844        33.24074
     2009.48665       -12.39965        36.70733
     2009.48939        -8.88986        33.15879
     2009.49212        -4.47007        26.33760
     2009.49486        -8.33827        30.57267
     2009.49760        -4.30048        26.05432
     2009.50034        -6.04769        27.24289
     2009.50308        -5.94790        26.69939
     2009.50581        -4.70311        25.87751
     2009.50855       -11.01931        35.33422
     2009.51123        -5.91710        27.68852
     2009.51403        -1.81773        20.65899
     2009.51676         4.44606        12.74942
     2009.51950        -4.66715        23.23889
     2009.52218        -9.78593        29.79162
     2009.52498        -0.89956        19.12886
     2009.52772        -1.07977        18.88163
     2009.53045        -9.99298        28.98647
     2009.53319        -6.86919        25.00526
     2009.53593        -7.61239        25.77184
     2009.53867        -7.55960        25.10329
     2009.54141        -4.11681        19.95951
     2009.54414       -10.52702        27.88841
     2009.54682         1.50120        13.31683
     2009.54962        -8.11043        23.60597
     2009.55236        -5.62364        20.44308
     2009.55509         1.50115        11.59916
     2009.55783        -0.70606        14.11096
     2009.56057        -0.27827        13.46612
     2009.56331        -6.68347        21.09135
     2009.56605         3.21332         8.79657
     2009.56878        -9.14689        22.47334
     2009.57152        -1.03310        12.63195
     2009.57426        -0.71631        11.80139
     2009.57700         1.42449         8.95574
     2009.57974        -2.57572        13.44914
     2009.58247        -4.43093        15.17255
     2009.58521         2.43486         6.88282
     2009.58795        -3.80835        13.89192
     2009.59069        -6.65155        17.27663
     2009.59342        -6.95776        17.28933
     2009.59616        10.00303         3.92632
     2009.59890        -1.57518         9.67859
     2009.60164         2.12362         4.93656
     2009.60438        -9.47259        18.34076
     2009.60711        -5.32080        13.02375
     2009.60985         8.09099         3.47520
     2009.61259        -3.21622         9.76107
     2009.61533        -5.44342        12.09379
     2009.61807         4.76837         0.45705
     2009.62080        -0.11484         5.00717
     2009.62354        -2.48205         7.41362
     2009.62628         0.63174         3.54001
     2009.62902        13.13454        12.62067
     2009.63175        -5.86767        10.47786
     2009.63449        -7.24188        12.35002
     2009.63723        -9.62009        15.25909
     2009.63997       -10.30430        15.13017
     2009.64271        -5.65850         8.84145
     2009.64544         0.01329         1.73275
     2009.64818        -5.49892         8.48734
     2009.65092        -5.26713         7.37841
     2009.65366        -7.60934        10.53730
     2009.65639       -14.34154        17.87612
     2009.65913        -8.42975        10.05616
     2009.66181         4.09846         5.41788
     2009.66461        -0.10117         0.51289
     2009.66735         0.69262         1.79547
     2009.67008         1.21942         2.74475
     2009.67282        -4.72079         4.23456
     2009.67556        -1.29800         0.36703
     2009.67830         3.44079         6.94234
     2009.68104         1.42258         4.31448
     2009.68377        -4.44262         2.53823
     2009.68651         4.10917         8.40320
     2009.68925        -2.39604         0.62201
     2009.69199         5.63875        10.43648
     2009.69472        -7.25446         4.67409
     2009.69746        -3.54066         0.09722
     2009.70020        -1.18687         3.21470
     2009.70294        -4.47808         0.45502
     2009.70568        -0.08529         5.07800
     2009.70841        -0.68050         4.68862
     2009.71115        -4.24670         0.63378
     2009.71389        -1.81691         3.91193
     2009.71663        -4.10112         1.37360
     2009.71937        -5.87133         0.52788
     2009.72210       -13.01554         8.73974
     2009.72484        -4.79474         1.25892
     2009.72758        -5.84895         0.23134
     2009.73032         5.40084        14.44912
     2009.73305        -3.35137         3.99047
     2009.73579        -7.19358         0.74402
     2009.73853         4.13722        13.04381
     2009.74127        -0.60499         7.79498
     2009.74401         2.35880        12.17970
     2009.74652         6.88228        19.71423
     2009.74960        -2.81646         8.20345
     2009.75222         5.51618        17.31567
     2009.75496        -2.61203         6.19304
     2009.75770        -1.98924         7.66346
     2009.76043        -2.16445         7.13814
     2009.76317        -1.92266         7.60751
     2009.76591         0.67814        10.99424
     2009.76870        -0.34949        10.33325
     2009.77138        -1.61028         8.50172
     2009.77412        -1.68649         8.47701
     2009.77686        -3.94170         6.05173
     2009.77960         0.43410        11.82426
     2009.78222         4.02173        16.57002
     2009.78507         5.36668        19.00398
     2009.78781        -4.26853         6.23941
     2009.79055        -8.28074         1.42910
     2009.79329        -0.50894        11.62463
     2009.79603        -0.43015        11.77018
     2009.79848         1.93775        15.46061
     2009.80144        -1.30715        10.91762
     2009.80424        -1.23278        10.69734
     2009.80692        -6.66256         4.51348
     2009.80971        -3.28719         8.92197
     2009.81245         9.97260        28.36665
     2009.81821         1.01608        16.60308
     2009.82500        15.44898        70.86185
     2009.82820        19.71541        59.95874
     2009.83100        14.52867        52.46405
     2009.83349       -10.65564         1.06202
     2009.83651        -9.59599         1.09275
     2009.83920        15.74015        63.22237
     2009.84197        12.12777        43.58492
     2009.84531         1.24411        16.27303
     2009.84804         9.29390        24.32957
     2009.86173        -6.33114         5.01999
     2009.86447        -5.30635         6.03379
     2009.86721        -8.80956         1.29167
     2009.86995        -7.00377         3.28650
     2009.87187         8.05606        34.23129
     2009.87542         1.15782        13.64557
     2009.87816         5.54461        20.85410
     2009.88090        -5.58260         4.77900
     2009.88364        -3.51281         8.04116
     2009.88637        -4.67701         5.59263
     2009.93678       -21.98807        44.30623
     2009.93839       -11.41897         6.49478
     2009.94113       -12.14217         7.38755
     2009.94387       -11.37338         6.65708
     2009.94661        -8.54859         3.58503
     2009.94935        -8.39380         3.53656
     2009.95208        -9.40601         5.00489
     2009.95482       -14.51621        11.62092
     2009.95756        -7.65342         3.48818
     2009.96030       -16.51863        14.59643
     2009.96303       -15.98484        14.03565
     2009.96577        -7.30305         4.00217
     2009.96851       -10.83025         8.62721
     2009.97125       -13.61146        12.19405
     2009.97399        -9.29067         7.22014
     2009.97672       -15.65788        14.88222
     2009.97946       -17.81609        17.73062
     2009.98220       -15.46229        15.51189
     2009.98494       -13.10650        12.77291
     2009.98767       -17.81971        18.54960
     2009.99041       -12.84592        13.09807
     2009.99315       -14.16213        15.13755
     2009.99589        -9.94133        10.46821
     2009.99863       -14.59854        16.33238
     2010.00410       -12.10696        14.23531
     2010.00684       -15.87617        18.93678
     2010.00958       -16.28337        20.36446
     2010.01232       -18.14858        22.57557
     2010.01505       -21.20379        26.43160
     2010.01779       -18.81900        23.86221
     2010.02053       -10.96221        15.23557
     2010.02287        -9.18147        16.63126
     2010.02600        -9.06362        13.71674
     2010.02874       -14.67283        22.00394
     2010.03148       -11.70404        17.48124
     2010.03422       -22.77925        31.77696
     2010.03696       -13.24745        21.60210
     2010.03969       -11.96566        19.58302
     2010.04243        -8.79287        15.30934
     2010.04517        -4.15108        10.45096
     2010.04791        -3.12929         9.96857
     2010.05065        -7.41749        15.97434
     2010.05338        -6.29970        15.61757
     2010.05612        -9.04691        17.64565
     2010.05886       -10.37912        19.49291
     2010.06160       -15.72132        27.54713
     2010.06433       -19.04153        30.51789
     2010.06707       -15.59874        27.90929
     2010.06981       -20.16095        33.38450
     2010.07255       -16.96416        30.66793
     2010.07529       -15.40036        28.70520
     2010.07802       -11.08457        23.92348
     2010.08076       -15.61378        29.41212
     2010.08350        -4.06699        15.67989
     2010.08624        -5.77520        18.63238
     2010.08898        -1.67940        15.50713
     2010.09171        -3.93361        16.67322
     2010.09445        -6.34082        22.14101
     2010.09719        -6.48003        23.21215
     2010.09998       -13.01466        29.94107
     2010.10266        -9.98844        27.14088
     2010.10540        -8.59965        25.60679
     2010.10814       -10.23486        27.02628
     2010.11088       -12.11407        29.54463
     2010.11362        -7.54128        24.98142
     2010.11635        -2.64448        19.25203
     2010.11909        -9.08369        28.19440
     2010.12183        -9.83190        29.95420
     2010.12457        -4.24911        22.06516
     2010.12731         0.62168        17.62630
     2010.13004       -11.04652        31.12018
     2010.13278       -11.90373        32.45293
     2010.13552       -18.74294        41.15277
     2010.13826       -11.38515        32.55715
     2010.14099       -10.62236        31.78730
     2010.14373       -11.55856        34.32249
     2010.14647       -15.71177        40.17455
     2010.14921        -9.05698        31.87517
     2010.15195        -5.24619        27.58662
     2010.15468        -9.57240        32.61683
     2010.15742        -1.70060        24.21312
     2010.16016        -8.09181        31.60539
     2010.16290       -16.68002        42.94253
     2010.16564       -12.41923        38.34504
     2010.16837       -11.37744        37.52168
     2010.17111       -10.44964        35.63877
     2010.17385       -15.01885        41.34354
     2010.17659       -12.94306        38.86275
     2010.17932        -9.01727        35.24655
     2010.18206        -5.73848        32.09629
     2010.18480       -10.60468        37.55937
     2010.18754        -4.23389        30.45827
     2010.19028        -4.17110        30.73378
     2010.19301        -5.75631        33.45159
     2010.19575       -12.92252        42.20036
     2010.19849       -10.42372        39.78810
     2010.20123       -10.91193        40.50893
     2010.20397       -12.72214        43.78188
     2010.20670       -11.03735        42.57944
     2010.20944       -13.11656        44.08867
     2010.21218       -14.67576        46.02997
     2010.21492       -12.09397        43.24002
     2010.21765        -9.47018        40.17779
     2010.22039       -11.23339        43.13205
     2010.22313       -15.13660        47.60671
     2010.22587       -15.84780        49.61949
     2010.22861        -8.10501        41.22057
     2010.23134        -8.99122        41.66516
     2010.23408       -13.99343        49.21456
     2010.23956         0.23016        32.60610
     2010.24230        -6.99405        43.12810
     2010.24503        -9.41626        44.43562
     2010.24777        -9.54447        44.92752
     2010.25051       -10.52668        52.79753
     2010.25325        -8.47488        44.85947
     2010.25598       -11.62109        47.63792
     2010.25872        -8.09630        43.72396
     2010.26146        -4.38651        40.43420
     2010.26420       -11.87472        50.29668
     2010.26694        -9.32092        46.50134
     2010.26967       -12.00813        50.08769
     2010.27241       -12.06634        50.03513
     2010.27515       -10.67355        47.79145
     2010.27789        -9.32676        46.65228
     2010.28062        -7.54196        44.13407
     2010.28336       -15.46117        54.66216
     2010.28610       -21.32438        63.63473
     2010.28884       -14.97159        53.16517
     2010.29158        -9.09079        47.39562
     2010.29431       -10.30300        48.85866
     2010.29705       -10.83821        49.77322
     2010.29979        -9.45642        48.53806
     2010.30253        -4.75163        43.02954
     2010.30527        -8.00483        48.25196
     2010.30800        -6.45704        44.55678
     2010.31074        -5.57825        43.90230
     2010.31348        -6.85246        44.54621
     2010.31622       -10.71067        49.71850
     2010.31895        -3.22187        42.27920
     2010.32169         0.11492        37.55793
     2010.32443        -9.59529        49.22417
     2010.32717        -7.11150        45.62374
     2010.32991        -7.99271        47.13629
     2010.33264        -8.63191        47.81707
     2010.33538        -4.59112        44.29179
     2010.33812       -11.29533        50.88153
     2010.34086       -11.89454        51.29257
     2010.34360       -14.04775        53.99785
     2010.34633       -11.92595        52.12413
     2010.34907       -13.39116        53.52305
     2010.35181       -16.21937        56.28201
     2010.35455       -13.56258        52.85891
     2010.35728       -12.66279        52.78151
     2010.36002       -16.13999        57.47466
     2010.36276       -11.41320        51.40186
     2010.36550       -15.63541        57.72406
     2010.36824       -13.96062        55.24391
     2010.37097       -12.82883        52.58161
     2010.37371        -3.71903        41.71570
     2010.37645        -2.26724        40.17706
     2010.37919       -12.42645        54.87484
     2010.38193       -18.23466        61.74890
     2010.38466       -13.23287        53.81360
     2010.38740        -5.56007        44.34880
     2010.39014       -13.84328        54.35282
     2010.39288       -23.07649        65.42440
     2010.39561       -23.48070        65.10289
     2010.39835       -13.24591        51.86221
     2010.40109       -13.46111        51.84434
     2010.40383       -11.07232        50.07924
     2010.40657       -10.56253        48.67390
     2010.40930       -18.13574        58.10138
     2010.41204       -13.91395        52.17778
     2010.41478        -7.59815        44.62490
     2010.41752        -6.96836        44.38598
     2010.42026       -12.91657        51.05998
     2010.42299        -8.37578        45.02680
     2010.42573       -18.16199        56.32641
     2010.42847       -14.40019        52.28089
     2010.43121        -9.24640        45.49159
     2010.43394       -17.43661        55.27396
     2010.43668       -19.43882        59.58099
     2010.43942       -15.33303        52.02908
     2010.44216       -13.79423        50.25060
     2010.44490       -11.42144        47.49748
     2010.44763       -19.49165        58.52725
     2010.45037       -13.18986        49.57048
     2010.45311       -15.70207        52.17522
     2010.45585       -14.36927        50.53989
     2010.45859       -14.08748        50.08321
     2010.46132       -13.06069        48.23043
     2010.46406       -14.75390        49.13833
     2010.46680       -10.65711        44.36421
     2010.46954       -18.02531        52.89696
     2010.47227       -19.17652        54.02682
     2010.47501       -13.65773        46.85153
     2010.47775       -16.57994        52.57862
     2010.48049       -11.52815        46.26402
     2010.48323       -14.92535        48.48898
     2010.48596        -9.02156        41.44963
     2010.48870        -9.47577        42.11787
     2010.49144       -10.11698        42.51392
     2010.49418       -12.00519        43.11399
     2010.49692       -12.21239        43.27314
     2010.49965       -10.48960        41.00712
     2010.50239       -11.65781        42.02265
     2010.50513        -5.81002        35.21121
     2010.50787        -9.28623        38.99526
     2010.51060       -16.30143        46.15120
     2010.51334        -8.48164        37.17617
     2010.51608       -11.10885        40.12288
     2010.51882        -4.53906        31.94325
     2010.52156        -8.66526        37.34899
     2010.52429        -4.93947        33.06475
     2010.52703       -10.42068        39.84167
     2010.52977       -11.12989        39.13201
     2010.53251       -10.61810        38.37133
     2010.53525       -11.60930        38.75601
     2010.53798       -16.06451        43.47293
     2010.54072       -17.47572        44.69418
     2010.54346       -14.00993        40.87779
     2010.54620       -11.08514        36.72359
     2010.54893       -14.85434        40.68036
     2010.55167       -12.69955        38.77360
     2010.55441       -12.79776        37.66300
     2010.55715       -11.42297        35.43543
     2010.55989        -9.81718        33.29214
     2010.56262       -12.38638        36.75253
     2010.56536       -11.52659        34.58435
     2010.56810       -11.18980        34.09377
     2010.57084        -9.47001        31.80605
     2010.57357       -15.67922        39.75907
     2010.57631       -10.92842        33.43475
     2010.57905       -17.39463        40.08892
     2010.58179        -7.56384        28.03721
     2010.58453       -11.42205        32.62240
     2010.58726       -17.27326        39.94703
     2010.59000       -10.54046        31.40299
     2010.59274       -10.21867        29.86403
     2010.59548        -0.92488        18.75259
     2010.59822        -4.09609        21.99501
     2010.60095        -0.98730        18.05717
     2010.60369       -13.31550        32.24870
     2010.60643        -6.90371        23.99909
     2010.60917        -5.51292        22.48880
     2010.61190        -7.11613        23.62852
     2010.61464        -9.72734        26.50342
     2010.61738       -14.19754        31.19789
     2010.62012       -11.19075        27.21592
     2010.62286        -4.91096        19.68457
     2010.62559        -5.41317        20.09263
     2010.62833        -8.18738        23.09467
     2010.63107        -6.06958        20.95547
     2010.63381        -4.15079        17.34033
     2010.63655        -6.51800        19.87639
     2010.63928         0.08879        11.89096
     2010.64202       -11.86842        25.53264
     2010.64476       -12.53262        26.34307
     2010.64750       -10.87483        23.56713
     2010.65023       -14.28504        28.31594
     2010.65297        -4.63125        16.35819
     2010.65571        -9.28746        20.47438
     2010.65845        -6.77866        17.24658
     2010.66119       -12.54187        23.82638
     2010.66392        -8.21708        18.94247
     2010.66666        -6.81629        16.46352
     2010.66940       -10.15450        20.27822
     2010.67214        -8.85770        18.57825
     2010.67488        -9.81591        20.04743
     2010.67761        -9.34012        18.00879
     2010.68035        -8.56033        17.34566
     2010.68309         2.70146         3.52356
     2010.68583        -2.54174         9.29798
     2010.68856       -18.22195        27.14868
     2010.69130        -5.98916        12.67812
     2010.69404       -15.82337        24.42102
     2010.69678       -10.34658        17.16672
     2010.69952        -6.24878        12.20955
     2010.70225       -14.54899        21.31696
     2010.70499       -10.42620        16.51371
     2010.70773       -11.87241        18.10242
     2010.71047        -2.55862         7.06720
     2010.71321        -0.57982         4.46477
     2010.71594        -3.39603         7.61147
     2010.71868        -7.72524        12.24291
     2010.72142       -11.21545        16.25578
     2010.72416       -13.18666        18.58590
     2010.72689        -4.28386         7.59227
     2010.72963        -9.56807        13.44382
     2010.73237       -17.95928        22.96804
     2010.73511        -9.97649        13.84989
     2010.73785        -7.69470        11.10275
     2010.74058        -1.87590         3.72128
     2010.74332       -17.19911        21.14249
     2010.74606        -5.12632         6.94628
     2010.74880       -11.99953        14.89043
     2010.75154        -8.11373         9.92895
     2010.75416        -7.42910         9.55171
     2010.75701       -11.98015        14.74029
     2010.75975       -14.82936        17.08354
     2010.76249       -10.12457        11.51544
     2010.76522        -6.69477         7.37499
     2010.76796        -6.83698         7.48190
     2010.77070        -2.80619         2.77265
     2010.77344         6.87760         9.68788
     2010.77618       -15.51261        17.06121
     2010.77891       -11.54781        12.59384
     2010.78165       -11.58302        12.31897
     2010.78439        -8.40323         8.98705
     2010.78713        -6.57544         6.41656
     2010.78987        -7.64165         7.32631
     2010.79260       -14.21085        14.67524
     2010.79534       -17.05606        17.99975
     2010.79808        -7.62027         7.01414
     2010.80082        -8.03548         7.44233
     2010.80355        -6.86969         6.03085
     2010.80629        -9.61689         9.16376
     2010.80903       -11.40010        11.08495
     2010.81177        -2.54631         0.78157
     2010.81451        -0.24852         1.94884
     2010.81724        -6.63473         5.49316
     2010.81998        -7.71293         6.55834
     2010.82272       -10.27514         9.65934
     2010.82546       -14.60435        14.44536
     2010.82820       -14.48756        14.49033
     2010.83093       -12.27477        12.40145
     2010.83367        -7.94697         7.36463
     2010.83641       -10.43718         9.82880
     2010.83915       -12.43039        12.11323
     2010.84188       -14.47060        14.31385
     2010.84462       -10.00081         9.33953
     2010.84736        -3.23101         1.41401
     2010.85010        -4.17722         2.57684
     2010.85284        -7.75543         6.72563
     2010.85557        -8.46564         7.57031
     2010.85831       -13.52585        13.38328
     2010.86105       -20.96405        22.25070
     2010.86379       -16.34226        17.02641
     2010.86653       -21.35047        22.90589
     2010.86926       -13.45668        13.87944
     2010.87200       -10.24389        10.20081
     2010.87474       -17.11209        18.51111
     2010.87748       -11.82730        12.40517
     2010.88021       -11.77351        12.14409
     2010.88295       -17.48872        19.20388
     2010.88569       -13.66193        14.41016
     2010.88843       -14.66213        16.29104
     2010.89117       -13.31334        14.87100
     2010.89390       -13.49755        14.47224
     2010.89664       -10.27876        10.91131
     2010.89938        -7.35897         7.82574
     2010.90212       -13.67617        15.13328
     2010.90485       -16.48138        18.50928
     2010.90759        -7.40459         8.26104
     2010.91033       -10.20580        11.68173
     2010.91307       -19.79801        22.77694
     2010.91581       -11.86021        13.83449
     2010.91854       -15.61042        18.23320
     2010.92128       -20.96263        24.60075
     2010.92402       -18.97484        22.48911
     2010.92676       -11.88705        14.81004
     2010.92950       -17.93725        24.54865
     2010.93223       -20.66146        25.43057
     2010.93497       -12.53067        16.29630
     2010.93771        -7.50088        10.77485
     2010.94045        -7.70009        11.29358
     2010.94318       -12.93329        17.17922
     2010.94592       -12.90550        17.78119
     2010.94866       -10.84071        15.82500
     2010.95140       -14.86592        21.01498
     2010.95414       -12.15513        17.44619
     2010.95687       -19.05533        25.31373
     2010.95961       -21.97954        29.38995
     2010.96235       -13.04075        19.19457
     2010.96509       -14.47796        21.23612
     2010.96783       -16.45817        23.73680
     2010.97056       -19.40237        27.29322
     2010.97330       -20.32658        28.71023
     2010.97604       -19.71079        28.05312
     2010.97872       -21.65958        31.68675
     2010.98151       -16.98420        26.03286
     2010.98425       -13.57841        22.33748
     2010.98699       -12.97962        21.65401
     2010.98973       -14.07283        23.71899
     2010.99247       -10.38404        21.10469
     2010.99520       -17.84824        28.65739
     2010.99794       -19.24745        30.21650
     2011.00342       -20.52787        32.45039
     2011.00616       -12.50408        23.29519
     2011.00889       -18.65928        31.68089
     2011.01163       -11.63549        23.27610
     2011.01437       -15.22170        28.19411
     2011.01711       -19.80491        35.51058
     2011.01984       -18.42212        31.70106
     2011.02258       -21.09132        35.14818
     2011.02532       -22.08053        37.57781
     2011.02806       -17.51974        33.21010
     2011.03080       -26.49195        43.42305
     2011.03353       -16.06316        31.54007
     2011.03627       -18.31436        35.66198
     2011.03901       -21.37657        38.26511
     2011.04175        -7.07678        22.76100
     2011.04449       -20.96399        38.29296
     2011.04722       -20.59220        39.00831
     2011.04996       -22.24740        41.57387
     2011.05270       -20.85361        39.27563
     2011.05544       -14.44082        33.31840
     2011.05817       -16.84703        35.13423
     2011.06091       -12.71924        31.11760
     2011.06365       -19.78044        40.54569
     2011.06639       -17.82465        38.59469
     2011.06913       -29.37386        54.48599
     2011.07186       -22.36907        43.60960
     2011.07460       -25.55728        47.71687
     2011.07734       -15.56648        36.85966
     2011.08008       -21.29469        43.52309
     2011.08282       -30.65190        54.90561
     2011.08555       -27.30711        51.48201
     2011.08829       -25.54732        49.86825
     2011.09103       -24.21252        48.94903
     2011.09377       -22.20973        47.68584
     2011.09650       -24.96094        50.91105
     2011.09924       -22.95815        48.48940
     2011.10198       -25.00536        51.68369
     2011.10472       -21.09456        46.92888
     2011.10746       -20.28377        46.57853
     2011.11019       -20.46998        46.86790
     2011.11293       -19.66819        46.82124
     2011.11567       -17.02340        44.53802
     2011.11841       -16.32560        44.24843
     2011.12115       -17.94581        45.78259
     2011.12388       -17.39202        47.37507
     2011.12662       -17.44323        47.46123
     2011.12936       -18.66244        47.73442
     2011.13210       -20.25964        49.56335
     2011.13483       -18.47085        48.19309
     2011.13757       -19.66306        49.92138
     2011.14031       -22.14427        52.89141
     2011.14305       -15.39548        46.91743
     2011.14579       -22.17968        54.45916
     2011.14852       -18.37689        49.63225
     2011.15086       -15.27015        56.05518
     2011.15400       -13.24631        44.65818
     2011.15674       -11.17552        43.12718
     2011.15948       -20.51072        54.81969
     2011.16221       -20.26293        54.06402
     2011.16495       -15.51014        50.17245
     2011.16769       -23.49435        58.61495
     2011.17043       -28.88156        64.95596
     2011.17316       -24.97076        61.46291
     2011.17590       -30.19997        67.10871
     2011.17864       -19.72118        55.93816
     2011.18138       -17.15039        53.67228
     2011.18412       -20.80860        58.59738
     2011.18685       -21.21980        59.15299
     2011.18959       -26.86501        65.60649
     2011.19233       -22.43822        60.92096
     2011.19507       -17.87143        55.85237
     2011.19780       -13.09364        52.27657
     2011.20054       -21.54884        60.41182
     2011.20328       -17.65805        57.40093
     2011.20602       -19.91026        60.52589
     2011.20876       -20.03647        60.82572
     2011.21149       -17.99567        58.93627
     2011.21423       -18.15988        59.28718
     2011.21697       -16.41209        58.11209
     2011.21971       -19.35630        61.88747
     2011.22245       -25.33651        67.58759
     2011.22518       -19.09171        61.08396
     2011.22792       -16.15492        58.33329
     2011.23066       -18.97913        61.02065
     2011.23340       -22.21734        64.78791
     2011.23613       -20.69655        63.74349
     2011.23887       -24.10775        68.43962
     2011.24161       -23.84496        67.83285
     2011.24435       -17.10017        61.83909
     2011.24709       -17.00938        60.77482
     2011.24982       -15.40059        58.38635
     2011.25256       -20.90179        65.17665
     2011.25530       -19.09000        64.27139
     2011.25804       -14.46721        61.22607
     2011.26078        -8.77842        54.57942
     2011.26351       -20.62863        65.01099
     2011.26625       -28.16283        74.17003
     2011.26899       -19.61704        65.21451
     2011.27173       -18.92025        66.29428
     2011.27446       -21.50646        70.73109
     2011.27720       -20.04767        68.72052
     2011.27994       -22.95787        69.38225
     2011.28268       -24.35808        72.25008
     2011.28542       -31.83929        81.02819
     2011.28815       -17.81750        64.48282
     2011.29089       -19.72271        66.57954
     2011.29363       -23.75591        70.98298
     2011.29637       -23.51112        70.89843
     2011.29911       -29.90933        79.23845
     2011.30184       -21.02454        70.77376
     2011.30458       -19.85375        67.26818
     2011.30732       -14.65295        61.32127
     2011.31006       -18.67816        65.69948
     2011.31279       -17.71237        65.45058
     2011.31553       -22.64458        70.83994
     2011.31827       -18.99679        67.65480
     2011.32101       -13.34599        60.78085
     2011.32375       -28.76020        77.99207
     2011.32648       -29.05841        77.88536
     2011.32922       -28.22562        77.68078
     2011.33196       -30.96283        81.65660
     2011.33470       -20.56003        70.48957
     2011.33744       -23.85524        73.24103
     2011.34017       -23.66845        75.80565
     2011.34291       -24.17466        75.40685
     2011.34565       -13.70787        62.50369
     2011.34839       -26.75007        76.97792
     2011.35112       -24.66628        75.11719
     2011.35386       -26.45249        77.88193
     2011.35660       -26.21670        76.11342
     2011.35934       -35.13391        86.73610
     2011.36208       -37.81011        89.88954
     2011.36481       -30.83632        82.96583
     2011.36755       -17.61153        68.54284
     2011.37029       -16.96074        67.00450
     2011.37303       -25.94595        77.62395
     2011.37577       -24.80015        75.58660
     2011.37850       -30.36336        81.58379
     2011.38124       -28.22857        79.11454
     2011.38398       -25.08078        75.90342
     2011.38672       -25.89399        77.34483
     2011.38945       -29.60419        80.73803
     2011.39219       -23.96840        73.90779
     2011.39493       -22.03661        72.42512
     2011.39767       -21.22882        71.83908
     2011.40041       -17.12903        78.78796
     2011.40314       -28.00823        78.35551
     2011.40588       -21.59744        70.70317
     2011.40862       -20.19465        68.68644
     2011.41136       -23.87586        73.61509
     2011.41410       -25.90707        76.43348
     2011.41683       -25.86427        76.06940
     2011.41957       -22.50648        71.05831
     2011.42231       -28.18369        77.23967
     2011.42505       -22.69690        71.80688
     2011.42778       -24.01111        73.34283
     2011.43052       -28.74331        78.99845
     2011.43326       -26.52452        75.28463
     2011.43600       -28.17573        76.79356
     2011.43874       -28.42894        77.14608
     2011.44119       -29.48304        89.92885
     2011.44421       -23.78335        71.45531
     2011.44695       -26.33256        74.62454
     2011.44969       -21.22877        68.76945
     2011.45243       -26.36298        73.48857
     2011.45516       -26.82618        74.94160
     2011.45790       -27.68739        76.13430
     2011.46064       -22.97360        69.81776
     2011.46338       -27.53581        74.50334
     2011.46611       -21.34902        66.93626
     2011.46885       -18.40222        63.11179
     2011.47159       -22.84143        69.25342
     2011.47433       -18.42464        63.47489
     2011.47707       -18.05585        62.44667
     2011.47980       -15.57606        58.82414
     2011.48254       -20.36026        63.80367
     2011.48528       -24.37447        69.83075
     2011.48802       -20.30168        64.37545
     2011.49076       -16.62189        59.91036
     2011.49349       -15.47910        58.47501
     2011.49623       -16.84030        59.12744
     2011.49897       -17.28351        59.38554
     2011.50171       -16.10172        58.15247
     2011.50444       -23.89893        66.97758
     2011.50718       -25.37414        67.85818
     2011.50992       -20.15034        61.34667
     2011.51266       -20.16055        61.53782
     2011.51540       -20.92676        61.87156
     2011.51813       -15.01697        54.87057
     2011.52087       -16.66818        57.23075
     2011.52361       -20.27438        60.20037
     2011.52635       -21.86559        61.69485
     2011.52908       -18.56980        57.02572
     2011.53182       -20.69501        59.01111
     2011.53456       -18.20822        57.19582
     2011.53730       -17.37942        55.12711
     2011.54004       -20.31463        58.51331
     2011.54277       -21.50284        59.34216
     2011.54551       -24.23905        62.39481
     2011.54825       -16.73026        53.34442
     2011.55099       -14.38846        52.08228
     2011.55373       -22.44967        59.26638
     2011.55646       -20.31288        55.77229
     2011.55806       -24.39467       181.13975
     2011.56194       -15.35630        50.04270
     2011.56468       -11.15250        44.36506
     2011.56741       -13.68271        46.74485
     2011.57015       -23.82492        59.09848
     2011.57289       -21.37013        55.03322
     2011.57563       -16.65634        48.87623
     2011.57837        -9.20654        40.69081
     2011.58110       -19.13575        51.14383
     2011.58384       -24.07496        56.95971
     2011.58658       -21.05317        54.84287
     2011.58932       -19.07538        49.99320
     2011.59206       -15.25558        45.57012
     2011.59479       -12.32979        41.68406
     2011.59753       -14.08700        43.39709
     2011.60027       -16.24921        46.11144
     2011.60301       -20.04342        49.55773
     2011.60574       -18.92462        48.13780
     2011.60848        -9.72883        38.17807
     2011.61122       -11.72804        40.54353
     2011.61396       -16.78125        45.19106
     2011.61670       -17.15846        45.13054
     2011.61943       -19.52166        47.47626
     2011.62217        -8.88787        34.47596
     2011.62491       -20.10408        48.52861
     2011.62765       -15.32629        41.44847
     2011.63039       -19.84450        45.89668
     2011.63312       -16.63970        42.01633
     2011.63586       -10.79391        34.90772
     2011.63860        -6.60112        29.95073
     2011.64134        -7.17333        30.92263
     2011.64407       -19.52354        44.48238
     2011.64681       -13.26774        36.80707
     2011.64955       -11.80995        35.10497
     2011.65229       -12.53616        35.59191
     2011.65503       -26.66337        53.71333
     2011.65776       -24.92658        50.62140
     2011.66050       -21.05978        45.99677
     2011.66324       -14.42399        36.12522
     2011.66598       -18.99020        42.01556
     2011.66872       -16.70441        39.10982
     2011.67145       -14.63961        34.58301
     2011.67419       -18.26982        38.98227
     2011.67693       -12.46903        31.71537
     2011.67967       -18.37124        38.10966
     2011.68240       -16.11045        35.69185
     2011.68514       -19.66365        39.45325
     2011.68788       -15.86286        35.30476
     2011.69062       -22.57407        42.76453
     2011.69336       -10.57728        28.01161
     2011.69609       -17.00649        36.07686
     2011.69883       -11.76369        28.99665
     2011.70157       -19.46690        37.82721
     2011.70431       -14.97311        33.05306
     2011.70705       -13.25832        36.61861
     2011.70978       -19.67953        37.36998
     2011.71252       -20.01273        37.66208
     2011.71526       -17.86694        34.95674
     2011.71800       -12.30315        27.98612
     2011.72073        -6.92936        21.21397
     2011.72347        -5.86157        20.81832
     2011.72621       -14.17177        29.21713
     2011.72895       -14.12198        28.85255
     2011.73157       -13.74635        31.89177
     2011.73442       -15.30540        29.68855
     2011.73716       -10.85561        24.72584
     2011.73939       -19.55303        41.66498
     2011.75359       -17.22785        31.27138
     2011.75628        -8.54671        20.81449
     2011.76021       -17.91773        79.44954
     2011.76180       -21.32048        35.13603
     2011.76454       -13.99369        26.26299
     2011.76728       -22.62689        36.54823
     2011.77002       -25.16410        39.90427
     2011.77275       -15.77231        28.87826
     2011.77549       -13.66952        25.43228
     2011.77823       -28.26973        43.27150
     2011.78097       -25.01193        38.58003
     2011.78371       -21.05814        33.47484
     2011.78644       -16.17235        27.18109
     2011.78918       -25.06756        37.65360
     2011.79192       -26.19277        39.24822
     2011.79466       -23.02497        35.32417
     2011.79739       -14.24718        25.02710
     2011.80013       -10.77239        20.33996
     2011.80287       -20.96060        32.46342
     2011.80561       -18.04781        29.89864
     2011.80835       -22.11401        33.45209
     2011.81108       -18.37422        28.97072
     2011.81382       -24.26443        37.41166
     2011.81656       -26.76264        38.71973
     2011.81930       -19.89385        30.72906
     2011.82203       -17.01405        27.92577
     2011.82477       -19.60626        30.13975
     2011.82751       -24.16047        37.91567
     2011.83025       -28.66968        41.37354
     2011.83299       -30.43389        43.10231
     2011.83572       -28.07409        40.53489
     2011.83846       -19.23430        29.92272
     2011.84120       -17.57951        28.03240
     2011.84394       -20.02272        30.27097
     2011.84668       -25.53393        36.93093
     2011.84941       -28.51813        40.76326
     2011.85215       -28.74634        41.08431
     2011.85489       -24.23855        36.75004
     2011.85763       -21.90476        33.64158
     2011.86036       -17.20297        27.54843
     2011.86310       -20.44917        31.88746
     2011.86573       -24.55754        38.98632
     2011.86858       -16.42959        26.88540
     2011.87132       -22.02080        32.87771
     2011.87405       -27.97901        40.14960
     2011.87679       -30.23221        44.21571
     2011.87953       -17.66542        29.30155
     2011.88227       -23.94863        36.09882
     2011.88501       -18.61084        29.84900
     2011.88774       -28.16005        41.51493
     2011.89048       -25.19225        37.89700
     2011.89322       -23.74646        37.64253
     2011.89596       -26.59367        40.19719
     2011.89869       -22.00788        35.28203
     2011.90143       -25.97708        39.64036
     2011.90417       -28.75229        43.13392
     2011.90691       -26.25950        40.68971
     2011.90965       -21.89971        35.57283
     2012.33401     21388.41105         7.45182
     2012.33675     21398.24985         7.30446
     2012.33949     21390.88264         7.19331
     2012.34223     21383.60543         7.12588
     2012.34496     21383.20522         7.16459
     2012.34770     21387.17501         7.35816
     2012.35044     21392.63581         7.23078
     2012.35318     21390.62960         7.27948
     2012.35592     21391.35939         7.22328
     2012.35865     21384.83318         7.15085
     2012.36139     21391.30198         7.12962
     2012.36413     21388.39377         7.11464
     2012.36687     21383.18856         7.19206
     2012.36961     21389.39735         7.30196
     2012.37234     21392.96914         7.40062
     2012.37508     21392.38194         7.18582
     2012.37782     21392.67373         7.28573
     2012.38329     21396.09331         7.33943
     2012.38603     21402.94410         7.51177
     2012.38877     21391.25990         7.48554
     2012.39151     21396.42369         7.30821
     2012.39425     21396.54948         7.30945
     2012.39698     21395.98127         7.35316
     2012.39972     21394.74306         7.22703
     2012.40246     21392.66486         7.17833
     2012.40520     21384.11765         7.28198
     2012.40794     21391.40144         7.13337
     2012.41067     21393.29223         7.21829
     2012.41341     21396.01102         7.34692
     2012.41615     21401.27482         7.44308
     2012.41889     21396.19061         7.47055
     2012.42162     21392.38540         7.20205
     2012.42436     21396.28419         7.22453
     2012.42710     21388.85098         7.19456
     2012.42984     21394.54078         7.23827
     2012.43258     21394.78257         7.35816
     2012.43531     21385.36536         7.28822
     2012.43805     21394.10715         7.20705
     2012.44079     21387.84094         7.23827
     2012.44347     21390.61716         7.47805
     2012.44604     21395.75121         7.94886
     2012.44855     21379.99169         9.38503
     2012.45111     21389.65774         9.96823
     2012.45448     21393.64890         7.22703
     2012.45687     21399.57522         8.61449
     2012.45995     21394.05049         7.41935
     2012.46269     21403.07528         7.66288
     2012.46543     21392.08307         7.36690
     2012.46817     21395.62286         7.32569
     2012.47091     21389.86866         7.25076
     2012.47364     21397.91745         7.30696
     2012.47638     21401.86124         7.31320
     2012.47912     21391.33003         7.26949
     2012.48186     21393.31182         7.23452
     2012.48459     21398.34762         7.21080
     2012.48733     21390.35541         7.27698
     2012.49007     21398.43320         7.38938
     2012.49281     21398.89699         7.29072
     2012.49543     21395.71063         7.60543
     2012.49806     21395.48026         7.84271
     2012.50068     21391.02989         8.54705
     2012.50319     21405.25337         9.95824
     2012.50576     21389.24643        10.73252
     2012.50827     21380.46390        14.92737
     2012.51083     21412.51396        21.03544
     2012.51454     21395.22259         7.59294
     2012.51705     21398.21707         8.94169
     2012.52019     21395.09891         7.38813
     2012.52292     21392.72370         7.28073
     2012.52566     21398.06850         7.24202
     2012.52840     21400.51229         7.18582
     2012.53114     21397.56808         7.46056
     2012.53388     21402.90687         8.86551
     2012.53644     21395.71193         7.87393
     2012.53901     21406.40298         8.80057
     2012.54158     21406.13704         9.19395
     2012.54409     21395.81651        10.48275
     2012.54665     21395.41557        12.90300
     2012.54928     21376.74720        16.35230
     2012.55304     21403.88442         7.22204
     2012.55555     21398.15889         7.66787
     2012.55738     21395.65442        18.86621
     2014.45585     21381.70387         7.24576
     2014.72416     21389.64549         7.31320
     2014.83367     21388.29917         7.34567
     2014.83641     21383.67696         7.39438
     2014.83915     21387.49476         7.35316
     2014.84188     21388.91755         7.67287
     2014.84462     21378.58134         7.43684
     2014.84736     21393.34313         7.65788
     2014.85010     21386.26792         7.39562
     2014.85284     21386.79172         7.41311
     2014.85557     21389.28251         7.61292
     2014.85831     21381.02030         7.45557
     2014.86105     21381.06009         7.29822
     2014.86379     21381.61888         7.32694
     2014.86653     21378.25968         7.29197
     2014.86926     21378.71947         7.21454
     2014.87200     21383.18326         7.33318
     2014.87474     21377.86205         7.24826
     2014.87748     21379.07484         7.29946
     2014.88021     21383.97564         7.23452
     2014.88295     21382.19843         7.44932
     2014.88569     21382.70022         7.56297
     2014.88843     21391.62501         7.76278
     2014.89117     21386.93180         7.70159
     2014.89390     21379.23060         7.69535
     2014.89664     21389.47439         7.49928
     2014.89938     21386.79918         7.66038
     2014.90212     21375.30497         7.66662
     2014.90485     21383.35177         7.58420
     2014.90759     21377.21356         7.63540
     2014.91033     21384.87435         7.36440
     2014.91307     21381.51814         7.31945
     2014.91581     21386.33393         7.25825
     2014.91854     21392.15273         7.34192
     2014.92128     21383.47452         7.32194
     2014.92402     21385.74131         7.20705
     2014.92676     21387.57610         7.44808
     2014.92950     21380.15389         7.41935
     2014.93223     21377.68069         7.43309
     2014.93497     21375.75648         7.41810
     2014.93771     21389.40927         7.44058
     2014.94045     21377.07306         7.41436
     2014.94318     21383.69385         7.66787
     2014.94592     21377.52665         7.28448
     2014.94866     21371.19944         7.22204
     2014.95140     21374.65323         7.16834
     2014.95414     21375.99402         7.22204
     2014.95687     21381.35081         7.16709
     2014.95961     21384.60461         7.17708
     2014.96235     21382.59740         7.27948
     2014.96509     21379.42419         7.47430
     2014.96783     21380.73398         7.31945
     2014.97056     21371.87877         7.38439
     2014.97330     21372.76157         7.28573
     2014.97604     21372.70936         7.37564
     2014.97878     21375.10515         7.28822
     2014.98151     21388.80994         7.35941
     2014.98425     21375.30473         7.25825
     2014.98699     21377.49253         7.33943
     2014.98973     21374.82532         7.11838
     2014.99247     21382.48311         7.17083
     2014.99520     21373.65090         7.47805
     2014.99794     21379.82669         7.18457
     2015.00068     21377.60549         7.05219
     2015.00342     21380.03328         7.21454
     2015.00616     21371.78107         7.16834
     2015.00889     21380.95786         7.39812
     2015.01163     21381.74065         7.58045
     2015.01437     21372.93445         7.35441
     2015.01711     21379.59224         7.55922
     2015.01984     21380.09303         7.30821
     2015.02258     21376.14182         7.58045
     2015.02532     21387.86261         7.36815
     2015.02806     21374.03041         7.38064
     2015.03080     21387.14220         7.34817
     2015.03353     21376.66499         7.18457
     2015.03627     21380.05478         7.24826
     2015.03901     21382.34057         7.40686
     2015.04175     21383.59737         7.39063
     2015.04449     21378.09216         7.26075
     2015.04722     21384.80695         7.91514
     2015.04996     21375.67874         7.43184
     2015.05270     21377.08353         7.18457
     2015.05544     21374.48933         7.31320
     2015.05817     21383.56112         7.23328
     2015.06091     21386.91391         7.24576
     2015.06365     21391.46970         7.54174
     2015.06639     21376.39149         7.34567
     2015.06913     21379.26929         7.23952
     2015.07186     21380.77408         7.24452
     2015.07460     21378.39887         7.15085
     2015.07734     21371.26166         7.20830
     2015.08008     21373.86245         7.29197
     2015.08282     21378.38925         7.08966
     2015.08555     21382.77304         7.29072
     2015.08829     21383.23383         7.20330
     2015.09103     21385.61262         7.24202
     2015.09377     21381.75441         7.13587
     2015.09650     21384.00421         7.28448
     2015.09924     21397.35300         7.38938
     2015.10198     21395.14579         7.48554
     2015.10472     21381.10458         7.25950
     2015.10746     21377.92937         7.27074
     2015.11019     21369.24517         7.46056
     2015.11293     21372.98596         7.31320
     2015.11567     21378.98675         7.28698
     2015.11841     21370.53154         7.26075
     2015.12115     21382.13133         7.33318
     2015.12388     21374.89313         7.27199
     2015.12662     21374.42892         7.22828
     2015.12936     21375.52771         7.20830
     2015.13210     21379.00450         7.20830
     2015.13483     21377.75430         7.35441
     2015.13757     21375.48809         7.28698
     2015.14031     21373.45388         7.17708
     2015.14305     21374.56567         7.16084
     2015.14579     21382.46246         7.27948
     2015.14852     21382.68526         7.28198
     2015.15126     21377.25305         7.17083
     2015.15400     21372.89184         7.18707
     2015.15674     21381.95663         7.23577
     2015.15948     21381.92642         7.25575
     2015.16221     21381.12922         7.25700
     2015.16495     21383.57801         7.24826
     2015.16769     21377.89080         7.15210
     2015.17043     21378.77859         7.09091
     2015.17316     21382.21238         7.49803
     2015.17590     21380.56618         7.40062
     2015.17864     21379.09697         7.20955
     2015.18138     21379.90176         7.19456
     2015.18412     21377.75955         7.13462
     2015.18685     21376.41534         7.18332
     2015.18959     21384.64214         7.28822
     2015.19233     21377.54793         7.40936
     2015.19507     21378.87972         7.22453
     2015.19780     21378.04551         7.36690
     2015.20054     21382.13130         7.31695
     2015.20328     21379.44110         7.25451
     2015.20602     21379.16689         7.42060
     2015.20876     21375.91568         7.10589
     2015.21149     21370.80147         7.24826
     2015.21423     21371.98026         7.34567
     2015.21697     21374.38606         7.22453
     2015.21971     21374.06085         7.21954
     2015.22245     21379.22364         7.23328
     2015.22518     21381.15743         7.14086
     2015.22792     21379.65622         7.09965
     2015.23066     21374.56002         7.23452
     2015.23340     21372.40781         7.44058
     2015.23613     21373.98760         7.42310
     2015.23887     21374.62339         7.59544
     2015.24161     21376.91318         7.53549
     2015.24435     21383.13398         7.64289
     2015.24709     21380.98777         7.36440
     2015.24982     21371.97956         7.24576
     2015.25256     21370.89935         7.14461
     2015.25530     21377.45814         7.23203
     2015.25804     21372.25794         7.11713
     2015.26078     21377.92473         7.12712
     2015.26351     21374.80852         7.21080
     2015.26625     21376.27131         7.06843
     2015.26899     21377.36210         7.17833
     2015.27173     21380.11590         7.35192
     2015.27446     21377.78069         7.40437
     2015.27720     21387.06548         7.12463
     2015.27994     21374.95427         7.13087
     2015.28268     21381.13706         7.18457
     2015.28542     21375.32986         7.39937
     2015.28815     21375.45465         7.35816
     2015.29089     21381.49544         7.31195
     2015.29363     21376.04023         7.25201
     2015.29637     21378.87402         7.18457
     2015.29911     21382.99282         7.15959
     2015.30184     21378.14361         7.11588
     2015.30458     21374.60940         7.20081
     2015.30732     21374.03319         7.04345
     2015.31006     21370.90698         7.04720
     2015.31279     21372.56678         7.06218
     2015.31553     21371.38057         7.13212
     2015.31827     21370.86336         7.02971
     2015.32101     21362.03915         7.11089
     2015.32375     21376.35094         7.08841
     2015.32648     21367.57474         7.17958
     2015.32922     21370.55553         7.21579
     2015.33196     21376.73732         7.11214
     2015.33470     21372.27511         6.97976
     2015.33744     21379.10690         7.04095
     2015.34017     21378.32970         7.28323
     2015.34291     21366.64249         7.09965
     2015.34565     21372.92128         7.10215
     2015.34839     21377.05907         6.98226
     2015.35112     21372.52886         7.03221
     2015.35386     21374.45766         7.14086
     2015.35660     21370.76445         7.07093
     2015.35934     21367.83124         7.15335
     2015.36208     21371.02103         7.14711
     2015.36481     21372.19983         7.03471
     2015.36755     21373.72062         7.18457
     2015.37029     21373.67141         7.10839
     2015.37303     21372.68720         7.03721
     2015.37577     21367.22599         7.27823
     2015.37850     21366.22679         7.12213
     2015.38124     21372.58858         7.05969
     2015.38398     21367.67737         7.15585
     2015.38672     21370.37516         7.05969
     2015.38945     21371.82795         6.99600
     2015.39219     21372.83375         7.14211
     2015.39493     21371.48954         7.05594
     2015.39767     21371.94733         7.11713
     2015.40041     21366.45112         7.18957
     2015.40314     21377.26391         7.24826
     2015.40588     21371.76771         7.12463
     2015.40862     21376.66550         7.30696
     2015.41136     21376.26829         7.06968
     2015.41410     21371.60508         7.10340
     2015.41683     21372.70187         7.17458
     2015.41957     21373.50167         7.23203
     2015.42231     21376.68346         7.22453
     2015.42505     21369.78825         7.27324
     2015.42778     21373.18504         7.19831
     2015.43052     21371.15783         7.26949
     2015.43326     21374.28163         7.21829
     2015.43600     21380.75342         7.20455
     2015.43874     21384.75821         7.01723
     2015.44147     21373.32400         7.29572
     2015.44421     21379.22979         7.19206
     2015.44695     21373.25959         7.12213
     2015.44969     21375.76138         7.16334
     2015.45243     21371.08117         7.28573
     2015.45516     21381.43096         7.17333
     2015.45790     21369.82875         7.24327
     2015.46064     21379.35655         7.34817
     2015.46338     21384.64834         7.40437
     2015.46611     21380.24013         7.18582
     2015.46885     21382.24492         7.15835
     2015.47159     21378.38371         7.19706
     2015.47433     21374.71351         7.40437
     2015.47707     21371.17430         7.33818
     2015.47980     21377.36309         7.53175
     2015.48254     21381.77588         7.25326
     2015.48528     21379.53067         7.14336
     2015.48802     21373.38047         7.10839
     2015.49076     21378.35926         7.18707
     2015.49349     21376.49305         7.40062
     2015.49623     21378.15284         7.26575
     2015.49897     21379.18963         7.27324
     2015.50171     21380.03643         7.37439
     2015.50444     21378.80622         7.23203
     2015.50718     21376.41201         7.15460
     2015.50992     21385.18980         7.10465
     2015.51266     21385.66759         7.29322
     2015.51540     21376.95739         7.17833
     2015.51813     21380.86018         7.25950
     2015.52087     21377.52697         7.29822
     2015.52361     21376.31876         7.34442
     2015.52635     21379.52955         7.16334
     2015.52908     21384.71435         7.30196
     2015.53182     21380.80214         7.13961
     2015.53456     21375.57293         7.21579
     2015.53730     21374.58372         7.36815
     2015.54004     21385.13251         7.42435
     2015.54277     21381.00931         7.41685
     2015.54551     21386.04910         7.33693
     2015.54825     21383.99389         7.47555
     2015.55099     21388.98768         7.46431
     2015.55373     21379.36747         7.34567
     2015.55646     21383.42227         7.36815
     2015.55920     21388.40306         7.50053
     2015.56194     21387.61885         7.36940
     2015.56468     21379.17964         7.21080
     2015.56741     21376.50543         7.38439
     2015.57015     21378.97123         7.47430
     2015.57289     21375.26702         7.59544
     2015.57563     21382.73981         7.29946
     2015.57837     21376.94460         7.18707
     2015.58110     21381.89839         7.35691
     2015.58384     21375.53719         7.24576
     2015.58658     21382.37198         7.33693
     2015.58932     21393.16077         7.52550
     2015.59206     21381.44756         7.48679
     2015.59479     21381.43936         7.28448
     2015.59753     21382.59915         7.38813
     2015.60027     21379.67994         7.51801
     2015.60301     21387.91573         7.48304
     2015.60574     21391.90152         7.58795
     2015.60848     21383.25032         7.30945
     2015.61122     21384.56211         7.31195
     2015.61396     21377.22890         7.32944
     2015.61670     21386.36169         7.32944
     2015.61943     21375.14448         7.51801
     2015.62217     21382.62628         7.25076
     2015.62491     21382.19607         7.12962
     2015.62765     21379.82786         7.11089
     2015.63004     21384.81818         8.03753
     2015.63312     21379.71244         7.24951
     2015.63586     21382.22024         7.29822
     2015.63860     21382.31003         7.12088
     2015.64134     21382.07582         7.18207
     2015.64407     21382.41861         7.25575
     2015.64681     21380.18240         7.43809
     2015.64955     21378.90920         7.36191
     2015.65229     21382.34199         7.20955
     2015.65503     21388.12078         7.31945
     2015.65776     21386.93057         7.36066
     2015.66050     21378.19836         7.38563
     2015.66324     21392.37916         7.15085
     2015.66598     21389.13795         7.38813
     2015.66872     21368.81374         7.43933
     2015.67145     21374.81153         7.26075
     2015.67419     21369.72832         7.08841
     2015.67693     21377.96712         7.13836
     2015.67967     21387.95591         7.51052
     2015.68240     21370.79770         7.18707
     2015.68514     21370.00349         7.27324
     2015.68788     21367.37728         7.27449
     2015.69062     21373.24908         7.18707
     2015.69336     21372.80887         7.48179
     2015.69609     21376.90466         7.33693
     2015.69883     21375.35345         7.26325
     2015.70157     21379.29824         7.13462
     2015.70431     21374.85004         7.19206
     2015.70705     21376.95983         7.02597
     2015.70978     21379.47162         7.16084
     2015.71252     21373.33841         7.66288
     2015.71526     21374.78920         7.21579
     2015.71800     21387.60500         7.48179
     2015.72073     21379.02279         7.26824
     2015.72347     21373.72258         7.19581
     2015.72621     21372.27737         7.16709
     2015.72895     21364.38116         7.28698
     2015.73169     21382.34796         7.38439
     2015.73442     21369.64875         7.11339
     2015.73716     21375.77154         7.13961
     2015.73990     21378.60733         7.31195
     2015.74264     21380.10912         7.35441
     2015.74538     21383.26992         7.48179
     2015.74811     21368.81171         7.40437
     2015.75085     21363.57550         7.16834
     2015.75359     21367.52829         7.28822
     2015.75633     21381.54508         7.26824
     2015.75906     21381.46988         7.29946
     2015.76180     21371.19767         7.10964
     2015.76454     21377.51646         7.18332
     2015.76728     21372.24725         7.35816
     2015.77002     21372.76704         7.61792
     2015.77275     21385.00984         7.49678
     2015.77549     21370.74863         7.38189
     2015.77823     21380.78942         7.36066
     2015.78097     21376.62821         7.30071
     2015.78371     21377.59700         7.17833
     2015.78644     21379.24680         7.19456
     2015.78918     21372.21559         7.22079
     2015.79192     21378.05338         7.25451
     2015.79466     21371.96817         7.17583
     2015.79739     21371.16096         7.37190
     2015.80013     21372.91076         7.54798
     2015.80287     21366.86655         7.56297
     2015.80561     21376.14434         7.23827
     2015.80835     21367.55013         7.24202
     2015.81108     21367.52392         7.56047
     2015.81382     21373.52372         7.55173
     2015.81656     21366.56951         7.41186
     2015.81930     21371.45730         7.29322
     2015.82203     21382.72509         7.59294
     2015.82477     21375.59388         7.39063
     2015.82751     21375.81868         7.27698
     2015.83025     21375.99747         7.90515
     2015.83299     21376.05026         7.53924
     2015.83572     21370.19505         7.49928
     2015.83846     21364.40885         7.40686
     2015.84120     21364.78764         7.31320
     2015.84394     21368.18043         7.35067
     2015.84668     21364.31822         7.28822
     2015.84941     21371.75701         7.53799
     2015.85215     21368.82781         7.38938
     2015.85763     21365.61439         7.39188
     2015.86031     21370.44160         7.88642
     2015.86310     21370.35097         7.32444
     2015.86584     21385.44177         7.65413
     2015.86858     21363.80156         7.43434
     2015.87132     21379.61835         7.56047
     2015.87405     21364.92914         7.37315
     2015.87656     21376.06262         8.34349
     2015.87954     21369.50066         7.35441
     2015.88227     21371.74152         7.44308
     2015.88501     21359.40231         7.28573
     2015.88774     21361.85610         7.13961
     2015.89048     21374.95789         7.47430
     2015.89322     21374.14569         7.36315
     2015.89596     21370.26848         7.41685
     2015.89869     21368.87027         7.37439
     2015.90143     21365.78106         7.22703
     2015.90417     21359.14785         7.24576
     2015.90691     21368.96465         7.34068
     2015.90965     21366.65144         7.20830
     2015.91238     21362.98723         7.31695
     2015.91512     21362.86202         7.26075
     2015.91786     21368.56481         7.28073
     2015.92060     21370.31661         7.29447
     2015.92334     21370.86640         7.46806
     2015.92607     21365.48419         7.55797
     2015.92881     21371.16098         7.47555
     2015.93155     21367.94677         7.71033
     2015.93429     21378.88257         7.80649
     2015.93702     21364.38836         7.73906
     2015.93976     21379.47015         7.72282
     2015.94250     21367.30394         7.46431
     2015.94524     21366.78373         7.48429
     2015.94798     21378.11153         7.49553
     2015.95071     21372.26232         7.12712
     2015.95345     21359.02511         7.32444
     2015.95619     21370.12990         7.57671
     2015.95893     21361.71469         7.59919
     2015.96167     21368.58649         7.47305
     2015.96440     21374.81328         7.30446
     2015.96714     21376.38707         7.46431
     2015.96988     21369.63886         7.28198
     2015.97262     21379.27065         7.31195
     2015.97535     21373.01245         7.31820
     2015.97809     21368.38824         7.22578
     2015.98083     21374.24403         7.32694
     2015.98357     21355.49882         7.30071
     2015.98631     21361.29761         7.30571
     2015.98904     21362.24241         7.27449
     2015.99178     21360.74220         7.24077
     2015.99452     21362.59799         7.18582
     2015.99726     21366.92978         7.50427
     2016.00000     21360.47757         7.27199
     2016.00273     21365.48337         7.42685
     2016.00547     21362.22616         7.22328
     2016.00821     21362.33895         7.34567
     2016.01095     21367.13174         7.47305
     2016.01368     21366.72753         7.29697
     2016.01642     21356.21033         7.41186
     2016.01916     21360.35612         7.65413
     2016.02190     21364.71391         7.34692
     2016.02464     21360.90270         7.31070
     2016.02737     21360.18749         7.35192
     2016.03011     21370.54029         7.41561
     2016.03285     21363.64108         7.29322
     2016.03559     21360.10887         7.09590
     2016.03833     21361.02466         7.37814
     2016.04106     21369.24045         7.32069
     2016.04380     21362.93025         7.46181
     2016.04654     21366.89304         7.20580
     2016.04928     21363.67583         7.16209
     2016.05201     21357.40162         7.15585
     2016.05475     21368.41142         7.35441
     2016.05749     21363.08521         7.28448
     2016.06023     21362.68000         7.24077
     2016.06297     21364.46479         7.20455
     2016.06570     21366.23858         7.34068
     2016.06844     21367.26038         7.51302
     2016.07118     21369.01617         7.62416
     2016.07392     21357.35496         7.50552
     2016.07666     21369.45975         7.60168
     2016.07939     21364.17054         7.38189
     2016.08213     21368.48934         7.55173
     2016.08487     21366.98013         7.30821
     2016.08761     21357.37592         7.21829
     2016.09034     21355.24171         7.26075
     2016.09308     21360.80350         7.31320
     2016.09582     21360.06730         7.30696
     2016.09856     21354.15609         7.37939
     2016.10130     21351.58888         7.29322
     2016.10403     21349.64867         7.28448
     2016.10677     21352.70146         7.18957
     2016.10951     21362.63726         7.45057
     2016.11225     21361.41905         7.35192
     2016.11498     21367.97184         7.40686
     2016.11772     21366.29863         7.37065
     2016.12046     21352.75942         7.21704
     2016.12320     21378.17222         7.59169
     2016.12594     21365.41601         7.37939
     2016.12867     21365.93580         7.30196
     2016.13141     21375.31559         7.24951
     2016.13415     21364.23738         7.23827
     2016.13689     21359.03818         7.18832
     2016.13963     21358.67297         7.26075
     2016.14236     21353.04576         7.21954
     2016.14510     21349.62655         7.18332
     2016.14778     21354.35176         7.27449
