# ================= DQRFIT RESULTS ================
# INPUT FILE: series/GLNW.rad
# OUTPUT: LDETRENDED
# FILTER FUNCTION: f(t)
# f(t)=+line(t)+annual(t)
# line(t)=+P 1+P 2*t
# annual(t)=+P 3*sin(2*pi*t+P 4)
# heav(t)=(t<0?0:1)
# TOTAL OBSERVATIONS MTOT= 1329
# INITIAL TIME INTERVAL= 2011.7586 - 2007.8945 =  3.8641
# TOTAL OBSERVATIONS AFTER PREFILTER M= 1308
# TIME-SPAN= 2011.7586 - 2007.8945 =  3.8641
# OBSERVATIONS: USED M=  1308 REJECTED MTOT-M=    21 %USED=   98.4199
# N=  4 PARAMETERS
# MAXSIG= 175.00000
# MAXRES=  41.20564
# SCALE FACTOR FOR LENGTHS: SCL=  10.00000
# SCALE FACTOR FOR SIGMAS: SCLSIG=   1.00000
# CHI^2=   2004.403 DOF=  1304 CHI^2/DOF=   1.53712
# RMS=      8.132 SDEV=      8.135 MEAN=   -0.02760
#  P #       PARAMETER +-    SIGMA %error PARAMETER NAME
# P 1 =      4920.59606 +-  398.381   8.10 YZERO                              
# P 2 =        -2.44245 +-    0.198   8.11 SLOPE                              
# P 3 =         5.08444 +-    0.294   5.79 ANNUAL AMPLITUDE                   
# P 4 =        -3.04435 +-    0.082   2.68 ANNUAL PHASE                       
#       T            LDETRENDED       SIG_OBS
     2007.89448       -13.90245        33.32599
     2007.89642         2.24127         9.74860
     2007.89852        -0.35259         8.21991
     2007.91332        10.41856        13.45809
     2007.92151       -23.32343        13.87591
     2007.92340        -8.32283         7.95832
     2007.92614         3.40285         7.59133
     2007.92887       -31.12846         8.40341
     2007.93161         0.78623         7.48347
     2007.93435        -3.27208         7.42892
     2007.93709         0.87260         7.52562
     2007.93982        -3.31671         7.37189
     2007.94256        -1.34502         7.40660
     2007.94530         3.26966         7.48347
     2007.94804         0.73535         7.70292
     2007.95078         2.00004         7.53182
     2007.95345        -6.19243         7.54670
     2007.95619        -5.31374         7.44008
     2007.95893       -11.36905         7.46115
     2007.96214        18.77680        18.32557
     2007.96440        13.80732         8.03890
     2007.96695        -5.92847         8.47531
     2007.97081       -10.67004        14.05568
     2007.97182         6.87943        18.58965
     2007.98155         2.93020        10.81855
     2007.98357        -4.47587         7.73143
     2007.98616        11.23046         8.04138
     2007.98962         2.44691        12.58403
     2007.99178        -0.12281         7.81202
     2007.99452       -24.32512         7.60497
     2007.99726       -24.97043         7.73515
     2008.00045       -26.08863         8.95140
     2008.00268        -9.82520         7.38428
     2008.00667       -35.48845        23.44349
     2008.00916       -43.45335        13.75317
     2008.01095         1.72300         8.46788
     2008.01368         2.03369         7.22559
     2008.01642        -1.75362         7.16484
     2008.02013       -17.32957        12.97085
     2008.02190       -12.40825         8.48275
     2008.02736         3.77410        11.51408
     2008.03120       -33.50353        15.02025
     2008.03285        -9.57950         7.22435
     2008.03559        -4.42881         7.18096
     2008.03833         0.19687         7.45867
     2008.04106        -7.21944         7.23675
     2008.04380        -9.27075         7.54670
     2008.04654        -8.17807         7.21319
     2008.04928       -11.60738         7.26650
     2008.05201        -6.78469         7.15368
     2008.05475        -1.96501         7.16360
     2008.05749        -9.65432        10.36106
     2008.06023        -6.91363         7.83929
     2008.06297        -0.11694         6.97763
     2008.16275        13.08777        24.74033
     2008.16427       -21.93552         7.31486
     2008.16659        -8.25386         9.50807
     2008.19542        -0.49742        13.97881
     2008.19712       -10.78328        17.22587
     2008.19960        -3.38423         8.34018
     2008.20265        -1.04777         7.34957
     2008.20533        -1.56722         7.13384
     2008.20807        11.10547         7.63101
     2008.21047       -34.41668         9.76471
     2008.21389         3.74868        12.20589
     2008.21629        -2.19547         7.39296
     2008.22002       -37.63034        32.09858
     2008.22113        -9.90663        10.59166
     2008.22725       -22.09970        13.38123
     2008.23374       -11.27483        19.35089
     2008.23537         4.50215        17.30149
     2008.23902       -52.39893        15.58188
     2008.24053        -4.30726         8.61045
     2008.25289        11.30792        14.37927
     2008.25528         2.78376         9.77711
     2008.25735         3.44084         7.26278
     2008.25901        20.55688        15.96126
     2008.26648        -2.61187        12.86795
     2008.26830        -1.44542         8.74187
     2008.27104        -0.54173         9.05182
     2008.27378         7.79896         8.30546
     2008.27616         7.37078        13.63167
     2008.28294        18.54933        13.90566
     2008.28473         8.33071         7.37685
     2008.28747         7.80539         7.68060
     2008.29021         3.49308         7.33469
     2008.29295        12.85077         9.37541
     2008.29568         8.79446         9.83414
     2008.29842         4.92214         7.12888
     2008.30116         1.63683         7.09665
     2008.30390         1.75452         7.19707
     2008.30663        -3.92580         7.67688
     2008.30937        -4.67011         7.74879
     2008.31211        -2.31142         7.95460
     2008.31462        -3.80429         7.84673
     2008.32126         6.62794        13.50025
     2008.32306        -3.84167         7.46859
     2008.32580         5.50401         9.39525
     2008.32854         2.51170         7.42272
     2008.33096        -2.53438         8.46044
     2008.33493        -1.79770        12.99441
     2008.33675        -1.48424         7.35577
     2008.33949        -4.99755         8.14429
     2008.34120        -7.80737        14.46854
     2008.34521         5.31841         8.51995
     2008.34770         4.35451        11.92941
     2008.35029        -7.16618        16.78573
     2008.35408        -2.14292        12.13026
     2008.35500        -4.67566        12.55056
     2008.35962        24.80063        13.89575
     2008.36139         5.43894        11.50292
     2008.36413        -7.18437        11.21281
     2008.36687        -1.82768         7.56530
     2008.36961        -6.62499         7.43140
     2008.37234        -9.95231         7.13632
     2008.37508        -0.40662        11.92445
     2008.37781         0.93806         8.11453
     2008.38137        13.64374        12.77744
     2008.38329        -2.90756         8.80758
     2008.38603        15.91913         7.22187
     2008.38877        -0.08218         9.58246
     2008.39151         8.37750        10.73300
     2008.39425        -0.04481         6.99375
     2008.39698        -2.05012         7.06070
     2008.39972         3.81856         7.17228
     2008.40212         3.89641         8.25215
     2008.40601         3.24092        11.36034
     2008.40794         4.74562         7.66820
     2008.41067         0.55431         7.40040
     2008.41298        -5.17905         8.86585
     2008.41891         3.68644         7.52810
     2008.42162        -0.29394         7.26898
     2008.42447         4.31000         9.57254
     2008.42710        -7.76957         7.29378
     2008.42984         2.12912         7.49587
     2008.43256         1.30776         7.50827
     2008.44104       -14.51952         8.51871
     2008.44338        -2.84080         9.50187
     2008.44571       -10.07610         9.62709
     2008.45503         1.21265         9.34442
     2008.45722        -2.28501         7.46115
     2008.45995        -8.41132         7.07061
     2008.46269        -2.98963         7.35453
     2008.46543        -5.82595         7.12145
     2008.46718        -5.57268        15.24094
     2008.47464        14.93254        15.04629
     2008.47638         3.96480         7.21443
     2008.47912         0.41449         7.26774
     2008.48186         1.73217         7.53306
     2008.48459       -11.63114         7.53182
     2008.48733        -1.34245         7.31486
     2008.49007        -6.21976         7.23179
     2008.49281        -4.25208         7.48471
     2008.49555       -11.85239         7.51322
     2008.49828         0.65230         7.62853
     2008.50102         2.56298         7.46983
     2008.50376        -6.38433         7.84921
     2008.50650        -4.41664         7.42768
     2008.50924        11.50605         7.44504
     2008.51197       -15.56627         7.35205
     2008.51471         2.93642         7.14500
     2008.51745         4.77511         7.45619
     2008.52019         1.29779         7.48099
     2008.52292        -8.12952         7.74879
     2008.52566         1.17217         7.59381
     2008.52840        -0.84015         7.26650
     2008.53114         6.64254         7.33221
     2008.53388         6.10423         7.62233
     2008.53661        -3.30908         7.42396
     2008.53935         5.72260         7.57026
     2008.54209        -8.01071         7.33841
     2008.54483         6.20298         7.58141
     2008.54757        -2.06234         7.59877
     2008.55030         7.35335         7.26154
     2008.55304         5.07104         7.38924
     2008.55578        -5.06127         7.46859
     2008.55852        -0.55559         7.43140
     2008.56125         0.29010         7.17600
     2008.56399         3.36979         7.26774
     2008.56673        -2.10453         7.55290
     2008.56947        12.90216         7.38305
     2008.57221         9.12285         7.49339
     2008.57494        11.24753         7.79342
     2008.57768        10.72622         7.99179
     2008.58042         9.07791         7.33717
     2008.58316        -9.16340         7.48347
     2008.58590         3.25928         7.43760
     2008.58863         1.07497         7.51942
     2008.59137         1.32266         8.84106
     2008.59411         0.53434         7.22187
     2008.59685         4.64903         7.40784
     2008.59958         0.23472         7.70292
     2008.60232        10.60841         7.88517
     2008.60506        15.23909         7.56034
     2008.60780        25.42578         7.37437
     2008.61054        12.64347         7.28634
     2008.61327         7.73515         7.43016
     2008.61601         9.58884         7.60125
     2008.61875         2.26253         7.38305
     2008.62149         0.32521         7.60001
     2008.62423         7.41690         7.32973
     2008.62696        10.87659         7.60249
     2008.62970         8.40728         7.84301
     2008.63244         6.42596         7.41900
     2008.63514         9.28357         8.53482
     2008.63813         6.67487         9.68289
     2008.64066         2.37605         8.02155
     2008.64339         5.27571         7.33965
     2008.64613        20.53440         7.53058
     2008.64887         2.79409         7.76119
     2008.65160        10.84477         7.46115
     2008.65434         0.99746         7.76615
     2008.65708        10.98715         7.73143
     2008.65982         7.28483         7.98807
     2008.66255        12.77151         7.97195
     2008.66529         9.98121         7.66696
     2008.66803         5.46689         7.71531
     2008.67077        -2.70442         8.62285
     2008.67351         9.53728         7.86781
     2008.67624        17.18596         8.12817
     2008.67898         7.83864         7.51322
     2008.68172         3.43433         7.38305
     2008.68446         3.71902         7.32353
     2008.68720         3.22370         7.36941
     2008.68993        12.16139         7.85045
     2008.69267        -2.64092         7.45247
     2008.69541        12.54477         7.32725
     2008.69815         5.70945         7.37065
     2008.70089        12.13114         7.35825
     2008.70362         5.19183         7.48967
     2008.70636        12.64551         7.34957
     2008.70910         6.25620         7.40660
     2008.71184         9.43889         7.55290
     2008.71457         4.78057         7.31362
     2008.71731         2.05626         7.33965
     2008.72005         6.56895         7.31610
     2008.72279         6.35864         7.51570
     2008.72553        10.01232         7.43512
     2008.72826         7.78401         7.34337
     2008.73100        10.03070         7.41032
     2008.73374        23.71238         7.64712
     2008.73648         0.17107         7.24171
     2008.73921         3.41876         7.36817
     2008.74469         8.13613         7.34213
     2008.74743         5.82282         7.38428
     2008.75017         7.32051         7.37189
     2008.75290         7.77119         7.37809
     2008.75564         4.48788         7.46115
     2008.75838        10.00957         7.51694
     2008.76112        26.43425         7.41528
     2008.76386         6.65094         7.68184
     2008.76659       -14.19637         8.01163
     2008.76933         3.09232         7.34709
     2008.77207         4.75800         7.25535
     2008.77481         7.39769         7.22063
     2008.77754         6.73838         7.25039
     2008.78028         0.05906         7.21567
     2008.78302         4.82175         7.44380
     2008.78576        -0.00656         7.29006
     2008.78850         3.71312         7.54174
     2008.79123        24.86281         7.40660
     2008.79397        -1.27050         7.46487
     2008.79671        27.25419         7.38181
     2008.79945         4.35987         7.21815
     2008.80219         2.36356         7.59009
     2008.80492         7.25425         7.27270
     2008.80766         8.29093         7.33469
     2008.81040        13.74862         7.32973
     2008.81314        14.93031         7.34337
     2008.81587         7.28700         7.85417
     2008.81861         1.30268         7.23055
     2008.82135         3.47837         7.16236
     2008.82409         4.21306         7.27890
     2008.82683         4.21974         7.23055
     2008.82956        11.23943         7.23799
     2008.83230        -6.28088         7.38181
     2008.83504         8.40180         7.22187
     2008.83778        13.44850         7.65580
     2008.84058         2.98833         7.41900
     2008.84325         9.39587         7.11773
     2008.84599        14.07655         7.24171
     2008.84879        -0.22362         7.49215
     2008.85147         3.88893         7.31858
     2008.85420         2.64761         7.45123
     2008.85694        10.43930         7.20699
     2008.85968        30.94599         7.44008
     2008.86242        11.35768         7.40164
     2008.86516       -26.42364         7.84301
     2008.86789        -9.55995         7.49835
     2008.87063         8.93174         7.42396
     2008.87337        -0.32958         7.09293
     2008.87599         7.31783         7.50703
     2008.87914        -1.19547         8.31786
     2008.88158        -5.21952         7.14376
     2008.88432        -1.13083         7.35825
     2008.88706         1.46886         7.27642
     2008.88980         4.55055         7.61489
     2008.89253         6.15323         7.34833
     2008.89527         3.60392         7.24543
     2008.89801         5.43261         7.28510
     2008.90075         2.57029         7.33097
     2008.90326        -0.14158         8.06742
     2008.90724        18.35214        15.49262
     2008.90896         9.51536         7.19583
     2008.91170        11.18304         7.47851
     2008.91444         3.35873         7.23675
     2008.91718         1.93842         7.29378
     2008.91991        12.88010         7.54918
     2008.92265         2.00579         7.39792
     2008.92539         4.19748         7.20699
     2008.92813         2.49116         7.41032
     2008.93086         9.40485         7.30618
     2008.93360         2.45354         7.34461
     2008.93634         0.32723         7.47603
     2008.93908        -5.14809         7.25658
     2008.94182        -2.88040         7.66448
     2008.94455        -0.31071         7.31734
     2008.94729        -2.97603         7.30990
     2008.95003         2.36466         7.51446
     2008.95277         4.25435         7.06318
     2008.95551         5.29903         7.02350
     2008.95824        -0.50128         6.97391
     2008.96098         5.23841         7.17476
     2008.96372         0.40510         7.09541
     2008.96646        12.81878         7.29130
     2008.96919        11.21447         7.10409
     2008.97193        -5.59784         7.14252
     2008.97395        -7.03692        10.43049
     2008.97758        -0.55505         7.66076
     2008.98015         8.67722         8.35629
     2008.98255         9.16309         8.56954
     2008.98540         8.87806         8.30298
     2008.98931       -30.79740        13.24113
     2008.99110        -4.97503         7.48843
     2008.99384        -3.56535         7.61861
     2008.99657       -24.63566         7.24295
     2008.99931       -24.50397         7.68432
     2009.00752        15.53409         7.21691
     2009.01300        28.99446         7.40288
     2009.01574         2.79315         7.45619
     2009.02121       -13.28448         7.42892
     2009.02395        -7.75879         7.40784
     2009.02669       -19.35410         7.20203
     2009.02943        -5.93641         7.47603
     2009.03216       -18.40373         7.22931
     2009.03490        -5.29104         7.04582
     2009.03764       -13.78235         7.11401
     2009.04038        -7.68467         7.13012
     2009.04312        -8.39998         7.06441
     2009.04585       -10.64229         7.14872
     2009.04859        -8.92061         7.09045
     2009.05133       -11.01492         7.02970
     2009.05407        -9.78823         7.20451
     2009.05681        -4.05454         7.04582
     2009.05960        -7.28472         7.26650
     2009.06228        -0.99117         7.16856
     2009.06502        -4.98948         7.09665
     2009.06776        -8.72580         7.14872
     2009.07049        -4.58811         7.04954
     2009.07323        -8.23042         7.06937
     2009.07597        -1.81773         7.13632
     2009.07871        -5.51205         7.33965
     2009.08145        -8.71536         7.06937
     2009.08418        -7.80067         7.45123
     2009.08692        -9.07299         7.28014
     2009.08966        -4.72730         7.10657
     2009.09240        -5.11961         7.14996
     2009.09514        -3.92493         7.10037
     2009.09787         0.42176         7.21691
     2009.10061        -0.14455         7.14996
     2009.10335        -1.43086         7.09417
     2009.10609         2.12282         7.10781
     2009.10839         4.82144         8.94768
     2009.11439       -14.10890         7.37313
     2009.11704        -4.01443         7.23303
     2009.11978         1.62126         7.11029
     2009.12251        -0.61405         7.14748
     2009.12525        -7.30937         7.07061
     2009.12799         2.79032         7.01854
     2009.13073         0.07801         7.21071
     2009.13347        -2.47631         7.17352
     2009.13620        -5.16962         7.13632
     2009.13894        -3.81193         7.14748
     2009.14168        -1.90325         7.13384
     2009.14442        -5.84956         7.12888
     2009.14989       -22.50218         7.53430
     2009.15263        -7.31650         7.20575
     2009.15537        -9.95981         7.28758
     2009.15811        -2.63312         7.37313
     2009.16084        -4.42844         7.34833
     2009.16358        -5.88375         8.22487
     2009.16632       -12.84206         7.73391
     2009.16906        -0.49037         7.50455
     2009.17180         0.35731         7.10905
     2009.17453         1.71800         7.18096
     2009.17727         4.31369         7.41032
     2009.17985         2.22599         7.52686
     2009.18280        -0.14380         7.15988
     2009.18548       -14.23125         7.24295
     2009.18822        -7.49357         7.06070
     2009.19096        -3.05488         7.10905
     2009.19370        -6.46219         7.04582
     2009.19644        -3.45050         7.02474
     2009.19917        -0.80082         7.11649
     2009.20189        -7.13918         7.95336
     2009.20466        -8.15241         7.23303
     2009.20739       -14.67876         7.16608
     2009.21013        -8.47607         7.02102
     2009.21286         0.37462         7.09045
     2009.21560        -3.01570         7.10037
     2009.21834         0.82499         7.04954
     2009.22108         6.20068         7.18468
     2009.22381        -6.18763         7.15988
     2009.22655         7.10505         7.09789
     2009.22929         2.19174         7.18468
     2009.23203        -1.72657         7.12641
     2009.23477         2.35011         7.53678
     2009.23750        -2.87920         7.30618
     2009.24024        -0.94751         7.22559
     2009.24298         3.17518         7.17724
     2009.24572        10.30886         7.51198
     2009.24846         1.25555         7.27394
     2009.25119         0.68624         7.70415
     2009.25393         1.08692         7.52934
     2009.25667        -1.56039         7.15740
     2009.25941        -6.99670         7.24915
     2009.26214        -3.13802         7.17848
     2009.26488         1.18167         7.20451
     2009.26758        -1.54175         7.45495
     2009.27036         1.76105         7.19088
     2009.27310        -4.62127         7.17352
     2009.27583        -1.50358         7.31734
     2009.27857       -16.64589         7.46363
     2009.28131       -14.16521         7.55290
     2009.28405        -6.75552         7.39916
     2009.28679       -34.38783         7.68804
     2009.28952        -7.07314         7.27270
     2009.29226        -3.48646         7.52438
     2009.29500        -5.96077         7.33965
     2009.29774         0.93492         7.37189
     2009.30047        -7.93840         7.28138
     2009.30321        -8.68771         7.35701
     2009.30595        -2.56802         7.28882
     2009.30869         1.31666         7.42272
     2009.31143        -4.33765         7.25411
     2009.31416         7.24904         7.32601
     2009.31690        -7.44627         7.29874
     2009.31964        -5.93159         7.20203
     2009.32238        -6.51690         7.38305
     2009.32512        -2.66721         7.35949
     2009.32785        -5.57753         7.38676
     2009.33059        -4.74784         7.14624
     2009.33333        -6.27215         7.27270
     2009.33607        -9.66146         7.30494
     2009.33880       -10.30378         7.30990
     2009.34154       -12.77909         7.53926
     2009.34428        -7.61940         7.32849
     2009.34702       -19.60872         7.59505
     2009.34976        -8.75703         7.16112
     2009.35249        -6.69234         7.17600
     2009.35523        -9.20366         7.02846
     2009.35797        -0.10697         7.35701
     2009.36071       -13.64228         7.73391
     2009.36344        -6.86559         7.13384
     2009.36618       -13.11491         7.38676
     2009.36892        -3.75422         7.10161
     2009.37166        -6.06153         7.09417
     2009.37440        -7.40485         7.21567
     2009.37713        -7.43816         7.30866
     2009.37987       -19.41947         7.62109
     2009.38261        -0.99478         7.25906
     2009.38535        -8.99710         7.03218
     2009.38809        -9.53541         7.11773
     2009.39082       -10.74072         7.30618
     2009.39356       -10.03804         7.35081
     2009.39630        -4.48335         7.13508
     2009.39904         4.02634         7.20823
     2009.40177        -0.81698         7.13508
     2009.40451        -0.63429         7.14624
     2009.40725         3.10540         7.46115
     2009.40999        -4.91391         7.27394
     2009.41273         2.30977         7.35577
     2009.41546        -6.66354         7.21815
     2009.41820        -2.79985         7.13508
     2009.42094       -12.11117         7.26774
     2009.42368        -7.98448         7.28262
     2009.42642       -11.17079         7.30742
     2009.42915        -1.89110         7.41032
     2009.43189        -7.67342         7.19707
     2009.43463        -1.91673         7.18344
     2009.43737        -1.53704         7.27146
     2009.44010        -9.21936         7.38676
     2009.44284        -7.50167         7.45247
     2009.44558        -6.12098         7.20575
     2009.44832        -7.13930         7.37933
     2009.45106        -5.06261         7.20823
     2009.45379        -9.23792         7.19459
     2009.45653         0.35877         7.18096
     2009.45927        -3.62455         7.25287
     2009.46201        -4.94386         7.14500
     2009.46475        -4.90617         8.19512
     2009.46748         4.69551         7.59009
     2009.47022        -1.13080         7.26650
     2009.47296        -6.97711         7.31610
     2009.47570        -5.73743         7.14624
     2009.47843        -0.93774         7.31610
     2009.48117        -0.86005         7.29254
     2009.48391         1.04064         7.26774
     2009.48665        -8.05668         7.21567
     2009.48939        -4.77099         7.36569
     2009.49212         3.47370         7.22683
     2009.49486        -2.79562         7.38428
     2009.49760        -7.43293         7.30618
     2009.50034        -4.71824         7.14748
     2009.50308        -3.44055         7.42272
     2009.50581        -4.14287         7.22435
     2009.50855         1.13182         7.21443
     2009.51129        18.14351         7.33097
     2009.51403        10.78419         7.20079
     2009.51676        -3.47812         7.20203
     2009.51950        -4.96443         7.39916
     2009.52224        -2.65675         7.13136
     2009.52498        -6.55406         7.20079
     2009.52772        -6.61237         7.18344
     2009.53045        -4.84068         7.35825
     2009.53319        -4.78800         7.21567
     2009.53593        -3.02231         7.16732
     2009.53867        -5.33162         7.29998
     2009.54141        -1.81694         7.30866
     2009.54414         5.06075         7.30742
     2009.54688        -0.48956         7.47479
     2009.54962         2.16613         7.33345
     2009.55236         0.84981         7.11773
     2009.55509         3.15950         7.32601
     2009.55783         9.17819         7.65084
     2009.56057        -3.50713         7.50207
     2009.56331        -1.80344         7.56530
     2009.56605         4.43625         7.70911
     2009.56878        -0.62107         7.21691
     2009.57152        -3.62238         7.28634
     2009.57426         9.92231         7.30122
     2009.57700         6.70600         7.49339
     2009.57974        -2.50332         7.37437
     2009.58247         2.65937         7.32601
     2009.58521         2.88306         7.40164
     2009.58795         1.78774         7.27766
     2009.59069        10.21843         7.22807
     2009.59342         0.21212         7.36693
     2009.59616         7.85581         7.11525
     2009.59890         5.77149         7.33221
     2009.60164        -7.35582         7.42272
     2009.60438         0.72687         7.27394
     2009.60711        -0.54445         7.46983
     2009.60985         2.95124         7.22435
     2009.61259         8.66493         7.50951
     2009.61533         6.23561         7.68804
     2009.61807         8.37530         7.19707
     2009.62080         0.86499         7.36197
     2009.62354        -0.34932         7.23923
     2009.62628         5.49336         7.34957
     2009.62902         3.38905         7.35081
     2009.63175         4.41174         7.32725
     2009.63449        -2.21258         7.18096
     2009.63723        -3.63889         7.74135
     2009.63997         2.77480         7.40164
     2009.64271         5.57749         7.40660
     2009.64544         4.82217         7.37933
     2009.64818         9.94086         7.88517
     2009.65092         0.91555         7.41156
     2009.65366        -2.84577         7.53430
     2009.65639       -13.81608         7.40536
     2009.65913         6.00561         7.42024
     2009.66187        -2.30471         7.35577
     2009.66461        -4.07402         7.22187
     2009.66735         6.98767         7.52934
     2009.67008         0.53436         7.45247
     2009.67282        -9.91396         8.01039
     2009.67556         2.78573         7.31981
     2009.67830         3.81042         7.77358
     2009.68104        -0.47490         7.68556
     2009.68377         3.71779         7.60621
     2009.68651         4.41548         7.28882
     2009.68925         5.71617         7.45371
     2009.69199        -1.67415         7.55662
     2009.69472         0.30554         7.29502
     2009.69746        -1.03777         7.12517
     2009.70020         7.07991         7.31734
     2009.70294        11.89160         7.55042
     2009.70568        -1.63771         7.66076
     2009.70841         2.80297         7.30246
     2009.71115        21.18266         7.69052
     2009.71389         4.32235         7.50703
     2009.71663        28.32204         7.62481
     2009.71937        -1.07928         7.43884
     2009.72210        -3.30659         7.66696
     2009.72484         3.52210         7.41032
     2009.72758        -1.47422         7.37685
     2009.73032         0.25547         7.27890
     2009.73305        -1.09284         7.48595
     2009.73579         7.16184         7.42892
     2009.73853         6.62753         7.27642
     2009.74127        10.36722         7.44008
     2009.74401        15.83791         7.65456
     2009.74674        12.87759         7.41032
     2009.74948         9.06028         7.40536
     2009.75222         8.73597         7.49091
     2009.75496         9.40165         7.31610
     2009.75770         7.21834         7.28634
     2009.76043         2.73403         7.26898
     2009.76317         4.99472         7.24915
     2009.76591         4.33640         7.25039
     2009.76865         3.63309         7.32973
     2009.77138        12.03478         7.22683
     2009.77412         4.11846         7.19583
     2009.77686         6.55515         7.24667
     2009.77960         9.72384         7.28386
     2009.78234        13.81052         7.29998
     2009.78507         4.83221         7.34337
     2009.78781         5.28390         7.49463
     2009.79055         1.06559         7.70415
     2009.79329         4.14227         7.55414
     2009.79603        -1.76304         7.64092
     2009.79876         5.73465         7.50951
     2009.80150         0.54433         7.49339
     2009.80424         5.00902         7.51075
     2009.80698         8.55071         7.47851
     2009.80971         5.29440         7.63473
     2009.81245        15.19808         7.52686
     2009.81519        10.82677         7.43388
     2009.81793        10.30846         7.66076
     2009.82067         5.94214         7.39296
     2009.82340         5.76883         7.26526
     2009.82614        -2.74348         7.60249
     2009.82888        20.06120         7.86781
     2009.83162         2.00489         7.65704
     2009.83436        -1.60542         7.63101
     2009.83709         3.35127         7.44999
     2009.83983         4.66695         7.30246
     2009.84257         8.39964         7.35949
     2009.84531         6.82933         7.55414
     2009.84804         2.52201         7.57769
     2009.85078        -3.90030         7.53554
     2009.85352         1.33639         7.49215
     2009.85626        -0.98692         7.50703
     2009.85900        -1.97324         7.81822
     2009.86173         0.77645         7.56530
     2009.86447         0.07714         7.83185
     2009.86721         5.77982         7.64712
     2009.86995         5.74351         7.54918
     2009.87269         4.66320         7.56406
     2009.87542         2.47288         7.55290
     2009.87816         4.68857         7.80458
     2009.88090         4.67926         7.79590
     2009.88364       -14.25305         7.90004
     2009.88637        10.27263         7.57893
     2009.88911         6.20832         7.44999
     2009.89185        24.59501         8.77039
     2009.89459         0.76669         7.52438
     2009.89733         6.21838         7.43140
     2009.90006        -1.60193         7.29874
     2009.90280         1.38876         7.28758
     2009.90554        -3.72156         7.40784
     2009.90828        -4.40887         7.43760
     2009.91102        -0.55318         7.29502
     2009.91375         4.05750         7.24543
     2009.91649         5.57419         7.45867
     2009.91923        -1.58012         7.26526
     2009.92197        -2.38244         7.18468
     2009.92470        -1.83875         7.23923
     2009.92744        -3.68606         7.24295
     2009.93018        -6.39437         7.31981
     2009.93292        -3.09569         7.23799
     2009.93566         5.72400         7.07681
     2009.93839         4.56869         7.34585
     2009.94113         1.42837         7.11401
     2009.94387        -0.29094         7.29006
     2009.94661         8.26875         7.29750
     2009.94935         7.19544         7.30742
     2009.95208        -9.79388         7.19955
     2009.95482       -21.48719         7.65084
     2009.96030       -28.74882         8.56582
     2009.96303        -2.13213         7.18592
     2009.96577        -8.18444         7.31981
     2009.96851       -12.21076         7.45123
     2009.97125        -5.74607         7.42644
     2009.97399         1.82062         7.23675
     2009.97672        -3.22969         7.08177
     2009.97946        -2.95601         7.10781
     2009.98220        -3.94632         7.01854
     2009.98494        -1.82363         7.07929
     2009.98773        -3.36381         7.27766
     2009.99041        -7.64226         7.00614
     2009.99315        -0.92857         7.12269
     2009.99589        -3.48289         7.07557
     2009.99863       -26.16520         7.22559
     2010.00410        -3.88482         7.69424
     2010.00684        -5.35314         7.14500
     2010.00958       -14.44045         7.43016
     2010.01232         0.04724         7.66324
     2010.01505       -14.32208         7.17724
     2010.01779        -8.57539         7.18840
     2010.02053        -8.82170         7.21939
     2010.02874       -16.04564         7.30122
     2010.03422       -10.73627         7.62357
     2010.03696        -4.56458         7.76862
     2010.03969        -0.26689         7.43636
     2010.04243        -1.75321         7.17724
     2010.04517        -0.09852         7.25163
     2010.04791         5.99017         7.19831
     2010.05065         7.17886         7.31362
     2010.05338         4.57354         7.45991
     2010.05612         5.92223         7.26402
     2010.05886         9.45292         7.15864
     2010.06160         3.70660         7.15740
     2010.06433       -16.36371         7.30370
     2010.06981        -6.95633         7.68556
     2010.07255        -4.13465         7.38924
     2010.07529        -5.10496         7.31114
     2010.07802        -0.60127         7.13260
     2010.08076       -11.52159         7.18840
     2010.08361       -12.06362        11.77568
     2010.08624         2.90679         7.35701
     2010.08898        -1.25353         7.43264
     2010.09171         0.63016         7.16236
     2010.09445         0.90585         7.27270
     2010.09719         1.10654         7.22063
     2010.09993        -3.35078         7.10781
     2010.10266        -1.21509         7.11897
     2010.10540         2.14260         7.19831
     2010.10814         1.41228         7.19955
     2010.11088        -2.03603         7.32849
     2010.11362        -5.04834         7.15864
     2010.11635        -9.94065         7.30990
     2010.11909         0.36803         7.36321
     2010.12183        -5.59928         7.20203
     2010.12457         2.09341         7.21815
     2010.12731        -2.15491         7.29502
     2010.13004        -0.84422         7.26154
     2010.13278        -1.29153         7.26030
     2010.13552        -3.56085         7.19707
     2010.13826        -1.49416         7.12765
     2010.14099         2.82553         7.03466
     2010.14373        -0.59478         7.28882
     2010.14647         2.16990         7.39172
     2010.14921         1.53959         7.30618
     2010.15195        -2.61372         7.05202
     2010.15468        -6.31704         7.09913
     2010.15742        -3.54735         7.18964
     2010.16016         7.17034         7.23179
     2010.16290         0.45203         7.09789
     2010.16564        -0.42829         7.07061
     2010.16837        -3.19660         7.20947
     2010.17111        -2.32291         7.12145
     2010.17385         2.02477         7.13012
     2010.17659         5.06646         7.08301
     2010.17932         7.63415         7.11153
     2010.18206         5.73883         7.24791
     2010.18480         6.65652         7.06441
     2010.18754         1.02121         7.09169
     2010.19028         9.87390         7.36817
     2010.19301         3.77058         7.26278
     2010.19575         5.73227         7.05574
     2010.19849        -2.01604         7.21319
     2010.20123        -5.23136         7.12021
     2010.20397         0.62033         7.33965
     2010.20670        -1.41498         7.33841
     2010.20944        -8.95930         7.06937
     2010.21218        -5.81761         7.16112
     2010.21492         2.28008         7.12269
     2010.21765       -10.90023         7.32353
     2010.22039         3.64745         7.22683
     2010.22313        -5.17386         7.11153
     2010.22587        -2.35217         7.27146
     2010.22861         1.68751         7.25411
     2010.23134       -19.17680         7.51446
     2010.23408        -7.90911         7.29998
     2010.23956        -7.27274         7.48347
     2010.24230        -2.08405         7.77978
     2010.24503         3.50364         7.43636
     2010.24777        -0.74468         7.42520
     2010.25051         0.81401         7.67688
     2010.25325        -1.67230         7.35701
     2010.25598         0.07038         7.49959
     2010.25872         7.74907         7.45123
     2010.26146       -22.62724         7.74879
     2010.26420         8.70245         7.70539
     2010.26694       -11.45887         7.39792
     2010.26967        19.30782         7.39668
     2010.27241        -0.22649         7.40164
     2010.27515         1.51119         7.37685
     2010.27789        -0.20912         7.33593
     2010.28062         3.55657         7.55910
     2010.28336        -3.93774         7.36197
     2010.28610        -7.37206         7.55290
     2010.28884         2.34863         7.13508
     2010.29158         1.04132         7.36569
     2010.29431        -0.09200         7.37933
     2010.29705         0.49469         7.23303
     2010.29979         2.03838         7.47603
     2010.30253         6.67006         7.35701
     2010.30527         8.39875         7.52934
     2010.30800         2.91844         7.35081
     2010.31074         8.72113         7.60001
     2010.31348         2.81881         7.32229
     2010.31622         7.12050         7.27766
     2010.31895         0.38119         7.53678
     2010.32169         8.13287         7.26402
     2010.32443        11.70856         7.32353
     2010.32717         1.07125         7.19583
     2010.32991        15.06794         7.25906
     2010.33264        22.59862         7.16360
     2010.33538        -8.03769         7.87649
     2010.33812        -4.02000         7.25163
     2010.34086         2.71268         7.19088
     2010.34281       -15.53056        11.81659
     2010.35527        -1.12212        11.39010
     2010.35728         0.94081         7.31114
     2010.36002        -2.04151         7.44875
     2010.36276         5.49918         7.11277
     2010.36550        -5.93713         7.50703
     2010.36824        -0.80045         7.51942
     2010.37097         4.25524         7.32973
     2010.37371         0.21393         7.27146
     2010.37645         2.18062         7.22435
     2010.37919         5.05030         7.43884
     2010.38193        -7.19601         7.50951
     2010.38466        -5.57032         7.40784
     2010.38740         4.80636         7.29750
     2010.39014         4.02305         7.35329
     2010.39288        -0.66526         7.29626
     2010.39920         1.40218        11.85007
     2010.40109        -2.59920         7.21691
     2010.40383        -2.48551         7.06689
     2010.40657        -0.36383         7.07061
     2010.40930        -4.51814         7.35701
     2010.41204        -3.99945         7.09541
     2010.41478        -0.13377         7.35081
     2010.41752        -5.92808         7.17600
     2010.42026         2.01661         7.23675
     2010.42299        -0.98470         7.29130
     2010.42573        -6.51802         7.16360
     2010.42847        -4.09133         7.17848
     2010.43121         3.24836         7.18964
     2010.43394        -8.88996         7.02226
     2010.43668         2.86273         7.33345
     2010.43942        17.17342         7.10905
     2010.44216        -6.08990         6.96647
     2010.44490        -5.88121         7.02846
     2010.44763       -12.80552         7.13260
     2010.45037        -5.13083         7.20203
     2010.45311         6.32785         7.07433
     2010.45585        -7.02046         7.20823
     2010.45859        -6.20677         7.14376
     2010.46132        -5.04709         7.49463
     2010.46406        -6.33540         7.11401
     2010.46680        -6.59071         7.08549
     2010.46954        -1.61903         7.18468
     2010.47227       -12.59334         7.04086
     2010.47383        -7.37553        20.64029
     2010.47851        -2.64611        11.86122
     2010.48049         0.00572         7.59753
     2010.48323         9.54341         7.23675
     2010.48596        16.00610         7.26526
     2010.48870         2.29878         7.43636
     2010.49144        -2.75953         7.33965
     2010.49418        -3.19184         7.12145
     2010.49692         4.30085         7.21319
     2010.49965         4.32553         7.08921
     2010.50239         1.49222         7.04086
     2010.50513         0.10991         7.07433
     2010.50787         1.95159         7.37561
     2010.51060        -0.08672         7.06937
     2010.51334         3.37597         7.08177
     2010.51608        -5.31935         7.03218
     2010.51882        -5.49466         7.05326
     2010.52156         3.23403         7.43512
     2010.52429         2.77072         7.25411
     2010.52703         0.39940         7.70168
     2010.52977         3.81609         7.12641
     2010.53251        -0.54922         7.05574
     2010.53525        -4.85854         7.08177
     2010.53798        -3.68085         7.16112
     2010.54072         3.52684         7.17104
     2010.54346        -2.19147         7.14128
     2010.54620         6.38321         7.11525
     2010.54893        -0.55410         7.27518
     2010.55167         0.48159         7.14376
     2010.55441        11.93827         7.37685
     2010.55715         2.51596         7.09169
     2010.55989         0.91365         7.07557
     2010.56262         6.20933         7.26526
     2010.56536        -0.21798         7.18716
     2010.56810         0.58671         7.25163
     2010.57084         4.22540         7.11401
     2010.57357        -2.30892         7.20575
     2010.57631         2.21877         7.24543
     2010.57905        -9.76754         7.37561
     2010.58179         0.88614         7.26402
     2010.58409        -3.05424         8.71708
     2010.58726        -2.16348         7.34709
     2010.59000        -4.54479         7.39916
     2010.59274         5.93589         7.32353
     2010.59548         3.05158         7.23179
     2010.59822         6.07827         7.56778
     2010.60095        -1.07705         7.31362
     2010.60369         4.12464         7.22807
     2010.60643         0.62733         7.14872
     2010.60917        -6.36299         7.17352
     2010.61190         1.60570         7.23799
     2010.61464        -0.39361         7.25658
     2010.61738        -0.12392         7.09293
     2010.62012        -0.16124         7.12517
     2010.62286         1.47245         7.16980
     2010.62559         5.58114         7.13756
     2010.62833         6.37682         7.79714
     2010.63107        -2.04949         7.42892
     2010.63381         1.70820         7.15864
     2010.63655         6.77489         7.26154
     2010.63928         8.27057         7.11153
     2010.64202         5.10926         7.14004
     2010.64476        -4.56705         7.21071
     2010.64750         0.44063         7.04210
     2010.65023         2.48532         7.35825
     2010.65297         5.66301         7.42520
     2010.65571        10.82169         7.04210
     2010.65845        -0.34562         6.98011
     2010.66119         9.32007         7.08549
     2010.66392        14.96476         7.09045
     2010.66666         2.27944         7.16856
     2010.66940        -1.72687         7.09045
     2010.67214         3.66182         7.28262
     2010.67415        23.75474        10.59538
     2010.68395         0.01867        12.11414
     2010.68583         3.11925         7.00738
     2010.68845        10.43966         7.27518
     2010.69130         2.28663         7.26402
     2010.69404         6.82431         7.10781
     2010.69678         7.22600         7.17848
     2010.69952         2.10069         7.03094
     2010.70225         0.63637         7.04706
     2010.70499         9.78206         7.04582
     2010.70773         6.82475         7.35329
     2010.71047         3.02244         7.14624
     2010.71321         4.24812         7.33345
     2010.71594        11.72581         7.14748
     2010.71868        14.12950         7.14004
     2010.72142         8.27118         7.11277
     2010.72416         7.35287         7.23055
     2010.72689        11.66956         7.54298
     2010.72963        -0.49976         7.09665
     2010.73237         6.82193         7.13012
     2010.73511        13.41762         7.32229
     2010.73785        15.92131         7.64712
     2010.74058         2.35799         7.39544
     2010.74332        -4.42032         7.05202
     2010.74606         4.53437         7.14376
     2010.74880        11.32905         7.27146
     2010.75154         8.46574         7.28138
     2010.75427        11.03243         7.27022
     2010.75701         9.96612         7.21319
     2010.75975         5.90380         6.96399
     2010.76249         7.09049         7.06318
     2010.76522         7.47318         7.03838
     2010.76796         7.01586         7.39048
     2010.77070         3.98055         9.05306
     2010.77344        -1.19976         7.59133
     2010.77618         2.41092         7.10533
     2010.77891         3.62061         7.11649
     2010.78165         0.69730         7.02102
     2010.78439         5.19099         7.15616
     2010.78713        23.80767         7.79714
     2010.78987         9.57336         7.02350
     2010.79260         5.96305         6.98135
     2010.79534         3.90573         7.05822
     2010.79808         4.27442         7.02970
     2010.80082         2.84911         7.05946
     2010.80355         9.46880         7.04458
     2010.80629        11.14948         7.43388
     2010.80903         6.91317         7.23923
     2010.81534         6.88958        12.41666
     2010.81724        10.52923         7.21071
     2010.81998        12.84792         7.33841
     2010.82272         4.27160         7.08797
     2010.82546         0.19729         7.09789
     2010.82820         9.99998         7.09169
     2010.83093         4.39767         7.47851
     2010.83367        -0.87165         7.49835
     2010.83641        -7.21296         7.40660
     2010.83915         5.82373         7.22435
     2010.84188         0.95841         7.04086
     2010.84462         4.77910         7.10161
     2010.84736        10.49079         7.19459
     2010.85010        10.84748         7.42272
     2010.85284        17.36116         7.06070
     2010.85557         4.19285         7.11029
     2010.86105        -5.57178         7.10161
     2010.86379        -3.66909         7.15120
     2010.86653        -4.95740         7.19211
     2010.86926        -3.80272         7.59877
     2010.87200        -3.96203         7.19955
     2010.87474       -10.27134        10.95245
     2010.87748        -4.39665         7.23179
     2010.88021        -5.65497         7.36569
     2010.88295         8.12072         7.20203
     2010.88569         3.97941         7.03590
     2010.88843        -1.33891         7.30618
     2010.89117        10.88678         7.29254
     2010.89390         6.20547         6.87844
     2010.89664        14.87816         6.88836
     2010.89938        15.83984         6.88588
     2010.90212        12.66853         6.89208
     2010.90395        -5.18400        11.78932
     2010.91125        17.00184        12.83075
     2010.91307         1.47828         6.83877
     2010.92402         7.25003         6.98259
     2010.92676         5.30371         7.04334
     2010.92950         8.64440         6.89208
     2010.93223         8.53309         7.23675
     2010.93497        28.26177         7.10781
     2010.93771       -25.57754         9.50311
     2010.94045        -3.92885         7.09665
     2010.94295         0.83225         7.76862
     2010.94866        -4.92079         7.04706
     2010.95140        -2.08710        10.10070
     2010.95348        10.58398        11.72485
     2010.95777        42.05446        13.20022
     2010.95961        31.81696         7.53802
     2010.96235        -9.78336         6.94787
     2010.96509         4.40433         6.85489
     2010.96783       -11.25498         6.91440
     2010.97330         3.30839        10.89790
     2010.97878       -13.67523         7.51570
     2010.98425       -29.21986         7.15864
     2010.98973        11.88151         8.51127
     2010.99247         1.12120         7.25906
     2010.99520         3.88089         7.11401
     2010.99794        -5.33842         6.85117
     2011.00342         1.80195         6.86357
     2011.00616         4.89964         6.85241
     2011.00889         2.94432         7.03218
     2011.01163        16.96901         6.99747
     2011.01437        20.77470         6.94787
     2011.01711        -1.26161         7.35329
     2011.01984        -1.41793         7.23551
     2011.02258        -2.22824         6.90200
     2011.02532        -1.72055         7.09541
     2011.02806        -0.12987         7.28262
     2011.03080       -16.89318         7.36197
     2011.03353       -10.02849         7.28510
     2011.03627        -7.64481         7.27022
     2011.03901       -13.55612         6.99375
     2011.04175       -14.66543         7.61489
     2011.04444       -19.16486         7.34213
     2011.04738         1.17831         8.92288
     2011.04996        -2.53137         6.95407
     2011.05270        -8.70168         7.37065
     2011.05544         1.40000         7.01358
     2011.05817         2.48369         7.02350
     2011.06091         6.92438         6.89952
     2011.06365         3.75007         7.07557
     2011.06639        -1.65025         7.04830
     2011.06913        -4.71456         7.32973
     2011.07186        -5.40987         7.14376
     2011.07460       -11.22419         7.05574
     2011.07734        -1.33750         7.08053
     2011.08008        -8.27281         6.86357
     2011.08282       -16.28113         7.02722
     2011.08555       -16.06544         7.12641
     2011.08829       -10.08275         6.98631
     2011.09103        -0.28806         7.06565
     2011.09377        -0.19138         7.23055
     2011.09650        -9.21669         6.96275
     2011.09924        -4.43100         7.38800
     2011.10198       -11.23932         7.22311
     2011.10472         1.08637         6.97019
     2011.10746        -4.36094         6.92556
     2011.11019        -3.01425         6.84001
     2011.11293        -1.03857         7.09045
     2011.11567        -6.17388         7.12393
     2011.11841         3.78681         7.07557
     2011.12115        -4.14251         7.15492
     2011.12388        -6.27282         7.50827
     2011.12662        24.48187         7.28138
     2011.12936         1.08855         6.88464
     2011.13210        -1.59776         6.89580
     2011.13483        -6.43307         6.87348
     2011.13757        -2.08038         6.94415
     2011.14031        -1.65770         6.92432
     2011.14305        -1.76501         7.04706
     2011.14579        -3.93232         7.08425
     2011.14852        -1.16364         6.79910
     2011.15126        -1.92195         6.78794
     2011.15400        -1.78426         6.91440
     2011.15674        -7.04157         7.07557
     2011.15948        -7.26889         7.42768
     2011.16164       -23.00261         9.18076
     2011.16590        12.24080        14.05816
     2011.16769        -8.57083         6.93176
     2011.17043       -12.17514         6.99994
     2011.17590        -7.06677         6.84869
     2011.17864         1.03492         6.83505
     2011.18138       -20.50339         8.08973
     2011.18412       -10.80470         6.97515
     2011.18685       -16.42602         7.11649
     2011.18959         1.59767         7.05822
     2011.19233        -6.71564         6.93671
     2011.19500        -9.65813         7.16484
     2011.19858        -5.16438        10.67349
     2011.20054       -10.85358         7.16112
     2011.20328        -2.41390         7.26154
     2011.20602        -1.40521         9.87382
     2011.20876        -8.50952         7.07185
     2011.21149        -9.06683         7.18096
     2011.21423         0.50985         7.03218
     2011.21697        -1.62546         7.34461
     2011.21971         5.37723         7.23427
     2011.22245        -3.32909         7.03218
     2011.22518        -0.05740         7.09789
     2011.23066       -32.63102         7.08797
     2011.23340        -6.68034         7.09417
     2011.23613        -0.21065         6.96523
     2011.23887       -11.62596         6.96523
     2011.24161        -1.77428         7.26898
     2011.24435       -16.39159         7.27270
     2011.24709        -3.82890         6.97391
     2011.24982        -5.12422         7.12641
     2011.25256         3.63847         6.97639
     2011.25530        -7.45484         6.98755
     2011.25804        -1.42315         7.19211
     2011.26078        -5.35047         7.14376
     2011.26351        -1.12478         6.98879
     2011.26625        -5.29009         7.00490
     2011.26899         3.66459         6.97887
     2011.27173        12.50328         7.29626
     2011.27446        -2.96303         7.24171
     2011.27720        -9.60434         7.22559
     2011.27994        -8.84666         6.98135
     2011.28268       -13.67697         7.07929
     2011.28502       -21.44626         8.65757
     2011.28815       -10.28860         6.98507
     2011.29089        -5.23391         6.96771
     2011.29369        -4.10008         7.04086
     2011.29637        -4.06254         6.89704
     2011.29911         0.08915         6.83257
     2011.30184         8.82884         7.23427
     2011.30441        -8.26589         7.51446
     2011.30720         2.24393         7.39048
     2011.30989        -1.00052         7.64340
     2011.31279        -2.49141         6.98507
     2011.31553         8.66927         6.97515
     2011.31827        -3.84804         7.02598
     2011.32101        -7.88035         6.98507
     2011.32375        -5.21066         6.97019
     2011.32648        -9.30998         6.88836
     2011.32879       -12.15834         8.39473
     2011.33309         0.88615        15.31656
     2011.33470       -12.77192         7.14624
     2011.33744        -7.11023         7.05078
     2011.34017         8.41546         7.60249
     2011.34291        -0.24286         7.14004
     2011.34565         0.92383         7.12888
     2011.34839        -2.33548         7.18468
     2011.35112       -13.72279         7.06813
     2011.35386       -11.22811         7.09169
     2011.35660        -1.25842         7.03590
     2011.35934       -16.56773         6.99747
     2011.36208        -9.35505         6.88712
     2011.36481        -4.99136         7.16856
     2011.36755       -10.92767         7.22311
     2011.36951       -17.88189        11.90462
     2011.38502         5.26499        13.91682
     2011.38672        -8.72886         6.99871
     2011.38945        -6.99818         7.11401
     2011.39219        -4.35049         7.07681
     2011.39493        -7.42880         7.08301
     2011.39767        -2.94611         7.11401
     2011.40041         1.30357         7.15988
     2011.40314        -7.55174         7.05574
     2011.40588       -10.01405         7.18468
     2011.40862        -5.27237         6.99994
     2011.41136        -5.18068         7.08053
     2011.41410       -11.32099         7.03218
     2011.41683        -2.02930         7.00986
     2011.41957        -4.06762         7.08797
     2011.42231       -11.76293         7.02970
     2011.42505        -4.30024         7.00242
     2011.42778        -4.08556         7.14128
     2011.43052        -9.93087         7.25782
     2011.43326       -15.93218         7.08301
     2011.43600       -16.82850         7.04086
     2011.43874        -9.79381         7.08921
     2011.44147        -9.56212         7.10285
     2011.44421        -9.87343         7.05078
     2011.44695         1.13625         7.31114
     2011.44969        -6.82206         7.12641
     2011.45243       -11.67637         7.12517
     2011.45516        -9.80269         7.03962
     2011.45790       -12.85300         7.07557
     2011.46064         6.82969         7.29130
     2011.46338       -11.50463         7.14872
     2011.46611        -5.08594         7.13136
     2011.46885        -1.36525         7.25039
     2011.47159        -9.62956         7.27394
     2011.47433        -1.90088         7.37437
     2011.47707         0.10481         7.09169
     2011.47980        -5.75450         7.15492
     2011.48254        -1.24982         7.14128
     2011.48528       -10.79013         7.12021
     2011.48802        -0.07544         7.10905
     2011.49076        -0.47475         7.17724
     2011.49241        -1.54071        19.10417
     2011.49711         4.83477        11.66781
     2011.49897        -2.17969         7.16112
     2011.50171         1.28299         7.72275
     2011.50444        -9.79732         7.17972
     2011.50718        -3.90363         7.13260
     2011.50992       -13.91295         7.37313
     2011.51266         6.54874         7.28262
     2011.51540        -7.99057         7.34833
     2011.51813        -1.72088         7.14872
     2011.52087        -3.75520         7.13880
     2011.52361        -4.58951         7.17476
     2011.52637        -4.83576         7.45371
     2011.52908         1.44586         7.45743
     2011.53182         0.49255         7.24047
     2011.53456        -0.44376         7.01978
     2011.53730         4.25293         7.09789
     2011.54004        -0.21339         7.10161
     2011.54277        -1.98170         7.12393
     2011.54551        -3.05501         7.25039
     2011.54825         2.10667         7.11277
     2011.55099        19.05736         7.21939
     2011.55373        -5.11695         7.21319
     2011.55646        -0.71027         7.06070
     2011.55920        -2.13258         7.13260
     2011.56194        10.64311         7.65332
     2011.56468         6.35380         7.07309
     2011.56741         1.49448         7.10533
     2011.57015        -6.17983         7.23303
     2011.57289        -1.23614         7.29626
     2011.57563         8.63554         7.22063
     2011.57837         2.14023         7.12393
     2011.58110        -0.29808         7.44256
     2011.58384        -6.52239         7.36693
     2011.58658        -2.06071         7.75499
     2011.58932        -7.92102         7.33841
     2011.59206         2.76867         7.15864
     2011.59479        13.50335         7.07061
     2011.59753         5.09004         7.24047
     2011.60027         3.85673         7.22931
     2011.60301         3.94241         7.22807
     2011.60574         9.53710         7.20699
     2011.60848        11.81179         7.54174
     2011.61122         3.41648         7.47479
     2011.61396         4.37016         7.78970
     2011.61670        -8.81115         7.27518
     2011.61943        11.68654         7.39296
     2011.62217        -1.11878         7.33593
     2011.62491         8.07291         7.33841
     2011.62765         7.67060         7.14996
     2011.63039         2.13829         7.16484
     2011.63312         8.00797         7.09541
     2011.63586         6.02566         7.04334
     2011.63860        17.78835         7.33097
     2011.64134        12.02203         7.83062
     2011.64407         2.43072         7.22931
     2011.64681         8.58141         7.16732
     2011.64955         7.67309         7.52438
     2011.65229         2.53978         7.28262
     2011.65503         6.32547         7.53058
     2011.65776         4.04516         7.53058
     2011.66050         3.36884         7.85665
     2011.66324         5.22953         7.19088
     2011.66598         1.12522         7.30494
     2011.66872         3.37090         7.40412
     2011.67145        10.04359         7.12641
     2011.67419         4.83228        13.71597
     2011.67693        15.67397         7.13508
     2011.67967         7.44465         7.07681
     2011.68240         1.68934         7.29874
     2011.68514         9.57803         7.31362
     2011.68788        -1.49129         7.32973
     2011.69062         4.53840         7.33097
     2011.69336         3.20309         7.27270
     2011.69609         4.99177         7.27022
     2011.69883         6.10146         7.37437
     2011.70157         7.21215         7.26030
     2011.70431         1.01384         7.28386
     2011.70705        -0.60148         7.32849
     2011.70978        19.32421         7.55414
     2011.71252        10.93090         7.52190
     2011.71526         6.72258         7.77606
     2011.71800        13.36727         7.39048
     2011.72073         8.27196         7.16360
     2011.72347        16.07364         7.38924
     2011.72621        10.83433         7.25039
     2011.72895        12.45602         7.15864
     2011.73169        15.62871         7.47355
     2011.73442         2.36839         8.03146
     2011.73716        11.12508         7.27642
     2011.73990         6.78977         7.23675
     2011.74264         6.83945         7.07681
     2011.74538         6.63014         7.85293
     2011.74811        20.08883         7.49339
     2011.75085        12.61252         7.28882
     2011.75359        11.60420         7.27146
     2011.75633        14.08789         7.21691
     2011.75862        12.44850         8.60177
