# ================= DQRFIT RESULTS ================
# INPUT FILE: series/GR8V.rad
# OUTPUT: LDETRENDED
# FILTER FUNCTION: f(t)
# f(t)=+line(t)+annual(t)
# line(t)=+P 1+P 2*t
# annual(t)=+P 3*sin(2*pi*t+P 4)
# heav(t)=(t<0?0:1)
# TOTAL OBSERVATIONS MTOT= 1916
# INITIAL TIME INTERVAL= 2008.3203 - 2003.0582 =  5.2621
# TOTAL OBSERVATIONS AFTER PREFILTER M= 1912
# TIME-SPAN= 2008.3203 - 2003.0582 =  5.2621
# OBSERVATIONS: USED M=  1912 REJECTED MTOT-M=     4 %USED=   99.7912
# N=  4 PARAMETERS
# MAXSIG= 175.00000
# MAXRES=  23.68222
# SCALE FACTOR FOR LENGTHS: SCL=  10.00000
# SCALE FACTOR FOR SIGMAS: SCLSIG=   1.00000
# CHI^2=   1652.407 DOF=  1908 CHI^2/DOF=   0.86604
# RMS=      5.703 SDEV=      5.705 MEAN=    0.04187
#  P #       PARAMETER +-    SIGMA %error PARAMETER NAME
# P 1 =      3244.25009 +-  171.773   5.29 YZERO                              
# P 2 =        -1.60692 +-    0.086   5.33 SLOPE                              
# P 3 =         1.42993 +-    0.187  13.05 ANNUAL AMPLITUDE                   
# P 4 =        -1.93411 +-    0.064   3.29 ANNUAL PHASE                       
#       T            LDETRENDED       SIG_OBS
     2003.05818         8.47378         5.93824
     2003.06092        11.49618         6.09459
     2003.06366         4.38157         6.10575
     2003.06640        -5.47103         6.04061
     2003.06914         4.51637         6.19137
     2003.07187         6.70277         6.15973
     2003.07461         9.27017         6.24349
     2003.07735        -8.10243         6.03968
     2003.08009        -1.74303         6.20533
     2003.08282        -1.55063         6.13460
     2003.08556         5.74177         6.19695
     2003.08830         4.61717         6.10575
     2003.09104        -1.17043         6.11971
     2003.09378         3.78997         6.11785
     2003.09651        13.61737         6.14949
     2003.09925         9.91477         6.21650
     2003.10199         9.82417         6.22673
     2003.10473        12.49457         6.03596
     2003.10747         6.86997         6.13553
     2003.11020         7.84037         6.29467
     2003.11294         2.88477         6.88096
     2003.11568         9.14217         6.33096
     2003.11842        13.35856         6.44915
     2003.12115         0.43496         6.17462
     2003.12389         0.03436         6.20533
     2003.12937         6.28216         6.25931
     2003.13211        -6.35544         6.21091
     2003.13484        -0.44704         6.06760
     2003.13758        -5.53964         5.79679
     2003.14032         3.47376         5.66930
     2003.14306        -0.38084         5.77073
     2003.14580         0.82756         5.74095
     2003.14853        -0.07004         5.66557
     2003.15127       -18.89364         5.80889
     2003.15401         5.50676         5.69442
     2003.15675         2.79316         6.02293
     2003.15948         0.54356         5.60695
     2003.16222         1.97296         5.79772
     2003.16496         4.96836         5.77073
     2003.16770         5.13476         5.72979
     2003.17044         2.74316         5.76050
     2003.17317         4.79655         5.68140
     2003.17591         0.82395         5.55762
     2003.17865       -11.55865         5.82378
     2003.18139        -2.56625         5.86286
     2003.18413        -4.56085         5.61718
     2003.18686         5.19455         5.69349
     2003.18960         1.25195         5.65162
     2003.19234        -7.27265         5.86659
     2003.19508        -4.11825         6.02479
     2003.19781        -2.25485         6.18207
     2003.20055         2.21855         6.25093
     2003.20329        -0.03205         5.84704
     2003.20603        -0.53265         5.94569
     2003.20877         6.05075         5.74468
     2003.21150        -2.04785         5.71117
     2003.21424         0.63155         5.80237
     2003.21698         2.19895         5.70745
     2003.21972        -0.32265         5.81913
     2003.22246        -5.99525         5.74840
     2003.22519         4.42915         5.76050
     2003.22793        -3.96046         5.90474
     2003.23067        -2.56006         5.68140
     2003.23341        -2.26866         6.04992
     2003.23614       -11.49726         5.78469
     2003.23888        -7.21986         5.79679
     2003.24162        -6.83746         5.68791
     2003.24436        -1.32306         5.62370
     2003.24710        -0.23066         5.84891
     2003.24983        -4.08726         5.82006
     2003.25257         2.71214         5.73165
     2003.25531        -6.04846         5.75491
     2003.25805       -10.45106         5.63579
     2003.26079         2.57634         5.77073
     2003.26352        -0.65026         5.71769
     2003.26626        -0.43586         5.68419
     2003.26900         0.15754         5.85263
     2003.27174        -3.77506         5.87682
     2003.27447         2.99934         5.81354
     2003.27721         2.94174         6.24162
     2003.27995       -11.76786         5.92149
     2003.28269         3.02353         5.78935
     2003.28543        -5.25807         5.72141
     2003.28816         3.49133         5.81168
     2003.29090        -3.14227         5.83774
     2003.29364         5.73913         5.76050
     2003.29638         4.25853         5.68884
     2003.29911         9.13393         5.82843
     2003.30185         3.56133         5.65999
     2003.30459        -0.15527         5.70001
     2003.30733         1.71413         5.58368
     2003.31007         4.43953         5.76515
     2003.31280        -1.41307         5.61811
     2003.31554         3.96433         5.82657
     2003.31828        -6.33627         5.66464
     2003.32102        23.80113         6.07318
     2003.32376         5.53553         5.61811
     2003.32649        -1.72807         5.75584
     2003.32923       -11.49667         5.78283
     2003.33197        -6.76627         5.99129
     2003.33471         3.25813         5.87124
     2003.33744        -5.46047         5.61160
     2003.34018         1.65692         5.64138
     2003.34292        -5.30368         5.63114
     2003.34566         0.61172         5.70745
     2003.34840         6.43012         5.94941
     2003.35113        -1.81148         5.75305
     2003.35387         1.99292         5.60322
     2003.35661         4.47832         5.71490
     2003.35935         0.70672         5.60974
     2003.36209         7.71112         5.64417
     2003.36482         1.38352         5.80331
     2003.36756         2.52692         5.80144
     2003.37030         4.59032         5.60974
     2003.37304        -6.03928         6.05364
     2003.37577         4.92112         5.69070
     2003.37851         2.81552         5.75212
     2003.38125        -1.64408         5.64045
     2003.38399        -0.16868         5.61718
     2003.38673        -1.33828         5.66092
     2003.38946        -0.45988         5.74188
     2003.39220         1.69352         5.71583
     2003.39494         3.69391         5.75398
     2003.39768        -0.14069         5.65068
     2003.40042        -0.17729         5.80796
     2003.40315        -3.79089         5.82843
     2003.40589        10.63051         5.98664
     2003.40863         4.18891         5.79958
     2003.41137         1.21431         5.57624
     2003.41410         5.10471         5.68419
     2003.41684         0.46911         5.91963
     2003.41958         5.19151         5.82006
     2003.42232         1.98291         5.75864
     2003.42506         3.18531         5.65441
     2003.42779         3.79771         5.78097
     2003.43053         1.39511         5.70652
     2003.43327        -3.59649         5.79493
     2003.43601        12.16991         5.93359
     2003.43875        -0.06369         5.57437
     2003.44148         7.23571         5.61346
     2003.44422        -2.94489         5.83681
     2003.44696         3.01251         5.67860
     2003.44970        -1.33110         5.62556
     2003.45243         0.02830         5.59485
     2003.45517         4.08470         5.67674
     2003.45791        -1.92090         5.76050
     2003.46065        -5.95650         5.66651
     2003.46339        10.43790         5.75864
     2003.46612         6.68530         5.65441
     2003.46886        -2.35530         5.77725
     2003.47160        -0.38090         5.67674
     2003.47434         2.23850         5.83588
     2003.47708         5.47990         5.70745
     2003.47981         1.01330         5.87682
     2003.48255        -3.52830         5.70094
     2003.48529        -2.61490         5.73909
     2003.48803         0.00250         5.71583
     2003.49076         0.20890         5.70466
     2003.49350        -2.01670         5.62463
     2003.49624        -9.80530         5.72420
     2003.49898         2.74310         5.66744
     2003.50172        -3.53850         5.79772
     2003.50445        -6.40611         5.78004
     2003.50719        -1.78171         5.69815
     2003.50993         2.44969         5.67395
     2003.51267        -4.07991         5.71583
     2003.51541        -2.47551         5.67488
     2003.51814         7.18689         5.70559
     2003.52088         6.28629         5.74095
     2003.52362         1.97669         5.82564
     2003.52636         2.65609         5.65906
     2003.52909         5.81249         5.74933
     2003.53183        -0.24411         5.68605
     2003.53457         2.14129         5.86286
     2003.53731        -6.80031         5.71583
     2003.54005         0.12909         5.94476
     2003.54278        -5.85951         5.64510
     2003.54552       -11.90511         5.72700
     2003.54826        -7.57871         6.01083
     2003.55100        -3.73331         5.85914
     2003.55374       -11.02191         5.69349
     2003.55647        -1.33051         5.67953
     2003.55921         1.78388         5.67767
     2003.56195         1.08228         5.83495
     2003.56469        -8.00232         5.76329
     2003.56742        -4.06392         5.82099
     2003.57016         1.02948         5.85077
     2003.57290        -4.91312         5.90567
     2003.57564        -5.25972         5.88799
     2003.57838         9.63668         5.95127
     2003.58111         2.02908         5.85263
     2003.58385        10.16548         5.89544
     2003.58659        15.54988         5.93452
     2003.58933         5.49128         5.92429
     2003.59206         8.03868         5.75212
     2003.59480        -0.67792         5.61625
     2003.59754        -3.87352         5.60788
     2003.60028         0.49488         5.70187
     2003.60302        -6.03772         5.64603
     2003.60575        -0.40632         5.55018
     2003.60849         1.19108         5.63207
     2003.61123         1.10748         5.57810
     2003.61397        -1.83213         5.55855
     2003.61671        -2.83473         5.64324
     2003.61944         1.35167         5.50737
     2003.62218        -3.74993         5.61904
     2003.62492         2.72747         5.52784
     2003.62766        -3.51213         5.58182
     2003.63039        -0.21873         5.64882
     2003.63313         0.49467         5.64975
     2003.63587         5.21807         5.64324
     2003.63861         8.68647         5.69722
     2003.64135         1.50887         5.55483
     2003.64408         8.91727         5.62556
     2003.64682         3.12767         5.77818
     2003.64956        -3.30093         5.63300
     2003.65230         5.91247         5.60508
     2003.65504        -2.76613         5.74933
     2003.65777        -4.60673         5.49899
     2003.66051         2.84267         5.60788
     2003.66325         1.67907         5.69628
     2003.66599        -4.80253         5.74561
     2003.66872         0.82286         5.74375
     2003.67146        -0.47874         5.67302
     2003.67420         2.75966         5.58461
     2003.67694         5.34706         5.71769
     2003.67968        10.90046         5.55204
     2003.68241         0.52086         5.64417
     2003.68515         2.82226         5.88892
     2003.68789        -5.14334         5.70280
     2003.69063        -1.38194         5.67395
     2003.69337         6.86546         5.68046
     2003.69610         1.84886         5.62556
     2003.69884        10.89826         5.78004
     2003.70158         0.12366         5.70187
     2003.70432        -0.09894         5.71676
     2003.70705        -0.08154         5.66651
     2003.70979        -3.80914         5.69163
     2003.71253        -1.36474         5.54832
     2003.71527         8.67566         5.57065
     2003.71801        -0.85794         5.63859
     2003.72074        14.94446         5.66092
     2003.72348        -2.04215         5.70652
     2003.72622        -0.09075         5.83029
     2003.72896         5.26565         5.75026
     2003.73170        -9.11495         5.74933
     2003.73443         4.20245         5.77446
     2003.73717         3.27185         5.60136
     2003.73991         4.38425         5.69442
     2003.74265         9.06965         5.85170
     2003.74538         6.71105         5.87403
     2003.74812         1.18045         5.82843
     2003.75086         6.31285         5.65906
     2003.75360         9.95625         5.77166
     2003.75634         0.24065         5.74561
     2003.75907         0.66905         5.72513
     2003.76181         8.53745         5.83215
     2003.76455         8.99685         5.93173
     2003.76729         2.14525         5.83309
     2003.77003         5.98165         5.75864
     2003.77276        13.33205         5.80424
     2003.77550         8.67045         5.75398
     2003.77824         4.39684         5.79493
     2003.78098        12.52324         5.75398
     2003.78371        11.68264         5.67023
     2003.78645        12.74004         5.62928
     2003.78919         9.62544         5.50830
     2003.79193         3.31084         5.48131
     2003.79467         9.25424         5.53808
     2003.79740         5.69964         5.52226
     2003.80014         7.14504         5.60602
     2003.80288        10.26144         5.57158
     2003.80562         4.02584         5.95872
     2003.80836         4.17324         5.74375
     2003.81109         5.08764         5.57996
     2003.81383         1.10604         5.55762
     2003.81657        -4.08756         5.52598
     2003.81931        10.70784         5.54739
     2003.82204         6.06424         5.62835
     2003.82478         3.27464         5.98198
     2003.82752         4.16204         6.44543
     2003.83026         9.08744         5.72700
     2003.83300         6.54584         5.52784
     2003.83573         0.36423         5.51295
     2003.83847        10.73563         5.57158
     2003.84121         2.55203         5.51109
     2003.84395         1.10343         5.54553
     2003.84669        -4.12517         5.62184
     2003.84942         7.77623         5.63673
     2003.85216         8.78563         5.85170
     2003.85490        19.71403         5.76050
     2003.85764         4.11743         5.66930
     2003.86037         3.80583         5.66371
     2003.86311         2.66223         5.59764
     2003.86585         7.14063         5.79028
     2003.86859         3.36003         5.77446
     2003.87133         6.33843         5.67860
     2003.87406         1.66783         5.59578
     2003.87680         3.56923         5.75864
     2003.87954        -2.01237         5.76887
     2003.88228         1.18303         5.63673
     2003.88502        12.64143         5.66930
     2003.88775         9.15283         5.95872
     2003.89049        -0.57778         5.71304
     2003.89323         0.82062         5.61904
     2003.89597         9.54302         5.67953
     2003.89870        -3.15858         5.73258
     2003.90144        -0.12918         5.57437
     2003.90418        -0.11478         5.58368
     2003.90692         7.43762         5.70931
     2003.90966        16.61902         5.70838
     2003.91239         8.67942         5.80796
     2003.91787         1.21222         5.85821
     2003.92061         2.14962         5.77353
     2003.92334         1.26402         5.73072
     2003.92608         7.90842         5.84704
     2003.92882        -3.20518         5.72141
     2003.93156        -7.26278         5.66185
     2003.93430         7.35562         5.68233
     2003.93703         1.75502         5.70466
     2003.93977        18.24142         5.93080
     2003.94251         4.93582         5.63114
     2003.94525         1.28521         5.60974
     2003.94799         9.05361         5.62556
     2003.95072         7.03101         5.89357
     2003.95346         2.16341         5.59764
     2003.95620        -9.77719         5.64324
     2003.95894         3.70621         5.67209
     2003.96167         7.38061         5.75491
     2003.96441        11.26201         6.04526
     2003.96715        -5.91059         5.83402
     2003.96989         8.35981         5.72327
     2003.97263         3.31421         5.57717
     2003.97536        11.06861         5.70001
     2003.97810        11.12701         5.81447
     2003.98084         2.39941         5.64324
     2003.98358         8.20981         5.60695
     2003.98632        -5.99979         5.50086
     2003.98905        -5.87439         5.49155
     2003.99179        -6.34899         5.63207
     2003.99453         2.76841         5.54832
     2003.99727         0.28781         5.52971
     2004.00274        -3.59340         5.67767
     2004.00548        -2.52900         5.64045
     2004.00822        -2.31160         5.64975
     2004.01096        -9.49720         5.63393
     2004.01369         3.67920         5.79493
     2004.01643         2.52460         5.83309
     2004.01917        -3.60300         5.74654
     2004.02191         8.95740         5.82657
     2004.02465        -1.95520         5.68512
     2004.02738        -1.50080         5.79679
     2004.03012        -3.39440         5.75398
     2004.03286        -8.67400         5.56786
     2004.03560       -12.65460         5.75957
     2004.03833        -1.74420         5.76143
     2004.04107        -4.22880         6.01549
     2004.04381        -2.95640         5.72327
     2004.04655         3.50100         5.70094
     2004.04929         4.47740         5.67395
     2004.05202        -7.66020         5.80331
     2004.05476        -6.79981         5.73909
     2004.05750        -4.10041         5.67767
     2004.06024        -8.25601         5.58833
     2004.06298        -9.20561         5.63579
     2004.06571        -7.25721         5.61997
     2004.06845         0.15219         5.68884
     2004.07119        -3.78541         5.71583
     2004.07393        -4.62301         5.80982
     2004.07666         5.40139         5.73072
     2004.07940         8.72479         5.74747
     2004.08214         2.04719         5.74654
     2004.08488         2.21359         5.60881
     2004.08762        -3.01701         6.05922
     2004.09035        -3.71561         5.86193
     2004.09309         4.32779         5.73816
     2004.09583         4.89919         5.63393
     2004.09857         0.39059         5.72327
     2004.10131         5.37899         5.80703
     2004.10404        -3.18261         5.64882
     2004.10678        -1.38521         5.67395
     2004.10952         1.79218         5.61718
     2004.11226         6.15058         5.59950
     2004.11499         1.33598         5.70466
     2004.11773        11.25538         5.81447
     2004.12047         7.74378         5.94011
     2004.12321        -1.88882         5.94848
     2004.12595        -2.83542         5.85635
     2004.12868        -3.33702         5.87869
     2004.13142         5.20538         6.08714
     2004.13416         9.07778         5.73351
     2004.13690        -2.32982         5.73909
     2004.13964        -4.43842         5.48969
     2004.14237         4.35798         5.55483
     2004.14511        -1.17262         5.59299
     2004.14785         4.40478         5.60322
     2004.15059         8.51118         5.95406
     2004.15332         4.66658         5.78376
     2004.15606         8.28298         5.61625
     2004.15880         1.23238         5.58089
     2004.16154         0.95178         5.65906
     2004.16428         0.85117         5.64510
     2004.16701         3.55457         5.69535
     2004.16975        -2.41803         5.69628
     2004.17249         2.09437         5.82099
     2004.17523        -0.24323         5.77725
     2004.17797         0.66117         5.68977
     2004.18070        -2.80443         5.58461
     2004.18344        -7.90503         5.55111
     2004.18618        -6.44663         5.70838
     2004.18892         5.93277         5.60229
     2004.19165         2.81417         5.61625
     2004.19439         5.50857         5.59950
     2004.19713        -4.64703         5.67209
     2004.19987         0.33837         5.63486
     2004.20261         3.03977         5.59857
     2004.20534         3.08417         5.58089
     2004.20808         5.53657         5.90288
     2004.21082         1.44897         5.93080
     2004.21356         3.86737         5.76980
     2004.21629         0.72677         5.81447
     2004.21903        -7.84884         5.88706
     2004.22177        -2.36544         5.85542
     2004.22451         7.71296         5.80796
     2004.22725        11.74136         5.96616
     2004.22998        -0.53824         5.83681
     2004.23272         4.23416         5.83495
     2004.23546        -2.49444         5.86380
     2004.23820        -2.46704         5.92242
     2004.24094        -3.10664         6.08807
     2004.24367         2.71276         6.03596
     2004.24641         7.12716         5.71397
     2004.24915        -2.28044         5.85728
     2004.25189         4.01596         5.78748
     2004.25462        -1.02764         5.72141
     2004.25736         2.65276         5.75212
     2004.26010         5.20216         5.65162
     2004.26284         3.37656         5.54273
     2004.26558         1.81396         5.71397
     2004.26831         3.56636         5.63021
     2004.27105        -1.63024         5.47108
     2004.27379         3.09115         5.58089
     2004.27653         3.35855         5.56972
     2004.27927        -3.91605         5.49062
     2004.28200        -2.32665         5.77260
     2004.28474         7.68875         5.72141
     2004.28748         7.59715         5.60788
     2004.29022        11.59455         5.61718
     2004.29295         1.91395         5.61997
     2004.29569         7.27035         5.58275
     2004.29843         6.19775         5.52133
     2004.30117        10.39515         5.60602
     2004.30391         5.35155         5.71117
     2004.30664         6.83895         5.71769
     2004.30938         8.34635         5.55297
     2004.31212        -6.41625         5.51016
     2004.31486         5.62015         5.59764
     2004.31760         5.89455         5.60229
     2004.32033         9.00195         5.58740
     2004.32307         5.77235         5.61625
     2004.32581         2.58675         5.50923
     2004.32855        -3.47986         5.55855
     2004.33128        -4.60246         5.59113
     2004.33402         2.50594         5.61718
     2004.33676         3.97134         5.73816
     2004.33950        10.16774         5.87682
     2004.34224         4.45714         5.87496
     2004.34497         9.19854         5.76143
     2004.34771         9.23694         5.74375
     2004.35045         2.98234         5.78190
     2004.35319        -0.00926         5.81261
     2004.35593        10.37814         5.82657
     2004.35866        11.30854         5.67860
     2004.36140         9.93694         5.70838
     2004.36414         9.81834         5.70094
     2004.36688        12.06574         5.63859
     2004.36961        12.97214         5.78190
     2004.37235        10.31054         5.70838
     2004.37509         5.95694         5.69070
     2004.37783         0.03834         5.56321
     2004.38057         7.58774         5.66557
     2004.38330         4.38114         5.60043
     2004.38604         7.86353         5.67860
     2004.38878         7.35393         5.55576
     2004.39152         4.41333         5.52877
     2004.39426        10.61573         5.65162
     2004.39699        10.90113         5.75305
     2004.39973         7.78753         5.49620
     2004.40247         8.59393         5.61904
     2004.40521         6.76133         5.71490
     2004.40794         3.09273         5.53157
     2004.41068         7.62813         5.55018
     2004.41342         5.10153         5.55111
     2004.41616         4.62293         5.53436
     2004.41890         3.28033         5.54739
     2004.42163         0.04873         5.54553
     2004.42437         5.37713         5.54646
     2004.42711        -0.47947         5.52505
     2004.42985         2.63093         5.53622
     2004.43259         6.33433         5.66464
     2004.43532         3.87873         5.64975
     2004.43806         7.99813         5.75212
     2004.44080         2.66152         5.49434
     2004.44354        10.27692         5.57903
     2004.44627         3.68732         5.62742
     2004.44901         5.51972         5.54925
     2004.45175         1.58512         5.81540
     2004.45449         4.10952         5.76794
     2004.45723         0.42192         5.81168
     2004.45996        -4.55568         5.73723
     2004.46270        -4.30128         5.76143
     2004.46544         1.14712         5.67302
     2004.46818        15.55452         5.94290
     2004.47092        -3.27008         5.90195
     2004.47365         4.12532         5.70745
     2004.47639         0.54672         5.67767
     2004.47913         3.80212         5.55297
     2004.48187        -2.93548         6.02200
     2004.48460         2.95892         5.64975
     2004.48734         5.01032         5.71211
     2004.49008         3.75272         5.63952
     2004.49282        -7.82488         5.72513
     2004.49556       -10.23649         5.62463
     2004.49829         0.35291         5.70931
     2004.50103        -5.96669         5.64789
     2004.50377         4.36971         5.71955
     2004.50651        -0.69189         5.73072
     2004.50924        -6.52449         5.64324
     2004.51198        -7.98309         5.61253
     2004.51472         6.04231         5.82843
     2004.51746        -0.44729         5.56600
     2004.52020         4.63111         5.70001
     2004.52293        -1.77249         5.62091
     2004.52567        -0.41809         5.69163
     2004.52841        -4.74269         5.55297
     2004.53115         2.20471         5.56321
     2004.53389        -0.01289         5.53994
     2004.53662        -0.39649         5.54180
     2004.53936        -2.04809         5.88055
     2004.54210        -2.11369         5.54925
     2004.54484         5.29671         5.63859
     2004.54757        -7.36789         5.54273
     2004.55031         1.29650         5.63207
     2004.55305        -3.53010         5.43664
     2004.55579         7.09430         5.74188
     2004.55853        -2.52830         5.59392
     2004.56126        -1.85090         5.55855
     2004.56400        -0.48150         5.61346
     2004.56674         9.08290         5.55390
     2004.56948         5.92030         5.51295
     2004.57222        -1.34430         5.53436
     2004.57495        -3.49690         5.41710
     2004.57769         4.43050         5.46270
     2004.58043        10.50690         5.55762
     2004.58317        -2.15170         5.52784
     2004.58590        -5.73030         5.49713
     2004.58864        15.48710         5.68512
     2004.59138         6.80950         5.67860
     2004.59412         1.93090         5.62184
     2004.59686         1.42830         5.68326
     2004.59959         3.81670         5.59392
     2004.60233         0.23910         5.52040
     2004.60507         3.74649         5.44409
     2004.60781         2.71689         5.50365
     2004.61055        -1.25971         5.51388
     2004.61328         3.06369         5.55669
     2004.61602         2.29809         5.56879
     2004.61876        -5.34251         5.61904
     2004.62150        -0.77611         5.62091
     2004.62423         4.79229         5.82843
     2004.62697         7.47969         5.47108
     2004.62971         3.89509         5.50551
     2004.63245        -0.91651         5.55948
     2004.63519        -2.19011         5.54273
     2004.63792        -1.12171         5.57717
     2004.64066         4.30169         5.46177
     2004.64340         3.45309         5.56972
     2004.64614         3.44549         5.56228
     2004.64888         7.24489         5.59950
     2004.65161         2.60229         5.64603
     2004.65435         0.50869         5.52040
     2004.65709         3.56609         5.55018
     2004.65983         0.63948         5.61253
     2004.66256         1.41688         5.66371
     2004.66530        -2.38072         5.56507
     2004.66804         0.53368         5.51575
     2004.67078         0.17208         5.58740
     2004.67352         9.36548         5.51295
     2004.67625         4.15988         5.56321
     2004.67899         3.90728         5.55111
     2004.68173         2.12668         5.47852
     2004.68447         2.71408         5.47573
     2004.68721         1.22148         5.52971
     2004.68994         2.37888         5.53436
     2004.69268         1.83528         5.51668
     2004.69542         4.96868         5.44874
     2004.69816         6.26408         5.49713
     2004.70089         9.13148         6.01642
     2004.70363         5.94088         5.56879
     2004.70637         3.70328         5.53157
     2004.70911        -3.35032         5.42827
     2004.71185         7.13008         5.59578
     2004.71458         0.54147         5.82471
     2004.71732         9.03087         5.59206
     2004.72006         1.40127         5.41245
     2004.72280        -0.02033         5.47480
     2004.72554        -0.43193         5.53808
     2004.72827        -0.37053         5.47294
     2004.73101         0.84887         5.53529
     2004.73375        -1.28773         5.48317
     2004.73649         0.96467         5.39384
     2004.73922         6.68407         5.45246
     2004.74196         3.69247         5.49062
     2004.74470         6.98887         5.51668
     2004.74744         0.97527         5.40500
     2004.75018        -2.93833         5.40779
     2004.75291         3.98807         5.43664
     2004.75565        -6.40853         5.39663
     2004.75839        -2.54413         5.43944
     2004.76113        -3.24873         5.46084
     2004.76387        -0.36633         5.41989
     2004.76660        -1.08093         5.47573
     2004.76934        -1.38854         5.72979
     2004.77208         3.50886         5.78842
     2004.77482        -5.24174         5.55855
     2004.77755         0.45466         5.54925
     2004.78029         4.21506         5.65720
     2004.78303        -1.06454         5.54087
     2004.78577        -2.77014         5.46828
     2004.78851         2.61826         5.57065
     2004.79124        -2.37234         5.57251
     2004.79398         4.78206         5.63393
     2004.79672         1.44546         5.65627
     2004.79946         2.71786         5.87310
     2004.80493         3.54766         5.51016
     2004.80767         5.17506         5.52598
     2004.81041         2.50446         5.45526
     2004.81315         0.14986         5.39104
     2004.81588        -2.02074         5.44130
     2004.81862        -0.89334         5.78190
     2004.82136         4.73506         5.54832
     2004.82410         4.59345         5.40966
     2004.82684        -1.39915         5.37429
     2004.82957         9.81525         5.59671
     2004.83231         4.00965         5.48038
     2004.83505       -10.17795         5.63114
     2004.83779         2.10045         5.39942
     2004.84052         5.05485         5.68977
     2004.84326        -1.36375         5.44409
     2004.84600         4.32765         5.52877
     2004.84874         3.86905         5.56507
     2004.85148        -2.91855         5.51109
     2004.85421        -1.09115         5.85077
     2004.85695        -7.08675         5.54925
     2004.85969        -2.91235         5.59857
     2004.86243       -11.74295         5.49341
     2004.86517        -4.48955         5.47573
     2004.86790        -4.82515         5.48969
     2004.87064        -7.59575         5.44037
     2004.87338        -1.68535         5.41524
     2004.87612       -11.23195         5.49434
     2004.87885        -6.10156         5.44130
     2004.88159       -10.21916         5.58368
     2004.88433        -3.13776         5.66092
     2004.88707         1.51364         5.54739
     2004.88981         6.53004         5.45805
     2004.89254        -3.95256         5.56600
     2004.89528         2.17084         5.53808
     2004.89802         4.72924         5.58368
     2004.90076         9.11064         5.59392
     2004.90350         3.33104         5.45619
     2004.90623        -5.78756         5.45619
     2004.90897         6.57884         5.35754
     2004.91171        -1.12476         5.34917
     2004.91445        -9.55036         5.30729
     2004.91718        -9.21596         5.52877
     2004.91992         0.38344         5.49248
     2004.92266        -4.27316         5.46084
     2004.92540         0.77724         5.38732
     2004.92814         4.48864         5.39011
     2004.93087        -0.75396         5.37802
     2004.93361         0.56544         5.68884
     2004.93635        -6.12317         5.54459
     2004.93909        -6.36277         5.56972
     2004.94183        -2.39937         5.56414
     2004.94456        -8.95297         5.38918
     2004.94730        -3.34657         5.40128
     2004.95004         7.55283         5.39384
     2004.95278        -8.79977         5.38267
     2004.95551       -11.60337         5.41245
     2004.95825       -12.76797         5.49899
     2004.96099        -6.85857         5.28495
     2004.96373        -3.23217         5.36871
     2004.96647        -5.76777         5.34079
     2004.96920         2.22863         5.35940
     2004.97194         0.53903         5.53715
     2004.97468        -9.71757         5.57996
     2004.97742        -7.02417         5.25704
     2004.98016        -0.08077         5.29798
     2004.98289        -2.04637         5.36685
     2004.98563        -1.46397         5.65162
     2004.98837         1.14343         5.78469
     2004.99111         7.50082         5.82006
     2004.99384         7.82422         5.59578
     2004.99932       -11.30298         5.88241
     2005.00480        -4.20718         5.74747
     2005.00753        -0.82278         5.62649
     2005.01027         6.08962         5.72606
     2005.01301         0.00702         5.72606
     2005.01575        -0.13858         5.75212
     2005.01849        -8.47018         5.88985
     2005.02122         2.89722         5.89637
     2005.02396        -3.55438         5.83309
     2005.02670       -18.62698         5.66651
     2005.02944        -5.78558         5.79865
     2005.03217        -8.47618         5.54459
     2005.03491        -3.15878         5.72420
     2005.03765        -5.49038         5.62556
     2005.04039        -7.94598         5.59019
     2005.04313        -7.51058         5.57065
     2005.04586       -15.04719         5.59764
     2005.04860       -10.50979         5.68791
     2005.05134       -11.41139         5.65813
     2005.05408        -8.96599         5.73444
     2005.05682       -13.47459         5.57158
     2005.05955       -14.04319         5.59764
     2005.06229       -14.60479         5.67674
     2005.06503       -10.42639         5.65720
     2005.06777        -2.91099         5.62928
     2005.07050        10.07741         5.67581
     2005.07324        -9.99719         5.52877
     2005.07598        -3.76979         5.85077
     2005.07872        -7.69939         5.45526
     2005.08146       -12.45599         5.37615
     2005.08419       -13.43359         5.42827
     2005.08693       -13.91319         5.37895
     2005.08967       -17.79279         5.38639
     2005.09241        -9.75239         5.48317
     2005.09515       -11.30799         5.36964
     2005.09788        -9.48759         5.34730
     2005.10062       -18.48220         5.47294
     2005.10336        -9.37580         5.39197
     2005.10610        -6.55640         5.50830
     2005.10883        -2.97100         5.51388
     2005.11157        -8.46860         5.33148
     2005.11431        -5.24520         5.35568
     2005.11705        -5.89180         5.39942
     2005.11979        -6.50440         5.41338
     2005.12252       -10.21200         5.45898
     2005.12526        -9.92760         5.39570
     2005.12800        -9.65520         5.52226
     2005.13074       -10.07680         5.54553
     2005.13347       -10.92740         5.54273
     2005.13621        -2.04600         5.60881
     2005.13895        -8.81460         5.54832
     2005.14169        -6.71820         5.54832
     2005.14443        -9.05480         5.49248
     2005.14716       -16.18840         5.43850
     2005.14990       -14.02400         5.52971
     2005.15264       -12.12660         5.46177
     2005.15538        -8.00421         5.46735
     2005.15812        -5.35281         5.41524
     2005.16085        -2.25441         5.60508
     2005.16359        -5.95001         5.41896
     2005.16633        -3.91361         5.53064
     2005.16907       -10.49321         5.44316
     2005.17180       -15.99781         5.61625
     2005.17454       -10.43641         5.39384
     2005.17728       -13.34201         5.40500
     2005.18002       -12.39361         5.42827
     2005.18276       -11.21021         5.37895
     2005.18549        -8.31281         5.55204
     2005.18823        -8.93141         5.58182
     2005.19097        -9.11601         5.42455
     2005.19371        -5.60561         5.42548
     2005.19645       -11.58321         5.42734
     2005.19918       -10.82281         5.39477
     2005.20192       -11.32041         5.52133
     2005.20466        -6.12101         5.57065
     2005.20740       -10.07361         5.47294
     2005.21013       -10.92422         5.51575
     2005.21287        -9.85682         5.65999
     2005.21561        -5.40442         5.61718
     2005.21835        -7.54902         5.51109
     2005.22109        -7.74962         5.67302
     2005.22382        -4.67122         5.50923
     2005.22656         0.28618         5.44316
     2005.22930        -4.88242         5.45526
     2005.23204        -8.69402         5.40314
     2005.23478        -2.57062         5.44688
     2005.23751        17.63378         5.83215
     2005.24025        -0.78882         5.63207
     2005.24299        -2.66742         5.46828
     2005.24573        -1.50502         5.54087
     2005.24846        -4.92262         5.44316
     2005.25120        -7.62622         5.43757
     2005.25394         9.91418         5.92335
     2005.25668         0.56158         6.04061
     2005.25942        -1.61802         5.57437
     2005.26215         2.07838         5.72606
     2005.26489        10.33077         5.90009
     2005.26763        -2.33583         5.70652
     2005.27037        -1.57843         5.67860
     2005.27311        -5.75803         5.59485
     2005.27584        -5.83463         5.54180
     2005.27858        -5.97723         5.56600
     2005.28132        -2.91683         5.66744
     2005.28406       -11.22543         5.70373
     2005.28679        -7.89303         5.65441
     2005.28953         1.56137         5.51016
     2005.29227        -1.98523         5.44223
     2005.29501        -2.17783         5.54925
     2005.29775         0.87357         5.56228
     2005.30048        -3.79703         5.52598
     2005.30322        -5.22963         5.61253
     2005.30596        -3.47323         5.56228
     2005.30870         8.78717         5.57344
     2005.31144         2.33457         5.54087
     2005.31417        -2.86203         5.51202
     2005.31691        -2.65963         5.64603
     2005.31965        -3.60724         5.70187
     2005.32239        -8.54084         5.73165
     2005.32512        -7.44244         5.46828
     2005.32786        -8.74904         5.53994
     2005.33060        -7.29164         5.55018
     2005.33334        -2.08824         5.52412
     2005.33881         0.29756         5.60508
     2005.34155        -7.40004         5.66464
     2005.34429         1.34136         5.53994
     2005.34703        -2.20624         5.75957
     2005.34977         1.64116         5.61253
     2005.35250        16.66356         5.83309
     2005.35524        -4.72504         5.72886
     2005.35798         0.24036         5.62463
     2005.36072        -6.39824         5.68419
     2005.36345       -10.36784         5.80424
     2005.36619        -3.74944         5.79865
     2005.36893        -1.16804         5.84053
     2005.37167         6.46836         5.79028
     2005.37441         1.93175         5.76422
     2005.37714        -6.07885         5.81354
     2005.37988        -4.36745         5.76701
     2005.38262        -1.62205         5.77073
     2005.38536        -7.53365         5.63207
     2005.38810        -9.50225         5.76422
     2005.39083       -12.50485         5.61253
     2005.39357        -5.97745         5.68884
     2005.39631       -10.76105         5.66092
     2005.39905       -11.39765         5.62277
     2005.40178         3.40975         5.69163
     2005.40452        -2.56285         5.72234
     2005.40726        -8.18345         5.67953
     2005.41000        -9.76605         5.63393
     2005.41274        -9.38565         5.65813
     2005.41547        -4.68725         5.57717
     2005.41821        -5.99985         5.58089
     2005.42095       -10.11945         5.53808
     2005.42369        -6.66705         5.60508
     2005.42643       -11.17165         5.71583
     2005.42916       -11.85326         5.50644
     2005.43190        -0.41786         5.67953
     2005.43464        -4.83646         5.57903
     2005.43738         3.29394         5.72141
     2005.44011       -10.33866         5.73444
     2005.44285        -0.39826         5.73537
     2005.44559        -2.46086         5.79772
     2005.44833        -1.08746         5.68326
     2005.45107       -10.85806         5.54366
     2005.45380        -1.61766         5.63021
     2005.45654        -1.42726         5.78562
     2005.45928        -3.03286         5.79679
     2005.46202        -5.96446         5.47666
     2005.46475        -0.23406         5.60322
     2005.46749        -3.81866         5.58089
     2005.47023         1.35974         5.69815
     2005.47297        -7.37986         5.63766
     2005.47571        -5.92146         5.56042
     2005.47844        -7.95506         5.53994
     2005.48118        -2.95766         5.61625
     2005.48392       -10.31426         5.53064
     2005.48666        -2.28187         5.81168
     2005.48940        -8.11947         5.61439
     2005.49213        -3.52807         5.53622
     2005.49487        -0.27467         5.58089
     2005.49761        -8.92227         5.57531
     2005.50035        -4.79587         5.64789
     2005.50308         0.90753         5.55948
     2005.50582        -3.46907         5.59019
     2005.50856        -8.10367         5.54739
     2005.51130        -2.18027         5.66185
     2005.51404       -10.23887         5.53808
     2005.51677        -4.47347         5.64510
     2005.51951         5.30793         5.64603
     2005.52225        -1.79567         5.75026
     2005.52499         1.99273         5.70559
     2005.52773       -10.46887         5.60322
     2005.53046        -2.61947         5.59019
     2005.53320         7.21193         5.73537
     2005.53594         2.95833         5.64417
     2005.53868         5.43273         5.63952
     2005.54141        -3.35588         5.51295
     2005.54415         0.15652         5.51109
     2005.54689        -0.81108         5.51668
     2005.54963        -4.98268         5.62835
     2005.55237        -0.02628         5.59206
     2005.55510         2.11112         5.57344
     2005.55784         1.52252         5.60322
     2005.56058         2.30592         5.72700
     2005.56332        -2.49368         5.88241
     2005.56606        -6.72328         5.84518
     2005.56879         0.83712         5.90660
     2005.57153        -2.87548         5.93080
     2005.57427        -3.33408         5.71490
     2005.57701         4.92032         5.71304
     2005.57974        -7.96828         5.79958
     2005.58248         2.32412         5.70373
     2005.58522        -1.26848         5.76980
     2005.58796         2.50092         5.60974
     2005.59070        -1.13068         5.62091
     2005.59343        -8.30828         5.50179
     2005.59617         8.79811         5.57531
     2005.59891        -2.67149         5.57810
     2005.60165         1.75891         5.60602
     2005.60439        -5.14669         5.58461
     2005.60712        -5.97729         5.53064
     2005.60986        -0.64689         5.66278
     2005.61260         0.87851         5.71117
     2005.61534         7.07791         5.58275
     2005.61807         1.75731         5.54925
     2005.62081        -1.78229         5.62649
     2005.62355        -6.52489         5.80144
     2005.62629         4.39251         5.79307
     2005.62903         1.49791         5.63579
     2005.63176        -1.68369         5.54273
     2005.63450         0.06971         5.56228
     2005.63724        -2.80489         5.54366
     2005.63998         2.51251         5.62835
     2005.64272         5.59591         5.65348
     2005.64545        -3.61169         5.70559
     2005.64819        -3.86029         5.55297
     2005.65093         3.96210         5.80703
     2005.65367         0.71950         5.65068
     2005.65640        -6.19110         5.51668
     2005.65914        -1.19370         5.62463
     2005.66188         3.65170         5.65068
     2005.66462        -3.58890         5.53529
     2005.66736        -2.15350         5.54366
     2005.67009         1.40290         5.67767
     2005.67283         5.18830         5.70838
     2005.67557         2.01070         5.53715
     2005.67831        -6.51290         5.60229
     2005.68105        -5.96350         5.56321
     2005.68378        -0.08810         5.72606
     2005.68652        -3.55770         5.70745
     2005.68926        -3.87330         5.69815
     2005.69200         5.13710         5.83681
     2005.69473         1.48050         5.62277
     2005.69747        -4.52810         5.65534
     2005.70021         1.96930         5.85542
     2005.70295        -4.34530         5.84053
     2005.70569        -4.37291         5.78190
     2005.70842        -4.43551         5.76701
     2005.71116        -4.34811         5.53715
     2005.71390         3.93329         5.54366
     2005.71664        -0.32331         5.70559
     2005.71938        -0.09991         5.63859
     2005.72211         2.50049         5.85635
     2005.72485        -4.66511         5.52505
     2005.72759        -5.00171         5.66557
     2005.73033        -4.02431         5.65813
     2005.73306         2.23109         5.56972
     2005.73580         1.07049         6.08900
     2005.73854         8.47489         5.98571
     2005.74128         2.71229         5.53808
     2005.74402         5.75369         5.60508
     2005.74675        -2.62191         5.48317
     2005.74949         1.94349         5.51202
     2005.75223        -0.03511         5.76515
     2005.75497         1.09629         5.69628
     2005.75770        -6.36831         5.60788
     2005.76044         0.15908         5.49062
     2005.76318        -0.72952         5.47294
     2005.76592         1.07088         5.51388
     2005.76866         1.27428         5.60136
     2005.77139         5.03168         5.54553
     2005.77413         4.32908         5.48131
     2005.77687         3.28648         5.58554
     2005.77961        -1.07812         5.60229
     2005.78235        -1.59072         5.58926
     2005.78508         2.16568         5.54087
     2005.78782         9.43008         5.73165
     2005.79056         5.85048         5.46922
     2005.79330         4.38288         5.52412
     2005.79603         3.47228         5.74188
     2005.79877        -1.29332         5.57903
     2005.80151         4.16508         5.64138
     2005.80425         2.54148         5.48504
     2005.80699         2.39488         5.45153
     2005.80972         3.94028         5.49527
     2005.81246         1.24068         5.52505
     2005.81520         1.41507         5.57903
     2005.81794         6.72447         5.71304
     2005.82068         2.99587         5.57065
     2005.82341        -0.43273         5.51668
     2005.82615         2.39467         5.50179
     2005.82889         2.69707         5.53529
     2005.83163        -2.73653         5.72141
     2005.83436        -8.20913         5.67395
     2005.83710        -2.70673         5.73165
     2005.83984         1.71367         5.75957
     2005.84258         0.22907         5.74654
     2005.84532         1.78847         5.85356
     2005.84805         2.24387         5.82192
     2005.85079        -0.33273         5.78655
     2005.85353        -4.41233         5.80610
     2005.85627         0.71807         5.88892
     2005.85901       -10.39553         5.67488
     2005.86174        -5.45013         6.05364
     2005.86448        -1.75973         5.54459
     2005.86722        -7.86433         5.54832
     2005.86996        -4.62994         5.68233
     2005.87269        -7.59054         5.63114
     2005.87543       -10.33614         5.53994
     2005.87817        -1.43974         5.51854
     2005.88091        -2.55334         5.52226
     2005.88365        -1.26094         5.47945
     2005.88638        -4.99454         5.56042
     2005.88912        -5.83314         5.72048
     2005.89186        -3.03174         5.61346
     2005.89460        -4.26434         5.60695
     2005.89734       -10.52594         6.47335
     2005.90007       -10.00454         6.55803
     2005.90281         3.80786         7.75294
     2005.90555        -1.54474         5.63207
     2005.90829        -9.06134         5.57624
     2005.91102        -5.41694         5.58368
     2005.91376        -9.68754         5.44688
     2005.91650        -6.37214         6.15229
     2005.91924        -8.02674         8.64261
     2005.92198        -3.09634         5.71490
     2005.92471       -12.76295         5.49713
     2005.92745       -10.44455         5.45433
     2005.93019        -7.07715         5.50272
     2005.93293        -4.84975         5.48876
     2005.93509        -4.39326         7.40861
     2005.93952       -15.25215        14.63204
     2005.94114        -0.61355         7.55844
     2005.94388         1.29685         6.64365
     2005.94662         2.29325         8.12146
     2005.94935        -5.78335         6.56176
     2005.95209        -7.49795         6.91818
     2005.95483       -10.47755         6.66691
     2005.95757        -0.36615         7.04847
     2005.96031        -0.60275         6.89678
     2005.96304        -6.44435         7.18713
     2005.96578       -21.87995         9.47458
     2005.96852        -4.09255         7.84228
     2005.97126        -0.34415         8.25454
     2005.97400        -2.55775        10.40333
     2005.97673        -4.94935         7.47190
     2005.97947        -3.96795         7.69431
     2005.98109        10.52164        12.93553
     2005.98589        -1.92264        10.13810
     2005.98768         1.37424         7.77062
     2005.99042         4.87164         8.49092
     2005.99316        -3.96196         8.43043
     2005.99590         6.60444         7.27088
     2005.99864         9.22284         8.39599
     2006.00523         3.76944        13.79262
     2006.00685         4.05704         7.53052
     2006.00959        -3.12156         7.47190
     2006.01233         0.93584         6.54500
     2006.01506       -14.22176         6.35795
     2006.01780         1.07164         6.44636
     2006.02054         6.82904         6.15415
     2006.02328        -1.92856         5.93173
     2006.02601       -10.32316         5.64045
     2006.02875        -7.51976         6.04992
     2006.03149         0.95964         7.06056
     2006.03423        -1.97196         6.85676
     2006.03697        -0.47957         6.38308
     2006.03970        -6.66017         6.18486
     2006.04244        -9.02677         5.87589
     2006.04518        -5.85337         5.83122
     2006.04792        -7.77197         5.61532
     2006.05065        -2.98257         5.62742
     2006.05339       -11.05217         5.62835
     2006.05613        -4.25877         5.47015
     2006.05887        -6.40537         5.40779
     2006.06161        -6.46797         5.44037
     2006.06434         0.32043         5.51202
     2006.06708        -9.08117         5.29798
     2006.06982       -13.74777         5.32404
     2006.07256       -15.66637         5.32125
     2006.07530        -7.36897         5.31659
     2006.07803       -10.37257         5.36219
     2006.08077        -4.45617         5.42548
     2006.08351        -5.17077         5.41431
     2006.08625        -5.91837         5.40779
     2006.08898        -1.89297         5.40035
     2006.09172        -6.99558         5.35103
     2006.09446       -13.52718         5.45433
     2006.09720        -4.69178         5.35847
     2006.09994       -12.13738         5.33986
     2006.10267        -6.97798         5.35010
     2006.10541        -9.77458         5.37895
     2006.10815        -7.89918         5.47666
     2006.11089        -6.41178         5.67116
     2006.11363       -12.87938         5.44037
     2006.11636        -7.73798         5.43385
     2006.11910        -8.09458         5.37150
     2006.12184        -0.74218         5.61997
     2006.12458        -6.93778         5.49527
     2006.12731       -10.01338         5.42548
     2006.13005        -4.61598         5.47294
     2006.13279       -10.11858         5.41617
     2006.13553        -5.37318         5.42827
     2006.13827        -1.65778         5.36871
     2006.14100         1.12962         5.46270
     2006.14374        -1.08998         5.40314
     2006.14648        -0.10259         5.41803
     2006.14922        -5.43919         5.37522
     2006.15196        -2.91979         5.40966
     2006.15469        -4.44139         5.56507
     2006.15743         9.95201         6.09273
     2006.16017       -10.65959         6.14763
     2006.16291        -3.41419         5.69908
     2006.16564        -6.74979         5.52412
     2006.16838         9.83061         5.99129
     2006.17112         1.39901         5.45526
     2006.17386         0.64141         5.59392
     2006.17660         1.65781         5.77632
     2006.17933        -2.74579         5.47387
     2006.18207        -0.25039         5.43106
     2006.18481        -1.65099         5.48597
     2006.18755         1.55941         5.52133
     2006.19029        -3.12119         5.42548
     2006.19302        -5.49579         5.51388
     2006.19576        -0.17839         5.49155
     2006.19850         4.41801         5.68977
     2006.20124        -6.67860         5.46828
     2006.20397        -3.70220         5.64975
     2006.20671        -8.68180         5.60229
     2006.20945        -7.11040         5.50551
     2006.21219        -6.38900         5.50923
     2006.21493        -8.17160         5.62649
     2006.21766        -4.84420         5.52691
     2006.22040        -7.99480         5.50923
     2006.22314        -5.81140         5.59764
     2006.22588        -2.21000         5.62091
     2006.22862         0.53840         5.82843
     2006.23135         3.98780         5.66651
     2006.23409         3.21120         5.67767
     2006.23683         2.66760         5.72606
     2006.23957        -3.46400         5.46084
     2006.24230        -0.42060         5.40128
     2006.24504        -0.85720         5.44316
     2006.24778         1.84420         5.48504
     2006.25052         0.62260         5.42920
     2006.25326        14.68700         5.63114
     2006.25599         4.03739         5.65813
     2006.25873        -5.93521         5.47666
     2006.26147        -3.10881         5.61346
     2006.26421        -1.08141         5.78655
     2006.26695         4.61599         5.69908
     2006.26968        -0.88261         5.45805
     2006.27242        -3.31821         5.41524
     2006.27516        12.37019         5.70280
     2006.27790         7.77159         5.78283
     2006.28063        -0.73001         5.48690
     2006.28337         6.01139         5.39290
     2006.28611         0.43079         5.44781
     2006.28885        -0.19381         5.50551
     2006.29159         3.57859         5.47387
     2006.29432        -4.55301         5.39197
     2006.29706         1.63139         5.41617
     2006.29980         0.78779         5.49806
     2006.30254         0.93819         5.51575
     2006.30528         2.12859         5.54925
     2006.30801         0.92699         5.43013
     2006.31075        -3.50862         5.41338
     2006.31349        -4.15022         5.54366
     2006.31623         1.93618         5.45619
     2006.32170        -2.58502         5.48410
     2006.32444        -2.24062         5.43106
     2006.32718        -5.86122         5.48504
     2006.32992        -2.64882         5.57624
     2006.33265        -0.77742         5.53901
     2006.33539        -0.13202         5.57810
     2006.33813         2.88138         5.51482
     2006.34087        -3.81922         5.49434
     2006.34361        -2.65982         5.70838
     2006.34634        -0.47642         5.48783
     2006.34908        -0.19002         5.57065
     2006.35182        -1.78362         5.62556
     2006.35456        -6.86222         5.59113
     2006.35729        -4.21282         5.51109
     2006.36003        -9.67942         5.51109
     2006.36277        -3.05802         5.55204
     2006.36551        -4.18863         5.55111
     2006.36825        -1.27023         5.63859
     2006.37098        -1.74983         5.60695
     2006.37372        -0.84243         5.70838
     2006.37646        -5.26803         5.68791
     2006.37920        -3.10563         5.74375
     2006.38193         6.36677         5.82285
     2006.38467         1.34517         5.91312
     2006.38741        -3.65443         5.69349
     2006.39015         0.97697         5.56042
     2006.39289         0.93137         5.59019
     2006.39562        -4.26423         5.78097
     2006.39836        -1.64683         5.78935
     2006.40110         2.41857         5.60229
     2006.40384         3.87497         5.66371
     2006.40658        -0.37363         5.56135
     2006.40931         1.10477         5.64603
     2006.41205         1.94217         5.62277
     2006.41479        -6.93243         5.67674
     2006.41753        -7.32103         5.73537
     2006.42026        -1.89064         5.73909
     2006.42300         3.44076         5.80982
     2006.42574         4.29216         5.81261
     2006.42848        -2.91344         5.82285
     2006.43122         7.64896         5.98664
     2006.43395        -0.57764         5.56507
     2006.43669         0.97676         5.62556
     2006.43943         3.79216         5.72420
     2006.44217         1.66756         5.61160
     2006.44491         3.54296         5.73165
     2006.44764        -1.92764         5.61253
     2006.45038         0.03076         5.61625
     2006.45312         2.40916         5.71211
     2006.45586         1.10856         5.68233
     2006.45859         5.69096         5.67953
     2006.46133         2.32036         5.76980
     2006.46407         2.52476         5.74002
     2006.46681         5.65616         5.72979
     2006.46955         3.16156         5.89078
     2006.47228         2.90596         5.78190
     2006.47502        16.65135         5.87310
     2006.47776        -2.39925         5.71769
     2006.48050        -2.46385         5.84611
     2006.48324         2.51455         5.97361
     2006.48597         6.71695         5.97268
     2006.48871         3.52735         5.97919
     2006.49145         7.84675         5.76608
     2006.49419        -0.43185         5.69628
     2006.49692         5.93155         5.84611
     2006.49966        -2.38405         5.76887
     2006.50240        -3.57665         5.71024
     2006.50514         5.66075         5.73816
     2006.50788        -3.47685         5.61160
     2006.51061        -2.94345         5.77353
     2006.51335         0.65095         5.74375
     2006.51609         0.69935         5.71304
     2006.51883         3.50875         5.80051
     2006.52157        -4.33685         5.71024
     2006.52430         4.74655         5.73723
     2006.52704         2.62295         5.85356
     2006.52978         7.41935         5.71490
     2006.53252        -7.19726         5.80331
     2006.53525         8.79014         5.80051
     2006.53799         3.44054         5.72513
     2006.54073         3.61594         5.94662
     2006.54347         0.44734         5.65906
     2006.54621         2.41174         5.60229
     2006.54894        -1.34286         5.53250
     2006.55168        -0.53946         5.54366
     2006.55442         4.62394         5.56321
     2006.55716         5.10534         5.84797
     2006.55990         9.83574         5.67023
     2006.56263        -2.50486         5.59019
     2006.56537        -0.79946         5.67581
     2006.56811        -9.39406         5.53436
     2006.57085        -3.24366         5.62091
     2006.57358         2.21774         5.74095
     2006.57632         7.71814         5.59671
     2006.57906         1.17154         5.62091
     2006.58180         2.17494         5.52412
     2006.58454        -2.90466         5.74561
     2006.58727        -0.88727         5.67581
     2006.59001        -1.28087         5.83867
     2006.59275         1.79853         5.72141
     2006.59549        -1.33507         5.72420
     2006.59823        -6.49867         5.73723
     2006.60096        -4.46327         5.56879
     2006.60370       -10.65187         5.67302
     2006.60644        -2.49347         5.56600
     2006.60918        -3.95307         5.63673
     2006.61191        -6.22067         5.60415
     2006.61465        -1.01927         5.60043
     2006.61739         1.44513         5.59764
     2006.62013         1.86153         5.68233
     2006.62287        -3.91807         5.61997
     2006.62560         1.00433         5.58926
     2006.62834        -4.39427         5.65162
     2006.63108        -7.41887         5.51295
     2006.63382         0.58053         5.55111
     2006.63656        -0.59607         5.57624
     2006.63929         3.73733         5.76887
     2006.64203         0.73572         5.61346
     2006.64477        -7.50588         5.53064
     2006.64751         4.06252         5.71676
     2006.65024        -0.45008         5.85356
     2006.65298        -3.01968         5.88985
     2006.65572        -4.20728         5.91126
     2006.65846        -0.75188         6.01269
     2006.66120         1.15952         5.90567
     2006.66393        -5.17308         5.84984
     2006.66667        -7.32668         5.84146
     2006.66941        -4.33428         5.84611
     2006.67215        -5.76588         5.85728
     2006.67488        -3.87248         5.98850
     2006.67762        -3.41408         5.96709
     2006.68036        -9.06768         5.87775
     2006.68310         4.67572         6.07225
     2006.68584        -1.45288         5.98105
     2006.68857         4.89852         5.74747
     2006.69131        -4.49308         5.66092
     2006.69405         2.70632         5.78562
     2006.69679        -2.98329         5.69722
     2006.69953         4.31111         5.77446
     2006.70226         1.64151         5.91591
     2006.70500        -7.99709         5.89357
     2006.70774         0.44031         5.63393
     2006.71048        -1.64229         5.57903
     2006.71321         1.12311         5.59113
     2006.71595         4.34251         5.68326
     2006.71869        -4.28909         5.53436
     2006.72143         4.20231         5.76794
     2006.72417         7.49471         5.93638
     2006.72690         1.93611         5.70466
     2006.72964         5.02851         5.77632
     2006.73238        -3.25109         5.61904
     2006.73512        -0.60369         5.56600
     2006.73786        -2.23329         5.64138
     2006.74059        -0.23189         5.69163
     2006.74333        12.31051         5.67953
     2006.74607         2.88391         6.13367
     2006.74881         5.45231         6.20719
     2006.75154         0.96470         6.29374
     2006.75428        -1.67490         6.31049
     2006.75702        -0.17750         6.17648
     2006.75976         3.43590         6.31328
     2006.76250        -0.81770         6.05550
     2006.76523        -6.05330         6.14298
     2006.76797        -5.40790         6.12995
     2006.77071        -5.27450         6.09552
     2006.77345         0.55690         6.09645
     2006.77619         1.97430         6.14670
     2006.77892        -7.08430         6.19416
     2006.78166         1.20610         6.18300
     2006.78440        -5.29450         6.26954
     2006.78714        -3.65410         6.08714
     2006.78987         3.83530         6.28257
     2006.79261         0.45670         6.35981
     2006.79535        -9.04290         6.19323
     2006.79809        -6.11750         6.08342
     2006.80083        -1.79610         6.20812
     2006.80356        -5.56670         6.21184
     2006.80630        -3.09631         6.07132
     2006.80904         1.13309         6.12251
     2006.81178         7.03749         6.12158
     2006.81452         0.35089         6.30398
     2006.81725        -2.21571         6.18951
     2006.81999        -4.29731         5.97547
     2006.82273        -5.47791         6.02758
     2006.82547        -0.21951         6.04806
     2006.82820        -1.05211         6.03038
     2006.83094        -4.94371         6.06946
     2006.83368         0.13669         6.09273
     2006.83642         7.47409         6.36260
     2006.83916        -5.35151         6.18951
     2006.84189       -14.35811         6.68087
     2006.84463        -3.66171         6.15135
     2006.84737       -10.01431         6.07225
     2006.85011        -4.06791         6.36167
     2006.85285        13.44249         6.57385
     2006.85558         2.25089         6.54593
     2006.85832        -0.79371         6.30491
     2006.86106         1.26568         6.53756
     2006.86380        -1.26292         6.54687
     2006.86653        -7.09752         6.41193
     2006.86927        -0.50512         6.10762
     2006.87201        -0.03272         5.95686
     2006.87475        -0.94232         6.06015
     2006.87749         0.40308         5.95127
     2006.88022        -5.19452         6.02851
     2006.88296        -7.17512         5.87682
     2006.88570        -1.37572         5.93080
     2006.88844        -2.99532         5.97919
     2006.89118        -7.07992         5.98850
     2006.89391       -10.82152         6.06202
     2006.89665        -0.60312         5.93080
     2006.89939        -5.22172         6.01828
     2006.90213         0.69668         5.93824
     2006.90486        -3.07092         6.08993
     2006.90760         4.62148         5.95686
     2006.91034        -3.66312         5.94941
     2006.91308        -4.04372         6.11227
     2006.91582        -1.12933         6.09552
     2006.91855        -2.30093         5.93731
     2006.92129         1.66047         6.08714
     2006.92403        -6.20013         6.00711
     2006.92677        -6.91273         6.04154
     2006.92951        -3.70833         6.20905
     2006.93224        -0.19893         6.02851
     2006.93498         5.89047         6.24162
     2006.93772         9.40487         6.48451
     2006.94046        -6.83873         6.33934
     2006.94319        -5.87333         6.09924
     2006.94593        -5.07593         6.14205
     2006.94867        -6.23353         6.08900
     2006.95141         0.72587         6.06946
     2006.95415         1.10027         6.33469
     2006.95688         1.23267         6.07877
     2006.95962         5.40407         6.24255
     2006.96236         8.30047         5.95500
     2006.96510         0.06287         6.26024
     2006.96784         3.40727         6.14577
     2006.97028        -7.20081         7.16014
     2006.97336        -6.93985         5.90102
     2006.97605       -10.28654         5.63579
     2006.97879        -7.91214         5.68605
     2006.98152        -8.64074         5.65441
     2006.98426        -5.36134         5.81075
     2006.98700         2.76606         5.97640
     2006.98974         1.59046         5.98291
     2006.99248        -6.39614         5.78469
     2006.99521        -5.99074         5.77539
     2006.99795        -0.83534         5.73909
     2007.00343        -2.41554         5.77353
     2007.00616        -4.15214         5.81913
     2007.00890        -1.28174         5.77632
     2007.01164        -3.59034         5.70001
     2007.01438        -4.78094         5.64417
     2007.01712        -7.86554         5.69722
     2007.01985        -5.93114         5.65162
     2007.02259        -5.03474         5.49806
     2007.02533         3.38565         5.74095
     2007.02807        -1.33595         5.63300
     2007.03081        -3.63955         5.39756
     2007.03354       -10.62715         5.39663
     2007.03628       -10.54475         5.46828
     2007.03902        -9.46235         5.40035
     2007.04176        -6.98095         5.48876
     2007.04449        -3.97355         5.44409
     2007.04723        -9.41615         5.49899
     2007.04997        -4.22175         5.73909
     2007.05271        -2.62235         5.71117
     2007.05545         0.97805         5.38360
     2007.05818        -1.90555         5.42362
     2007.06092        -3.85615         5.36592
     2007.06366        -9.75275         5.36499
     2007.06640        -8.11935         5.41989
     2007.06914        -3.69195         5.37336
     2007.07187         0.32245         5.38546
     2007.07461         2.39585         5.30636
     2007.07735         4.99425         5.31753
     2007.08009        -7.75535         5.28588
     2007.08282        -0.75096         5.23098
     2007.08556        -1.02956         5.41152
     2007.08830        -5.13716         5.43944
     2007.09104        -5.42576         5.42082
     2007.09378        -5.85036         5.26634
     2007.09651        -2.69696         5.31101
     2007.09925        -2.28056         5.33986
     2007.10199        -3.70716         5.37522
     2007.10473        -3.46776         5.54553
     2007.10747         5.52064         5.57810
     2007.11020        -3.06196         5.34079
     2007.11294        -2.38656         5.40966
     2007.11568        -4.36516         5.36033
     2007.11842         0.64324         5.31659
     2007.12115        -3.89536         5.33986
     2007.12389        -2.24796         5.40966
     2007.12663         3.05744         5.40966
     2007.12937         6.93884         5.57158
     2007.13211        -2.26776         5.39290
     2007.13484         9.63364         5.40593
     2007.13758         2.39003         5.34730
     2007.14032        -2.80157         5.38453
     2007.14306         4.43383         5.56879
     2007.14580        -1.58177         5.37988
     2007.14853        -0.78137         5.39104
     2007.15127        -2.94097         5.37522
     2007.15401         0.87343         5.35661
     2007.15675         7.15183         5.45898
     2007.15948         6.54023         5.38081
     2007.16222        -2.36237         5.61997
     2007.16496        -5.36797         5.48690
     2007.16770        -0.87257         5.45805
     2007.17044        -3.21517         5.40128
     2007.17317         3.45223         5.53808
     2007.17591         2.94563         5.54553
     2007.17865         4.61903         5.55204
     2007.18139         5.80743         5.56042
     2007.18413        -3.67117         5.59113
     2007.18686        -2.41077         5.86380
     2007.18960         1.84063         5.57996
     2007.19234         1.31102         5.53529
     2007.19508         1.07842         5.42641
     2007.19781         0.27282         5.47852
     2007.20055        -2.69878         5.47852
     2007.20329        -1.62838         5.45712
     2007.20603        -2.76598         5.38825
     2007.20877         3.84842         5.45712
     2007.21150        -4.85318         5.37429
     2007.21424         4.38622         5.62742
     2007.21698        -0.49338         5.65441
     2007.21972         6.36602         5.36871
     2007.22246         3.67742         5.38639
     2007.22519        15.99882         5.46084
     2007.22793         7.66422         5.45060
     2007.23067        -3.83038         5.52971
     2007.23341        -0.99298         5.59206
     2007.23614         4.26742         5.49806
     2007.23888        -1.50918         5.38639
     2007.24162         1.38522         5.35382
     2007.24436        -1.11138         5.42734
     2007.24710         5.94001         5.54925
     2007.24983         4.79241         5.47573
     2007.25257         0.05281         5.42268
     2007.25531         2.96121         5.53157
     2007.25805         1.16561         5.57996
     2007.26079         0.90801         5.50272
     2007.26352         7.17841         5.54646
     2007.26626         8.89481         5.47666
     2007.26900         6.74521         5.48690
     2007.27174        12.44961         5.55483
     2007.27447         4.89701         5.55390
     2007.27721        16.12141         5.54087
     2007.27995         7.25581         5.45619
     2007.28269        18.97421         5.64696
     2007.28543         7.24261         5.42548
     2007.28816         9.68201         5.45060
     2007.29090        -2.84459         5.47852
     2007.29364         1.86881         5.49248
     2007.29638         2.33821         5.47108
     2007.29911        -0.69939         5.43478
     2007.30185         0.41300         5.45339
     2007.30459         8.53740         5.47108
     2007.30733         5.63580         5.48969
     2007.31007        -0.89280         5.53343
     2007.31280         8.32960         5.53994
     2007.31554         5.93600         5.44502
     2007.31828         4.01540         5.44502
     2007.32102         1.39380         5.45805
     2007.32376        -0.72080         5.46456
     2007.32649         8.27860         5.45991
     2007.32923         5.37100         5.42455
     2007.33197        -3.69560         5.64510
     2007.33471         5.72580         5.65906
     2007.33744        -0.48180         5.37802
     2007.34018         3.45160         5.43106
     2007.34274        -1.91729         5.80610
     2007.34566        -4.19360         5.45898
     2007.34840        -0.73820         5.43757
     2007.35113         2.86820         5.45153
     2007.35387        -2.52340         5.86938
     2007.35661        -5.36701         5.75491
     2007.35935         5.72739         5.48410
     2007.36209         2.57879         5.50923
     2007.36482        -1.51981         5.55297
     2007.36756         9.79359         5.59764
     2007.37030        -0.41801         5.51109
     2007.37304         0.64339         5.47294
     2007.37577        -3.78421         5.59206
     2007.37851         3.25819         5.44409
     2007.38125         4.57559         5.47108
     2007.38399        -3.18101         5.49062
     2007.38673        -0.42861         5.40500
     2007.38946        -3.09621         5.39942
     2007.39220         0.44419         5.47945
     2007.39494         2.16159         5.37336
     2007.39768        -2.50901         5.46828
     2007.40042        -0.51161         5.50737
     2007.40315         5.78779         5.56042
     2007.40589         4.01219         5.40407
     2007.40863        -0.90541         5.49248
     2007.41137        -4.72702         5.44595
     2007.41410         5.50238         5.49062
     2007.41684         2.31278         5.43478
     2007.41958         7.11418         5.44130
     2007.42232         7.97558         5.47852
     2007.42506         9.40198         5.77353
     2007.42779         3.09938         5.42641
     2007.43053         6.96078         5.40221
     2007.43327         8.02318         5.51854
     2007.43601         7.29658         5.54180
     2007.43875         2.61498         5.56228
     2007.44148         8.76838         5.51202
     2007.44422         0.76378         5.48410
     2007.44696         5.16118         5.48317
     2007.44970         0.37358         5.48969
     2007.45243         3.40498         5.50458
     2007.45517        -2.75962         5.42734
     2007.45791         6.12378         5.65720
     2007.46065         7.40218         5.47201
     2007.46339         4.30858         5.42082
     2007.46612        -2.34703         5.53994
     2007.46886         6.77437         5.45246
     2007.47160         3.44677         5.41245
     2007.47434         4.00117         5.35847
     2007.47708         0.25457         5.54273
     2007.47981        -4.50703         5.46922
     2007.48255        -5.85163         5.42641
     2007.48529        -6.85423         5.36685
     2007.48803        -2.63883         5.51761
     2007.49076         3.58057         5.44037
     2007.49350         0.04397         5.49341
     2007.49624         2.93537         5.48504
     2007.49898         5.26577         5.50551
     2007.50172         2.12717         5.46270
     2007.50445         0.92457         5.46177
     2007.50719         6.52797         5.51482
     2007.50993        -0.81463         5.53436
     2007.51267        -0.15623         5.51854
     2007.51498        -1.33852         6.39331
     2007.51814        -0.57143         5.51388
     2007.52088        -1.28004         5.47387
     2007.52362        -0.18764         5.50179
     2007.52636        -0.97724         5.48504
     2007.52909        -0.24984         5.43664
     2007.53183        -0.32244         5.41989
     2007.53457         0.51896         5.52505
     2007.53731        -6.82464         5.47108
     2007.54005         1.68176         5.49713
     2007.54278         4.53116         5.47666
     2007.54552         3.29556         5.55111
     2007.54826         6.63196         5.51016
     2007.55100         2.93236         5.49713
     2007.55374         5.86376         5.54459
     2007.55647         0.82316         5.67488
     2007.55921        10.10456         5.62556
     2007.56195        -1.96404         5.55297
     2007.56469         0.31536         5.51854
     2007.56742         4.01176         5.58368
     2007.57016         3.29716         5.48038
     2007.57290        -5.27444         5.53808
     2007.57564        -9.19505         5.54739
     2007.57838         0.98735         5.60229
     2007.58111        -2.19225         5.50458
     2007.58385        -0.70385         5.56972
     2007.58659         1.67255         5.38918
     2007.58933         1.96895         5.45526
     2007.59206         5.11335         5.56321
     2007.59480        -1.20625         5.69070
     2007.59754        -0.50185         5.54459
     2007.60028        -5.36245         5.38174
     2007.60302        -1.82005         5.42641
     2007.60575         0.92535         5.41152
     2007.60849        -5.93525         5.43385
     2007.61123        -1.33385         5.46549
     2007.61397        -1.44945         5.37895
     2007.61671        -7.70805         5.73258
     2007.61944         1.74835         5.72141
     2007.62218        -2.94225         5.78097
     2007.62492        -1.13185         5.65255
     2007.62766         2.81555         5.89544
     2007.63039         1.87295         5.84425
     2007.63313        -5.55966         5.72327
     2007.63587         2.07074         5.69163
     2007.63861        -3.26486         5.72886
     2007.64135         0.95654         5.56507
     2007.64408         0.27194         5.76515
     2007.64682        -2.11566         5.67860
     2007.64956         5.57374         6.02014
     2007.65230        -2.46186         5.82843
     2007.65504        -0.08746         5.67767
     2007.65777        -5.98306         5.78376
     2007.66051        -0.12266         5.93080
     2007.66325         4.57374         5.72234
     2007.66599        -3.08286         5.71862
     2007.66872        -2.47546         5.80331
     2007.67146        -5.66606         5.65627
     2007.67420        -4.25366         5.75864
     2007.67694         1.40674         5.69908
     2007.67968         2.38314         5.71676
     2007.68241        -0.90946         5.74840
     2007.68515         8.17594         5.84611
     2007.68789        11.89833         5.86007
     2007.69063        -3.55527         5.80889
     2007.69337         0.67013         5.66371
     2007.69610         2.11953         5.75026
     2007.69884         6.19793         5.85077
     2007.70158         5.23133         5.80331
     2007.70432         1.08873         5.96430
     2007.70705        -2.22487         5.72793
     2007.70979         3.50653         5.80051
     2007.71253         5.60993         5.66371
     2007.71527         9.43033         5.67581
     2007.71801         5.18473         5.54459
     2007.72074         8.43013         5.61346
     2007.72348        10.07053         5.55111
     2007.72622         3.49393         5.48876
     2007.72896         6.69033         5.56600
     2007.73170         2.23973         5.63486
     2007.73443         4.99313         5.53994
     2007.73717         2.09953         5.67116
     2007.73991         4.37293         5.55576
     2007.74265         8.19332         5.53808
     2007.74538         3.08672         5.59950
     2007.74812         5.57312         5.71117
     2007.75086         8.00052         5.77818
     2007.75360         5.71192         5.63579
     2007.75634         9.26432         5.61904
     2007.75907         6.96472         5.61346
     2007.76181         8.84412         5.54832
     2007.76455         2.40252         5.50365
     2007.76729         6.49292         5.91963
     2007.77003         0.64732         5.95593
     2007.77276        -3.13128         6.12809
     2007.77550         2.55312         5.54925
     2007.77824         7.99152         5.82657
     2007.78098        14.54792         5.51761
     2007.78371         6.48232         5.47201
     2007.78645         8.64572         5.42175
     2007.78919        13.74712         5.56693
     2007.79193        -1.03148         5.76794
     2007.79467        -0.57808         5.64231
     2007.79740         2.76331         5.56879
     2007.80014        17.61571         5.62835
     2007.80288         3.53311         5.53064
     2007.80562         1.65451         5.53436
     2007.80836         3.16791         5.61253
     2007.81109         5.54931         5.64417
     2007.81383         6.73671         5.59113
     2007.81657         1.45411         5.68419
     2007.81931         2.10451         5.64138
     2007.82204        -3.81209         5.79865
     2007.82478         5.78331         5.66930
     2007.82752        -3.14229         5.70280
     2007.83026        -2.50489         5.49248
     2007.83300        -2.25749         5.41524
     2007.83573         0.90091         5.53250
     2007.83847        -0.00469         5.43850
     2007.84121         3.41371         5.47015
     2007.84395        -4.99789         5.46084
     2007.84669        -4.05449         5.43292
     2007.84942         0.11891         5.49248
     2007.85216        -0.56270         5.62835
     2007.85490        -6.13630         5.69442
     2007.85764        -0.50890         5.48876
     2007.86037        -1.08450         5.44874
     2007.86311         1.84890         5.41245
     2007.86585         0.61930         5.57344
     2007.86859        -1.52630         5.47387
     2007.87133         0.77210         5.49713
     2007.87406         0.49750         5.56879
     2007.87680        -3.34710         5.50551
     2007.87954         1.31630         5.49248
     2007.88228         1.36870         5.45712
     2007.88502        -0.79390         5.55018
     2007.88775        -9.18750         5.54087
     2007.89049        -1.42610         5.43013
     2007.89323         0.46530         5.52040
     2007.89597         3.54770         5.67302
     2007.89870         1.50310         5.53715
     2007.90144         4.81650         5.68140
     2007.90418         2.70390         5.61718
     2007.90692        -2.90671         5.56135
     2007.90966        -1.01431         5.54553
     2007.91239        -1.00491         5.55111
     2007.91513        -1.69151         5.57810
     2007.91787         1.38489         5.52412
     2007.92061        -6.45471         5.71676
     2007.92334        -2.91631         5.73165
     2007.92608         9.20209         5.69163
     2007.92882         7.01549         5.65255
     2007.93156         4.95089         5.94569
     2007.93430         3.56929         5.63673
     2007.93703        -0.80331         5.64231
     2007.93977        -0.42991         5.60043
     2007.94251         3.15049         5.64975
     2007.94525         6.17789         5.79958
     2007.94799         7.44929         5.72606
     2007.95072         2.40669         5.71117
     2007.95346         4.51409         5.66278
     2007.95620         0.72749         5.67209
     2007.95894         8.80589         5.70652
     2007.96167         6.02228         5.69815
     2007.96441         1.56768         5.72420
     2007.96715         4.94008         5.90381
     2007.96989        -3.61352         5.70838
     2007.97263       -10.84612         5.69349
     2007.97536        -2.78072         5.70931
     2007.97810         6.01968         5.75677
     2007.98084         9.34608         5.68698
     2007.98358         7.50948         5.56321
     2007.98632         6.97188         5.78842
     2007.98905         2.08128         5.76143
     2007.99179         0.53068         5.67209
     2007.99453        -2.19292         5.69256
     2007.99727         1.71748         5.59950
     2008.00000        -7.06712         5.52691
     2008.00274        -5.42772         5.53343
     2008.00548        13.11068         5.52691
     2008.00822        14.72308         5.97268
     2008.01096         2.32948         5.64231
     2008.01369         1.04888         5.62649
     2008.01643         0.63927         5.43664
     2008.01917        -1.22733         5.66092
     2008.02191        -5.27093         5.70280
     2008.02465        -1.49653         5.59113
     2008.02738        -7.77613         5.66557
     2008.03012         0.72327         5.45153
     2008.03286       -11.18733         5.43944
     2008.03833        -7.71453         5.50551
     2008.04107        -4.86213         5.61439
     2008.04381        -4.55673         5.51482
     2008.04655        -2.14233         5.47666
     2008.04929        -4.29593         5.39849
     2008.05202        -5.39453         5.45246
     2008.05476         0.93587         5.48690
     2008.05750         2.88927         5.64138
     2008.06024        -9.02133         5.38174
     2008.06298        -1.77893         5.47480
     2008.06571         2.15647         5.62742
     2008.06845        -2.14013         5.63021
     2008.07119        -7.42374         5.89078
     2008.07393        -2.76934         5.49993
     2008.07666         3.65706         5.63393
     2008.07940        -9.58554         5.76980
     2008.08214        -6.67814         5.42455
     2008.08488        -4.95474         5.49155
     2008.08762        -4.51034         5.49527
     2008.09035        -0.49494         5.62742
     2008.09309         1.13546         5.47108
     2008.09583        -0.09414         5.54832
     2008.09857        -2.44174         5.58461
     2008.10131        -5.18034         5.61346
     2008.10404         0.24906         5.49155
     2008.10678         0.44446         5.51295
     2008.10952        -1.40814         5.43199
     2008.11226         0.44426         5.46270
     2008.11499        -1.26334         5.40314
     2008.11773         2.42406         5.60136
     2008.12047        -1.27254         5.54832
     2008.12321         5.62986         5.56042
     2008.12595         4.91626         5.46642
     2008.12868        -0.29135         5.45526
     2008.13142         4.98005         5.42548
     2008.13416         0.75245         5.51575
     2008.13690        -0.46915         5.56228
     2008.13964         5.99325         5.64510
     2008.14237        21.05565         5.56507
     2008.14511         3.79605         5.59764
     2008.14785        -4.38855         5.79958
     2008.15059         0.10985         5.53064
     2008.15332        -1.91975         5.49248
     2008.15606        -0.97535         5.42734
     2008.15880         2.46105         5.41896
     2008.16154        -3.57155         5.41803
     2008.16428         1.90985         5.64975
     2008.16701        -4.95675         5.56042
     2008.16975        -7.32735         5.48038
     2008.17249        -5.00995         5.49527
     2008.17523         0.93945         5.53901
     2008.17797         0.01185         5.39942
     2008.18070        -2.28975         5.45153
     2008.18344         0.11164         5.47015
     2008.18618         6.26304         5.40593
     2008.18892        -5.97656         5.41152
     2008.19165         4.51184         5.41617
     2008.19439         9.65924         5.48038
     2008.19713         6.55764         5.51668
     2008.19987         2.87104         5.53157
     2008.20261         5.04544         5.54925
     2008.20534         7.39884         5.41803
     2008.20808         0.09524         5.66092
     2008.21082         2.57564         5.63579
     2008.21356         5.05404         5.60229
     2008.21629         3.49544         5.59299
     2008.21903         0.62884         5.53343
     2008.22177         2.98524         5.54459
     2008.22451        -0.02336         5.59392
     2008.22725         5.41204         5.58089
     2008.22998         7.70244         5.69628
     2008.23272         7.85084         5.71117
     2008.23546         0.44924         5.66651
     2008.23820         5.26863         5.55297
     2008.24094         9.08303         5.53901
     2008.24367         5.09043         5.47480
     2008.24641         6.58783         5.45805
     2008.24915         6.04923         5.51947
     2008.25189         8.43163         5.66278
     2008.25462         2.96403         5.51295
     2008.25736         4.80043         5.52505
     2008.26010         0.86983         5.43571
     2008.26284        10.67223         5.62091
     2008.26558         3.31663         5.49620
     2008.26831         6.62503         5.46642
     2008.27105         8.97043         5.47201
     2008.27379         5.57283         5.49062
     2008.27653         5.41423         5.43478
     2008.27927         1.14263         5.55948
     2008.28200        11.16003         5.51668
     2008.28474         7.93143         5.52412
     2008.28748        14.58183         5.72886
     2008.29022         7.14523         5.50365
     2008.29295         9.10762         5.47852
     2008.29569         7.37602         5.54366
     2008.29843         5.73942         5.52319
     2008.30117         1.92982         5.50458
     2008.30391         3.57222         5.48131
     2008.30664         7.71762         5.52877
     2008.30938         4.94302         5.58182
     2008.31212         5.09642         5.55018
     2008.31486         7.93482         5.50923
     2008.31760         1.58422         5.68884
     2008.32026         4.84950         5.87310
