# ================= DQRFIT RESULTS ================
# INPUT FILE: series/HGP1.rad
# OUTPUT: LDETRENDED
# FILTER FUNCTION: f(t)
# f(t)=+line(t)+annual(t)+jumps(t)
# line(t)=+P 1+P 2*t
# annual(t)=+P 3*sin(2*pi*t+P 4)
# jumps(t)=+P 5*heav(t-2008.1650  )+P 6*heav(t-2011.1253  )
# heav(t)=(t<0?0:1)
# TOTAL OBSERVATIONS MTOT= 1527
# INITIAL TIME INTERVAL= 2012.5574 - 2007.5971 =  4.9603
# TOTAL OBSERVATIONS AFTER PREFILTER M= 1516
# TIME-SPAN= 2012.5574 - 2007.5971 =  4.9603
# OBSERVATIONS: USED M=  1516 REJECTED MTOT-M=    11 %USED=   99.2796
# N=  6 PARAMETERS
# MAXSIG= 175.00000
# MAXRES=  20.51858
# SCALE FACTOR FOR LENGTHS: SCL=  10.00000
# SCALE FACTOR FOR SIGMAS: SCLSIG=   1.00000
# CHI^2=   1300.176 DOF=  1510 CHI^2/DOF=   0.86104
# RMS=      5.741 SDEV=      5.743 MEAN=   -0.01845
#  P #       PARAMETER +-    SIGMA %error PARAMETER NAME
# P 1 =     15354.14652 +-  424.016   2.76 YZERO                              
# P 2 =        -2.03522 +-    0.211  10.38 SLOPE                              
# P 3 =         5.87191 +-    0.205   3.49 ANNUAL AMPLITUDE                   
# P 4 =        -3.01022 +-    0.049   1.63 ANNUAL PHASE                       
# P 5 =        -0.02232 +-    0.574 ****** OFFSET 2008.1650                   
# P 6 =    -47201.92137 +-    0.594   0.00 OFFSET 2011.1253                   
#       T            LDETRENDED       SIG_OBS
     2007.59706         6.69526         6.66992
     2007.60027         3.80479         5.31051
     2007.60301         4.40736         5.22050
     2007.60574         5.35293         5.33557
     2007.60848        10.14950         5.34299
     2007.61122        11.47608         5.34485
     2007.61396         1.82565         5.31330
     2007.61670         0.67822         5.63993
     2007.61943         1.41379         5.83015
     2007.62217        11.54636         5.47475
     2007.62491         6.60994         5.49146
     2007.62765         4.45451         5.56940
     2007.63039        15.25408         5.63621
     2007.63312        -3.40135         5.45341
     2007.63586         3.41923         5.40794
     2007.63860        -0.41720         5.38567
     2007.64134         6.11637         5.25113
     2007.64407        13.69594         5.55548
     2007.64681         1.92851         5.68354
     2007.64955         0.26309         5.59446
     2007.65229        12.73366         5.52857
     2007.65503         6.88023         5.54064
     2007.65776         9.73380         5.40052
     2007.66050         6.23737         5.41258
     2007.66324        12.70695         5.45898
     2007.66598         5.46952         5.45991
     2007.66872        11.57109         5.60559
     2007.67145        12.08166         5.58703
     2007.67419        21.44624         5.86448
     2007.67693        11.96381         5.39681
     2007.67967         6.39738         5.43857
     2007.68240         9.07395         5.46548
     2007.68514         9.46452         5.52393
     2007.68788        11.13010         5.48589
     2007.69062        10.33467         5.37639
     2007.69336        12.42524         5.36897
     2007.69609         9.08581         5.46455
     2007.69883        11.00738         5.54992
     2007.70157        12.07896         5.38846
     2007.70431        16.80453         5.57868
     2007.70705         9.35010         5.60188
     2007.70978         9.91367         5.55270
     2007.71252         8.67424         5.42929
     2007.71526         8.66582         5.27618
     2007.71800        10.62339         5.35041
     2007.72073        14.96396         5.33649
     2007.72347         3.05453         5.47475
     2007.72621         8.63011         5.29288
     2007.72895         2.15168         5.28175
     2007.73169         5.92925         5.42186
     2007.73442         8.54482         5.33371
     2007.73716         8.07539         5.44506
     2007.73990         9.32197         5.28453
     2007.74264         7.63854         5.29103
     2007.74538        15.99311         5.35598
     2007.74811        10.36068         5.56384
     2007.75085         7.32525         5.84221
     2007.75359        16.92183         5.46548
     2007.75633        -1.37960         5.27247
     2007.75906        10.54597         5.30216
     2007.76180         1.75954         5.41815
     2007.76454         8.54312         5.35505
     2007.76728         3.07469         5.80695
     2007.77002         1.89726         5.68354
     2007.77275         6.78883         5.60095
     2007.77549         6.35840         5.37454
     2007.77823        10.03598         5.26876
     2007.78097        10.10455         5.29195
     2007.78371         6.22512         5.28175
     2007.78644        13.28369         5.30866
     2007.78918         7.99826         5.76983
     2007.79192         8.98684         5.63157
     2007.79466        11.77541         5.47012
     2007.79739         9.58498         5.55734
     2007.80013         9.15655         5.42465
     2007.80264         8.09966         5.80046
     2007.80561         1.05970         5.39495
     2007.80835         5.88127         5.35412
     2007.81108         5.43384         5.59910
     2007.81382        -2.27759         5.45898
     2007.81656        -1.35301         5.44692
     2007.81930         2.72656         5.35876
     2007.82203        -0.22787         5.44042
     2007.82477        13.42170         5.51094
     2007.82751        -4.09473         5.41166
     2007.83025        -0.96115         5.45156
     2007.83299        -2.74658         5.40052
     2007.83572         3.41599         5.20380
     2007.83846        -2.62444         5.30773
     2007.84120         7.53813         5.41444
     2007.84394        -5.72629         5.30587
     2007.84668        -0.91772         5.35876
     2007.84941        -2.00015         5.33278
     2007.85215         6.23442         5.53971
     2007.85489         7.80300         5.63993
     2007.85763        -3.34843         5.67983
     2007.86036         4.57114         5.43485
     2007.86270         8.50990         6.31453
     2007.86584         3.51928         5.49053
     2007.86858         5.81986         5.26319
     2007.87132        -1.30257         5.37825
     2007.87405         4.09900         5.35041
     2007.87679        10.15757         5.39959
     2007.87953         0.98214         5.35227
     2007.88227        -1.25828         5.19359
     2007.88501        -0.50171         5.25484
     2007.88774        -7.21814         5.34392
     2007.89048        -3.36557         5.32536
     2007.89322        -3.24500         6.82303
     2007.89596         2.62058         5.47475
     2007.89869        -0.00185         5.26968
     2007.90132         0.09049         5.64920
     2007.90948        -3.86991         5.78561
     2007.91238        -0.18199         5.32443
     2007.91512         6.30758         5.28639
     2007.91786        11.56815         5.81438
     2007.92060        -3.92627         5.49888
     2007.92334        -1.98970         5.40052
     2007.92607         0.63787         5.36248
     2007.92881         0.09844         5.37918
     2007.93155         0.12101         5.37547
     2007.93429        -3.17041         5.34856
     2007.93697        -6.23396         5.56476
     2007.93976        -2.32227         7.27864
     2007.94142         8.50110        11.25758
     2007.95448         0.74168        11.46172
     2007.95619         1.57816         5.46362
     2007.95887        13.50362         5.53600
     2007.96229        12.34758         7.58393
     2007.96440         8.70788         7.17007
     2007.96714         4.07945         5.77076
     2007.96988       -12.31598         5.43021
     2007.97262        -5.68240         5.54157
     2007.97535        -7.82383         5.49610
     2007.97809        -0.62826         5.56940
     2007.98083        -2.21769         5.47383
     2007.98357         5.60588         5.75128
     2007.98631        -2.21554         5.62508
     2007.98904         0.41203         5.61116
     2007.99178        -5.38040         5.59353
     2007.99452        -1.07383         5.75592
     2007.99726        -4.22525         5.46733
     2008.00000       -10.62968         5.39217
     2008.00273        -9.93811         5.36433
     2008.00547        -3.04954         5.30123
     2008.00821         1.55503         5.49424
     2008.01095         3.55161         5.37639
     2008.01368         2.97218         5.40145
     2008.01642         1.39975         5.27061
     2008.01916         6.25832         5.69653
     2008.02190         1.35889         5.41258
     2008.02464        -1.45753         5.45898
     2008.02737        -5.64396         5.36248
     2008.03011        -3.55439         5.34392
     2008.03285        -6.18682         5.26226
     2008.03559        -6.94924         5.52301
     2008.03833       -11.82967         5.37639
     2008.04106       -17.04010         5.39495
     2008.04382       -12.90849         5.38753
     2008.04654        -8.31896         5.34763
     2008.04928        -7.82738         5.33278
     2008.05201        -9.88681         5.30123
     2008.05475       -10.33924         5.33557
     2008.05749       -13.91667         5.34670
     2008.06023        -8.70810         5.22422
     2008.06297        -0.97552         5.29195
     2008.06570        -2.10795         5.26133
     2008.06844        -1.92738         5.35227
     2008.07118         1.73319         5.31237
     2008.07392         2.71476         5.24092
     2008.07666         9.17634         5.75128
     2008.07939         0.34591         5.90346
     2008.08213        -6.08952         5.46084
     2008.08487        -9.54695         5.35969
     2008.08761        -9.72237         5.27803
     2008.09034        -0.75080         5.33371
     2008.09303        -9.27035         5.58425
     2008.09582        -3.16866         5.48589
     2008.09856        -7.11509         5.59260
     2008.10130        -1.13251         5.60559
     2008.10403        -6.04594         5.29938
     2008.10677        -0.02937         5.33093
     2008.10951       -10.25080         5.57775
     2008.11225        -4.85023         5.63807
     2008.11498        -9.78665         5.56940
     2008.11772        -2.13908         5.22885
     2008.12046        -7.77851         5.28639
     2008.12320        -9.53794         5.80231
     2008.12594        -3.79037         5.27711
     2008.12867        -8.20279         5.24370
     2008.13141        -2.80022         5.23999
     2008.13415        -6.07465         5.26690
     2008.13689        -4.47608         5.43021
     2008.13963        -2.92950         5.27989
     2008.14236         3.44407         5.30309
     2008.14510        -0.76136         5.21401
     2008.14784        -0.46579         5.28082
     2008.15058        -2.86522         5.23721
     2008.15320       -11.31288         5.73365
     2008.15605       -11.31007         5.61394
     2008.15879        -8.75250         5.18617
     2008.16415        -0.82859         6.49454
     2008.16706        -3.91267         6.35257
     2008.16980        -9.95910         5.59167
     2008.17248        -8.08664         5.23628
     2008.17522       -12.24607         6.00553
     2008.17796        -5.80949         5.34949
     2008.18069        -8.78892         5.30216
     2008.18343        -3.06535         5.25298
     2008.18617         0.01622         5.38011
     2008.18891       -11.31421         5.27896
     2008.19164        -5.64263         5.32629
     2008.19438       -11.27006         5.27711
     2008.19712        -4.66849         5.27989
     2008.19986         0.33708         5.26040
     2008.20260        -5.31935         5.25113
     2008.20533        -4.68677         5.24741
     2008.20807       -10.31420         5.46362
     2008.21081        -7.52163         5.38475
     2008.21355        -5.48006         5.34113
     2008.21629        -1.48149         5.32907
     2008.21902        -9.79091         5.38196
     2008.22176       -10.49534         5.34949
     2008.22450       -13.43977         5.37732
     2008.22724        -4.61420         5.29288
     2008.22997        -6.16362         5.40330
     2008.23271        -7.60005         5.46176
     2008.23545        -5.46048         5.46362
     2008.23819        -5.58991         5.26226
     2008.24093        -7.99534         5.34670
     2008.24366       -10.21676         5.22793
     2008.24640        -4.84719         5.26968
     2008.24914        -6.37062         5.33185
     2008.25188        -2.76705         5.34299
     2008.25462        -2.47648         5.26504
     2008.25735        -3.27190         5.26412
     2008.26009        -4.03133         5.19823
     2008.26283        -4.32676         5.34113
     2008.26557        -4.84619         5.36526
     2008.26830        -4.61061         5.31979
     2008.27104        -0.31004         5.27803
     2008.27378       -10.01047         5.21679
     2008.27652        -9.63890         5.47475
     2008.27926        -5.88933         5.60652
     2008.28199        -2.54875         5.28267
     2008.28473        -2.93418         5.43857
     2008.28747        -0.75061         5.46455
     2008.29021        -1.19704         5.35412
     2008.29295        -1.78147         5.38289
     2008.29568       -10.80289         5.27896
     2008.29842        -9.28132         5.36062
     2008.30116        -3.32675         5.34949
     2008.30390        -5.96418         5.32443
     2008.30663         0.81339         5.34856
     2008.30937        -4.82303         5.43578
     2008.31211       -10.46246         5.38289
     2008.31485        -9.53389         5.26040
     2008.31759        -3.81432         5.33371
     2008.32032        -3.90574         5.51373
     2008.32306        -6.89417         5.63529
     2008.32580       -11.94060         5.47847
     2008.32854        -6.54403         5.28917
     2008.33128        -4.04346         5.44785
     2008.33401        -0.39088         5.26968
     2008.33681        -2.46320         5.39588
     2008.33949        -7.66774         5.34299
     2008.34223        -2.66117         5.67704
     2008.34496        -4.06260         5.20380
     2008.34770        -2.45802         5.22329
     2008.35044        -2.18545         5.26876
     2008.35318        -4.72888         5.32072
     2008.35592        -2.57631         5.17411
     2008.35865         0.91827         5.24556
     2008.36139        -2.12816         5.15184
     2008.36413        -0.49959         5.14070
     2008.36687        -4.89202         5.17967
     2008.36961       -14.07645         5.13142
     2008.37234        -6.96487         5.14998
     2008.37508        -1.25630         5.20473
     2008.37782        -2.02473         5.43764
     2008.38056         5.26884         5.42094
     2008.38329        -6.37759         5.31330
     2008.38603         3.07499         5.19823
     2008.38877        -0.50144         5.53785
     2008.39151         0.48013         5.36248
     2008.39425        -3.49530         5.18524
     2008.39698         0.85227         5.47568
     2008.39972         2.64485         5.20937
     2008.40246        -3.10458         5.20380
     2008.40514         3.78688         5.31144
     2008.40794         1.83856         5.21958
     2008.41067         2.51414         5.20566
     2008.41341        -1.00629         5.24834
     2008.41615        -0.29672         5.18617
     2008.41889         2.12285         5.25484
     2008.42162        -3.05558         5.38753
     2008.42436        -0.32900         5.18246
     2008.42710        -0.10843         5.32536
     2008.42984         1.70614         5.33000
     2008.43258        -0.38229         5.40052
     2008.43531        -2.01072         5.31330
     2008.43805        -1.16314         5.33835
     2008.44079        -4.21257         5.37825
     2008.44353        -9.54700         5.26690
     2008.44626        -6.80943         5.16019
     2008.44900        -4.18385         5.15369
     2008.45174        -3.14728         5.30402
     2008.45448        -6.14171         5.39867
     2008.45722        -2.26414         5.38382
     2008.45995        -3.53757         5.29938
     2008.46269        -4.82199         5.14720
     2008.46543        -0.81642         5.24927
     2008.46817        -0.72985         5.39124
     2008.47091       -12.75628         5.40238
     2008.47364       -10.43371         5.42279
     2008.47638         2.18787         5.35320
     2008.47912        -1.57356         5.43485
     2008.48186         1.59301         5.32721
     2008.48459        -2.64042         5.42836
     2008.48733        -3.64585         5.19638
     2008.49007        -4.04327         5.13792
     2008.49281        -4.70470         5.53878
     2008.49549        -7.24225         5.52765
     2008.49828        -0.80056         5.37918
     2008.50102         1.42802         5.36340
     2008.50376        -3.90641         5.50630
     2008.50650        -0.13384         5.30031
     2008.50924        -4.12927         5.47290
     2008.51197        -0.58470         5.24277
     2008.51471        -2.29212         5.19452
     2008.51745        -4.44155         5.34577
     2008.52019         5.17202         5.19452
     2008.52292         2.09759         5.45898
     2008.52566        -0.71484         5.37176
     2008.52840         5.44774         5.24092
     2008.53108         7.50119         5.43671
     2008.53388         4.11888         5.21958
     2008.53661         1.14345         5.25762
     2008.53935         2.43902         5.23813
     2008.54209         0.15660         5.19359
     2008.54483         6.69117         5.53414
     2008.54757         5.73274         5.23349
     2008.55030         2.11431         5.21215
     2008.55304         8.42589         5.30773
     2008.55578         5.82146         5.35505
     2008.55852         9.58703         5.22143
     2008.56125         4.31960         5.20751
     2008.56399         4.39317         5.33649
     2008.56673         4.82275         5.30402
     2008.56947         5.02732         5.19174
     2008.57221        13.59589         5.34206
     2008.57494         5.26246         5.53136
     2008.57768         3.02103         5.37083
     2008.58042        15.73161         5.24741
     2008.58316        12.07818         5.36897
     2008.58590        11.33975         5.15926
     2008.58863         9.33432         5.36712
     2008.59137         9.06990         5.23071
     2008.59411         6.65047         5.26876
     2008.59685         7.86704         5.28639
     2008.59958         7.51561         5.56105
     2008.60232        14.38718         5.58889
     2008.60780         8.51933         5.31608
     2008.61054         5.50790         5.31608
     2008.61327         5.51147         5.31051
     2008.61601        14.40704         5.30680
     2008.61875         5.01662         5.28360
     2008.62149         8.30719         5.26597
     2008.62423        13.98876         5.32072
     2008.62696        16.42233         5.33557
     2008.62970        10.09990         5.44321
     2008.63244        11.27748         5.30587
     2008.63518        11.80105         5.55084
     2008.63791        14.72262         5.39495
     2008.64065         9.00519         5.23535
     2008.64339        10.12977         5.39124
     2008.64613        21.92034         5.72065
     2008.64892        13.17003         5.87840
     2008.65160        16.06148         5.42279
     2008.65434        15.43805         5.74756
     2008.65708         9.50263         5.52579
     2008.65982         5.01420         5.48682
     2008.66256         8.35677         5.54713
     2008.66529         8.31034         5.32629
     2008.66803         4.00191         5.26690
     2008.67077         0.49849         5.34670
     2008.67351         3.54506         5.34763
     2008.67624        11.43163         6.05192
     2008.67898        10.10520         5.39031
     2008.68172        10.00878         5.34021
     2008.68446        10.80335         5.32165
     2008.68720         3.57592         5.27061
     2008.68993        12.31849         5.50723
     2008.69267        10.51406         5.34392
     2008.69541        11.12164         5.32536
     2008.69815        14.15021         5.43021
     2008.70089        13.56778         5.26968
     2008.70362         8.94535         5.30958
     2008.70636        11.94092         5.30216
     2008.70910        11.52250         5.43949
     2008.71184         7.72907         5.44970
     2008.71457         6.28564         5.22793
     2008.71731         5.50721         5.25762
     2008.72005         7.62378         5.34670
     2008.72279         8.17636         5.31515
     2008.72553         9.38993         5.35412
     2008.72826         8.67950         5.25669
     2008.73100         9.88407         5.44506
     2008.73374        10.66465         5.69375
     2008.73648        -0.04978         5.33557
     2008.73921         4.05979         5.38103
     2008.74469        10.86593         5.31794
     2008.74743        10.28151         5.23349
     2008.75017         9.62708         5.44321
     2008.75290        14.80565         5.34670
     2008.75564        12.25622         5.34392
     2008.75838         9.07479         5.40516
     2008.76112         9.32937         5.25948
     2008.76386         4.62794         5.43949
     2008.76659         2.67151         5.49610
     2008.76933        -2.58792         5.37639
     2008.77207         5.40466         5.22514
     2008.77481         0.67723         5.28824
     2008.77754         6.01780         5.29381
     2008.78028         0.80037         5.21865
     2008.78302         4.91994         5.23906
     2008.78576         6.38752         5.27803
     2008.78850         2.48209         5.26319
     2008.79123         4.19066         5.47104
     2008.79397         1.39023         5.38567
     2008.79671        -0.35520         5.34392
     2008.79945         3.66138         5.39867
     2008.80219         3.17895         5.45156
     2008.80492        11.86652         5.33371
     2008.80766         5.47709         5.40887
     2008.81034         5.87055         5.64549
     2008.81314         5.04624         5.29381
     2008.81587         7.13981         5.68818
     2008.81861         2.71738         5.22329
     2008.82135         1.58395         5.23257
     2008.82409        -2.15147         5.40887
     2008.82683         6.00510         5.32443
     2008.82956         4.93267         5.50352
     2008.83230        -6.02376         5.39588
     2008.83504         9.96881         5.31608
     2008.83732        15.70646         6.40454
     2008.84052         1.57496         5.44970
     2008.84325        14.59053         5.21586
     2008.84599         6.08110         5.23071
     2008.84873         5.17467         5.44413
     2008.85147        -7.05075         5.50816
     2008.85420         0.63382         5.61209
     2008.85694         5.30839         5.34856
     2008.85968         4.43896         5.33649
     2008.86242         5.85454         5.34856
     2008.86516        10.93711         5.35412
     2008.86789         9.08568         5.29103
     2008.87063        -0.26775         5.41444
     2008.87337        -1.29418         5.26783
     2008.87611         3.95640         5.27618
     2008.87885         1.82197         5.35134
     2008.88158        -2.94346         5.36062
     2008.88432         0.16111         5.25298
     2008.88706        -1.97332         5.34206
     2008.88980         3.46526         5.53693
     2008.89253         6.76983         5.40052
     2008.89527        -3.07460         5.37083
     2008.89801         3.92997         5.29845
     2008.90075         1.07954         5.33742
     2008.90349        -5.24188         5.33371
     2008.90622        -4.82231         5.36155
     2008.90896         6.31126         5.33185
     2008.91170         5.50983         5.35876
     2008.91444         1.64441         5.25205
     2008.91718        -0.06602         5.36526
     2008.91991         4.04755         5.41258
     2008.92265         2.50512         5.37918
     2008.92539         1.21969         5.35227
     2008.92813         3.21627         5.68911
     2008.93086        -4.24116         5.28639
     2008.93360         1.13041         5.43764
     2008.93634        -0.83602         5.31330
     2008.93908         0.23055         5.38753
     2008.94182        -3.88387         5.39774
     2008.94455        -8.41130         5.37176
     2008.94729        -3.45973         5.43393
     2008.95003        -2.63216         5.24741
     2008.95277         0.35741         5.30031
     2008.95556        -1.11690         5.36619
     2008.95824        -2.97044         5.35320
     2008.96098        -2.08787         5.34392
     2008.96372         1.58670         5.23442
     2008.96646        -1.92372         5.30773
     2008.96919        -5.22415         5.21122
     2008.97193        11.10142         5.41908
     2008.97467        20.10599         5.37454
     2008.97741         6.12756         5.39867
     2008.98927        -1.04029         9.29688
     2008.99110         3.54642         5.31422
     2008.99384        -1.22800         5.36990
     2008.99657        -3.60843         5.29845
     2008.99931        -4.27486         5.25484
     2009.00479         1.84629         5.34113
     2009.00752        -4.59914         5.21772
     2009.01026        -4.66957         5.24463
     2009.01300         1.72500         5.36340
     2009.01545        -0.95701         6.21895
     2009.02395       -11.22871         5.36248
     2009.02669       -13.95814         5.28824
     2009.02943       -16.67657         5.31515
     2009.03216       -16.04699         5.23721
     2009.03490       -12.80742         5.20751
     2009.03764       -13.89385         5.41722
     2009.04038       -12.15228         5.24277
     2009.04312       -15.10571         5.25948
     2009.04585       -14.33713         5.18617
     2009.04859       -12.67856         5.23349
     2009.05133        -6.97399         5.20844
     2009.05407        -9.39742         5.29010
     2009.05681        -6.93784         5.26597
     2009.05954        -8.75127         5.19267
     2009.06228       -13.31070         5.18988
     2009.06502        -9.34413         5.20844
     2009.06776       -11.00956         5.23906
     2009.07049       -11.63298         5.27340
     2009.07323       -11.25941         5.23535
     2009.07597       -11.74384         5.20566
     2009.07871       -13.46727         5.16947
     2009.08145        -5.75570         5.17411
     2009.08418       -12.44412         5.39495
     2009.08692        -6.07855         5.21865
     2009.08966        -4.46798         5.33278
     2009.09240        -9.84941         5.22329
     2009.09514        -3.74883         5.22607
     2009.09787        -4.74726         5.45712
     2009.10061         1.11931         5.33371
     2009.10335        -6.40412         5.25484
     2009.10609        -0.43055         5.21865
     2009.10882        -6.29397         5.37639
     2009.11156        -4.30240         5.21308
     2009.11430        -8.27883         5.39774
     2009.11704        -2.13326         5.29845
     2009.11978        -1.25169         5.26133
     2009.12251        -3.15511         5.15462
     2009.12525        -5.46354         5.19823
     2009.12799        -5.16597         5.25576
     2009.13073        -0.27340         5.25576
     2009.13347        -4.94083         5.33371
     2009.13620        -5.56525         5.18246
     2009.13894       -10.47868         5.16668
     2009.14168        -6.35111         5.19823
     2009.14442       -12.01254         5.28731
     2009.14715        -6.33096         5.36248
     2009.14989         0.30961         5.38660
     2009.15263        -1.88082         5.28360
     2009.15537        -7.01725         5.44785
     2009.15811        -7.32968         5.31515
     2009.16084        -7.89310         5.28639
     2009.16358        -2.59353         5.43021
     2009.16632        -3.75896         5.33000
     2009.16906        -4.50139         5.39031
     2009.17180         0.19218         5.21401
     2009.17453        -3.46924         5.22700
     2009.17727         3.38233         5.44135
     2009.18001       -11.10210         5.36340
     2009.18275        -8.02053         5.23071
     2009.18548        -4.64895         5.21679
     2009.18822       -10.81538         5.24092
     2009.19096       -11.58481         5.27432
     2009.19370        -7.40824         5.21494
     2009.19644        -5.26967         5.26133
     2009.19917        -1.32209         5.35784
     2009.20191         7.62748         5.43114
     2009.20465       -16.06695         5.32629
     2009.20739       -10.80638         5.38660
     2009.21013       -13.35081         5.53229
     2009.21286        -1.83223         5.74478
     2009.21560        -3.09166         5.24741
     2009.21834        -1.45409         5.20566
     2009.22108        -3.20552         5.17596
     2009.22381        -7.48495         5.23721
     2009.22655        -0.82837         5.28267
     2009.22929         1.81620         5.36897
     2009.23203        -5.08623         5.22885
     2009.23477        -6.44166         5.24927
     2009.23750        -8.83508         5.39310
     2009.24024        -4.38451         5.46548
     2009.24298        -0.97994         5.36804
     2009.24572        -3.32737         5.32536
     2009.24846        -3.71380         5.38475
     2009.25119         1.05178         5.64457
     2009.25393        -5.71965         5.46640
     2009.25667        -6.06508         5.30958
     2009.25941        -7.43951         5.73643
     2009.26214        -2.98294         5.42743
     2009.26488        -6.28936         5.21030
     2009.26762        -5.63879         5.29474
     2009.27036        -1.84222         5.35134
     2009.27310        -8.05565         5.28360
     2009.27583        -3.09807         5.36155
     2009.27857        -9.12450         5.38939
     2009.28131        -8.23693         5.32072
     2009.28405       -11.99536         5.38011
     2009.28679        -2.55479         5.38475
     2009.28952       -10.12621         5.35412
     2009.29226       -14.95264         5.51280
     2009.29500        -9.18607         5.30216
     2009.29774       -10.46850         5.35227
     2009.30047        -8.96893         5.35505
     2009.30321       -11.91935         5.40794
     2009.30595        -5.78278         5.39495
     2009.30869        -2.69921         5.33928
     2009.31143        -7.72764         5.25948
     2009.31416        -6.09907         5.28267
     2009.31690        -8.35149         5.25113
     2009.31964        -5.28692         5.28824
     2009.32238        -4.93135         5.28360
     2009.32512       -10.92178         5.40145
     2009.32785       -15.78720         5.43485
     2009.33059        -4.90363         5.33835
     2009.33333        -8.29206         5.28824
     2009.33607        -5.01249         5.55456
     2009.33880        -3.69992         5.43393
     2009.34154        -7.26934         5.43114
     2009.34428        -3.62577         5.47847
     2009.34702        -7.45320         5.34021
     2009.34970        -5.27774         5.31794
     2009.35249       -12.87206         5.16947
     2009.35523        -4.95948         5.28453
     2009.35797        -2.17091         5.37639
     2009.36071        -3.72934         5.40794
     2009.36344        -6.17777         5.30587
     2009.36618        -3.48320         5.52857
     2009.36892        -3.25362         5.21958
     2009.37166        -1.05005         5.62229
     2009.37440       -10.77348         5.49424
     2009.37713        -4.33991         5.53785
     2009.37987        -7.97233         5.47939
     2009.38261        -4.28076         5.25298
     2009.38535        -6.23419         5.24927
     2009.38809        -4.27362         5.26040
     2009.39356        -6.11647         5.21030
     2009.39624       -11.76802         5.41444
     2009.39904        -6.16233         5.69746
     2009.40177        -2.24976         5.27525
     2009.40451         0.72981         5.28824
     2009.40725        -0.99961         5.25669
     2009.40999        -2.01804         5.30309
     2009.41273        -8.62047         5.27154
     2009.41546        -2.81290         5.23999
     2009.41820        -4.77632         5.27340
     2009.42094        -2.29175         5.27247
     2009.42368        -0.06618         5.30031
     2009.42642        -8.47561         5.41166
     2009.42915        -3.02204         5.41630
     2009.43189        -5.16546         5.25948
     2009.43463         0.51111         5.32072
     2009.43737         1.97868         5.29659
     2009.44010        -1.34575         5.35041
     2009.44284        -6.63818         5.25020
     2009.44558        -3.94660         5.28917
     2009.44832        -2.77603         5.22143
     2009.45106         0.56254         5.32350
     2009.45379        -3.56889         5.29752
     2009.45653        -4.41532         5.36062
     2009.45927        -4.36174         5.33557
     2009.46201         2.91083         5.23535
     2009.46475        -1.99460         5.44042
     2009.46748        -6.56903         5.49981
     2009.47022        -6.66545         5.34299
     2009.47296        -0.53088         5.27618
     2009.47570        -4.88531         5.27061
     2009.47843         1.18326         5.39867
     2009.48117        -6.36317         5.40609
     2009.48391        -5.11559         5.30958
     2009.48665        -8.49002         5.35876
     2009.48939       -10.15945         5.68539
     2009.49212         2.68012         5.32721
     2009.49486         1.34669         5.35969
     2009.49760        -1.34273         5.39588
     2009.50034        -1.79316         5.27525
     2009.50308        -6.83959         5.33000
     2009.50581        -0.89902         5.21865
     2009.50855         1.94256         5.32443
     2009.51129        -1.49587         5.44413
     2009.51676        -2.85473         5.29752
     2009.51950        -1.95116         5.27432
     2009.52224        -4.04758         5.41537
     2009.52498         8.44299         5.40980
     2009.52772         4.58756         5.62229
     2009.53045         2.64813         5.85242
     2009.53319        -2.75930         5.30773
     2009.53593        -1.67672         5.28267
     2009.53867        -2.29815         5.34299
     2009.54141         4.34542         5.37361
     2009.54414         8.18199         5.43485
     2009.54688         2.20956         5.36062
     2009.54962        -1.77986         5.61023
     2009.55236         3.48871         5.27525
     2009.55509         8.46128         5.27896
     2009.55783        11.37785         5.37268
     2009.56057         0.34243         5.65199
     2009.56331         4.86300         5.59724
     2009.56605        -1.36443         5.52857
     2009.56878        -3.05686         5.36619
     2009.57152         3.27471         5.29288
     2009.57426         9.71329         5.47754
     2009.57700        11.96486         5.52486
     2009.57974         8.67943         5.38103
     2009.58247         3.33900         5.43393
     2009.58521         1.49657         5.33093
     2009.58795         8.11515         5.41073
     2009.59069         6.79972         5.46269
     2009.59342         2.67129         5.49981
     2009.59576         7.03005         6.34608
     2009.62628         6.67616         5.25576
     2009.62902         5.04673         5.37176
     2009.63175         8.94330         5.93037
     2009.63449        -0.64113         5.70859
     2009.63723         0.15844         5.53321
     2009.63997         7.82602         5.39403
     2009.64271        -1.18141         5.53229
     2009.64544         2.73716         5.41166
     2009.64818         3.44473         5.53321
     2009.65092        -1.67069         5.79767
     2009.65366         2.69788         5.34392
     2009.66187         3.30559         5.32907
     2009.66461        -2.39083         5.20009
     2009.66735         3.37274         5.58425
     2009.67008         8.26731         5.26504
     2009.67282        -3.99412         5.45527
     2009.67556         1.60145         5.32721
     2009.67830         1.87303         5.80231
     2009.68104         7.06460         5.63714
     2009.68377         7.54317         5.62879
     2009.68611        14.89393         6.11038
     2009.69199       -12.56011         8.72342
     2009.69472         1.96046         5.55084
     2009.69746         2.49903         5.27340
     2009.70020        11.53860         5.37176
     2009.70294         6.86318         5.43949
     2009.70568         8.60275         5.26504
     2009.70841        -4.33968         5.32443
     2009.71115         6.78789         5.54621
     2009.71389         2.98246         5.51744
     2009.71663        -5.18796         5.65570
     2009.71937        -0.15339         5.22607
     2009.72210        -1.29182         5.26690
     2009.72484         2.17575         5.36804
     2009.72758        -3.31768         5.38289
     2009.73032        -0.85510         5.37083
     2009.73305         8.97847         5.55363
     2009.73579        11.03304         5.48218
     2009.73853         5.88861         5.31422
     2009.74127        13.05819         5.63621
     2009.74401         7.14176         5.60559
     2009.74669         2.21521         5.41073
     2009.74948         2.77390         5.45248
     2009.75222         3.02747         5.77726
     2009.75496         3.32905         5.32907
     2009.75770         5.31562         5.42557
     2009.76043         4.35419         5.34021
     2009.76317        10.79476         5.54249
     2009.76591         2.94833         5.43207
     2009.76865         7.00791         5.40516
     2009.77138         1.65648         5.40887
     2009.77412         8.14105         5.35134
     2009.77686         4.14062         5.75220
     2009.77960        11.60619         5.31422
     2009.78228        12.57565         5.64457
     2009.78507         6.04634         5.77726
     2009.78781         0.03991         5.79303
     2009.79055         2.19148         6.28576
     2009.79329         8.92906         5.90717
     2009.79603        -1.62237         5.50723
     2009.79848         5.47762         6.26071
     2009.80144       -10.28534        10.91982
     2009.80344        12.97572        17.51365
     2009.80698        -7.82208         9.99560
     2009.80971         1.27949         7.37329
     2009.81245        16.12406         7.08563
     2009.81821         0.39779         7.63682
     2009.82067         4.42678         6.95015
     2009.82312         4.34277         6.52981
     2009.82569         4.81699         7.01047
     2009.82882        12.90138         6.76086
     2009.83110        12.16402         7.09769
     2009.83436        -2.95236         7.03831
     2009.83709        -9.18479         6.43330
     2009.83989        -6.35810         7.29627
     2009.84251         6.04724         6.52424
     2009.84531         7.20093         6.50197
     2009.84804        14.09650         6.23009
     2009.85352         8.55464         5.59539
     2009.85626         4.04621         5.56569
     2009.85900         2.26679         5.47012
     2009.86111        -1.96592         7.16265
     2009.86430         0.95858         7.37793
     2009.86698        -4.75196         7.11811
     2009.87012       -11.50658        10.80290
     2009.87286        -5.26400        13.33335
     2009.87542         4.18122        11.83846
     2009.87816         8.54079         8.79487
     2009.88084        10.07925        10.03643
     2009.93018        -5.45334         5.38475
     2009.93292        -5.52677         5.37732
     2009.93566        -4.88719         5.30309
     2009.93839        -5.21562         5.46548
     2009.94113        -2.27805         5.26597
     2009.94387        -1.50148         5.30123
     2009.94661         0.40409         5.35691
     2009.94935        -5.51633         5.30587
     2009.95208        -2.59276         5.49981
     2009.95482       -12.09619         5.53878
     2009.95756        -4.01762         5.37547
     2009.96030        -5.38705         5.40145
     2009.96303        -3.15747         5.36897
     2009.96577        -5.99490         5.41815
     2009.96851        -1.23233         5.57497
     2009.97125         2.12224         5.57126
     2009.97399        -2.23618         5.28546
     2009.97672        -5.89861         5.21679
     2009.97946       -13.49504         5.16576
     2009.98220       -13.74247         5.25762
     2009.98494        -6.25690         5.27154
     2009.98767        -8.03032         5.21772
     2009.99041        -0.11475         5.23164
     2009.99315        -3.98118         5.23721
     2009.99589        -0.60461         5.37732
     2009.99863        -9.65504         5.58518
     2010.00410        -7.16789         5.39588
     2010.00684        -9.76032         5.24927
     2010.00958        -9.94875         5.45898
     2010.01232        -7.56717         5.52393
     2010.01505        -8.23260         5.30866
     2010.01779       -13.47003         5.32350
     2010.02053        -6.41146         5.54621
     2010.02287        -4.11670         6.66157
     2010.02600        -3.45031         5.26876
     2010.02874       -12.69274         5.60838
     2010.07529        -7.03902         5.48867
     2010.07802        -6.09744         5.33649
     2010.10266        -1.93529         5.28917
     2010.10540        -0.78172         5.42279
     2010.10814         3.98785         5.36340
     2010.11088        -6.17358         5.37454
     2010.11362        -2.11201         5.44599
     2010.11635         8.61957         5.47383
     2010.11909         4.92814         5.36248
     2010.12183         6.25171         5.39495
     2010.12457         0.81928         5.37547
     2010.12731        -1.12715         5.56198
     2010.13004        -7.03857         5.31237
     2010.13278        -7.50200         5.29938
     2010.13552        -2.17143         5.31979
     2010.13826        -0.76186         5.25298
     2010.14099        -5.01729         5.22700
     2010.14373        -5.56871         5.42557
     2010.14647        -4.23914         5.44506
     2010.14921        -5.62657         5.37176
     2010.15195        -1.59500         5.29845
     2010.15468        -6.64442         5.26133
     2010.15742         2.51915         5.41537
     2010.16016         0.64672         5.31144
     2010.16290        -7.13771         5.30123
     2010.16564        -6.89514         5.30309
     2010.16837         0.17944         5.25391
     2010.17111        -4.95599         5.18153
     2010.17385        -6.32442         5.22885
     2010.17659        -3.34585         5.20380
     2010.17932         1.56872         5.22236
     2010.18206        -4.44170         5.39774
     2010.18480        -6.53913         5.22236
     2010.18754         4.13944         5.20287
     2010.19028        -1.72299         5.26690
     2010.19301         1.91358         5.33278
     2010.19575        -1.96384         5.28453
     2010.19849        -5.16727         5.24649
     2010.20123        -5.62370         5.20751
     2010.20397       -11.24813         5.46640
     2010.20670       -12.20755         5.48960
     2010.20944        -7.02498         5.26783
     2010.21218        -3.71041         5.20473
     2010.21492        -2.76884         5.21679
     2010.21765        -7.61827         5.45434
     2010.22039         0.64231         5.31794
     2010.22313       -11.78512         5.27896
     2010.22587        -5.99255         5.27803
     2010.22861         0.04702         5.31608
     2010.23134        -5.10341         5.37454
     2010.23956         1.99031         5.56940
     2010.24230         0.54388         5.73550
     2010.24503        -6.49554         5.43485
     2010.24777        -2.50297         5.37639
     2010.25051        -0.61540         5.57404
     2010.25325        -2.59183         5.52857
     2010.25598         3.80274         5.43207
     2010.25872        -3.33368         5.37361
     2010.26146         3.79589         5.58703
     2010.26420        -0.30054         5.54713
     2010.26694        -6.31997         5.43485
     2010.26967        -4.56640         5.49053
     2010.27241         2.03718         5.37454
     2010.27515        -1.41425         5.35969
     2010.27789        -3.58268         5.36897
     2010.28062        -4.22811         5.33464
     2010.28336       -10.15154         5.36897
     2010.28610        -5.56996         5.53136
     2010.28884        -1.48539         5.27711
     2010.29158        -2.49082         5.43114
     2010.29431         0.94775         5.45898
     2010.29705        -2.46067         5.40887
     2010.29979        -3.64010         5.34392
     2010.30253         6.18547         5.37732
     2010.30527         6.82904         5.52672
     2010.30800         2.05661         5.31701
     2010.31074         2.94019         5.38660
     2010.31348        -8.93624         5.33371
     2010.31622         5.62433         5.31515
     2010.31895         2.34890         5.58054
     2010.32169         6.11947         5.33093
     2010.32443        -0.37495         5.38382
     2010.32717         2.53262         5.24370
     2010.32991        -8.08881         5.30402
     2010.33264         6.58876         5.35412
     2010.33504         0.18864         6.36092
     2010.33812        -1.90409         5.30958
     2010.34086         0.63648         5.25391
     2010.34360        -3.78795         5.19823
     2010.34633        -4.94138         5.38196
     2010.34907        -4.96880         5.31237
     2010.35181        -1.40323         5.30587
     2010.35455        -0.37866         5.26412
     2010.35728        -4.34609         5.22050
     2010.36002        -2.77252         5.31608
     2010.36276        -4.15094         5.24927
     2010.36550        -3.61437         5.51466
     2010.36824        -1.07880         5.47754
     2010.37097        -1.86823         5.32721
     2010.37371        -3.05466         5.42836
     2010.37645         2.90692         5.37825
     2010.37919        -1.92251         5.55084
     2010.38194        -2.64390         5.69375
     2010.38466         2.82463         5.34206
     2010.38740         1.37421         5.30680
     2010.39014        -4.40322         5.26319
     2010.39288        -3.24265         5.36619
     2010.39561        -9.86408         5.33278
     2010.39835         1.82649         5.22700
     2010.40109        -2.45793         5.26040
     2010.40383        -3.02036         5.19359
     2010.40657        -5.74279         5.28546
     2010.42573        -2.78978         5.18339
     2010.42847        -7.69421         5.35134
     2010.43121        -3.35064         5.26412
     2010.43394        -4.47707         5.26412
     2010.43668       -11.62350         5.49610
     2010.43942        -0.86992         5.22700
     2010.44216        -6.53735         5.17875
     2010.44490        -1.86178         5.18617
     2010.44763        -3.94921         5.33000
     2010.45037        -0.15664         5.41630
     2010.45311        -6.16806         5.37083
     2010.45585        -3.36349         5.19823
     2010.45859         2.05108         5.36248
     2010.46132        -5.45435         5.37825
     2010.46406         4.55922         5.35598
     2010.46680        -0.19420         5.24556
     2010.46954        -3.49663         5.24463
     2010.47227        -7.60206         5.21772
     2010.47501         0.02351         5.23999
     2010.47775        -2.67691         5.44877
     2010.48049         0.82166         5.35320
     2010.48323        -1.69077         5.27896
     2010.48596         5.85680         5.23071
     2010.48870         2.22437         5.22143
     2010.49144        -0.74605         5.35227
     2010.49418        -4.49248         5.18431
     2010.49692         6.14909         5.20844
     2010.49965        -2.97534         5.14720
     2010.50239         4.88923         5.24649
     2010.50513         2.37881         5.33649
     2010.50787        -0.87762         5.24834
     2010.51060        -1.56705         5.23442
     2010.51334         5.12452         5.21679
     2010.51608         1.39310         5.21030
     2010.51882         4.01067         5.29567
     2010.52156         7.15824         5.30309
     2010.52429         6.18381         5.32536
     2010.52703         0.63438         5.42372
     2010.52977         1.80396         5.21215
     2010.53251         1.15253         5.37825
     2010.53525         0.72110         5.24463
     2010.53798        -5.05833         5.30123
     2010.54072        -1.32376         5.30031
     2010.54346        -1.23218         5.25020
     2010.54620        -0.02361         5.33835
     2010.54893        -3.58204         5.34113
     2010.55167        -4.13047         5.28082
     2010.55441        -5.04990         5.45248
     2010.55715         3.56368         5.34392
     2010.55989         1.95725         5.28082
     2010.56262        -0.14118         5.24370
     2010.56536        -4.61261         5.29474
     2010.56810        -2.54703         5.33649
     2010.57084        -0.76246         5.26040
     2010.57357        -2.49689         5.37083
     2010.57631         0.15168         5.42743
     2010.57905        -3.42275         5.28824
     2010.58179         1.00583         5.38289
     2010.58453        -2.16160         5.25762
     2010.58726         1.86397         5.35134
     2010.59000         4.87154         5.55827
     2010.59274         6.72711         5.40238
     2010.59548        11.46469         5.34392
     2010.59822         7.99326         5.30866
     2010.60095         8.13183         5.17504
     2010.60369         3.44640         5.20658
     2010.60643         7.90597         5.25576
     2010.60917         7.63355         5.32907
     2010.61190        -0.73088         5.26783
     2010.61464         3.87469         5.34206
     2010.61738         8.82826         5.29845
     2010.62012         7.74084         5.30309
     2010.62286         1.01241         5.32721
     2010.62559         5.89898         5.26690
     2010.62833         4.67755         5.30031
     2010.63107         4.91512         5.61487
     2010.63381        11.23970         5.33464
     2010.63655        12.88027         5.30216
     2010.63928         0.85284         5.33649
     2010.64202         6.49241         5.29752
     2010.64476         2.88098         5.32165
     2010.64750         9.96556         5.27154
     2010.65023         7.58213         5.46362
     2010.65297        12.29870         5.50816
     2010.65571         5.16627         5.25762
     2010.65845         7.02085         5.20009
     2010.66119        10.08342         5.27061
     2010.66392        15.27399         5.37732
     2010.66666        11.64156         5.33000
     2010.66940         7.65313         5.24092
     2010.67214         6.15971         5.24834
     2010.67488        -3.41372         5.48496
     2010.67761         7.87185         5.19359
     2010.68035         6.36142         5.26783
     2010.68309        11.18899         5.29752
     2010.68583        16.40157         5.22978
     2010.68856         1.18314         5.22514
     2010.69130         4.98971         5.19638
     2010.69404         5.41428         5.36155
     2010.69678         0.47285         5.25298
     2010.69952         4.19143         5.19359
     2010.70225         3.18300         5.23164
     2010.70499         8.26757         5.25576
     2010.70773         3.30514         5.72344
     2010.71047        18.34372         5.55827
     2010.71321         3.46229         5.55734
     2010.71594        17.75186         5.58054
     2010.71868        10.54743         5.30402
     2010.72142         1.08800         5.48218
     2010.72416        10.81958         5.36897
     2010.72689        14.29515         5.54342
     2010.72963         2.83472         5.34763
     2010.73237         0.20729         5.38289
     2010.73511        14.90886         5.48032
     2010.73785         8.08844         5.69003
     2010.74058        16.78701         5.68539
     2010.74332         4.83958         5.37918
     2010.74606         5.25615         5.35041
     2010.74880         7.21573         5.37918
     2010.75154        10.53630         5.25391
     2010.75416         9.31864         5.59539
     2010.75701         6.35844         5.49424
     2010.75975         1.24201         5.26876
     2010.76249         8.94059         5.27803
     2010.76522        10.63616         5.28175
     2010.76796        -0.45627         5.41073
     2010.77070         4.36530         5.49888
     2010.77344         4.95387         5.58332
     2010.77618         1.63645         5.23164
     2010.77891         1.21402         5.20658
     2010.78165         1.54759         5.22978
     2010.78439         9.81116         5.36712
     2010.78713         6.12673         5.35041
     2010.78987         3.81631         5.14441
     2010.79260         5.58388         5.14441
     2010.79534         2.03145         5.17504
     2010.79808        11.35102         5.15462
     2010.80082         4.35060         5.13235
     2010.80355         6.44517         5.14441
     2010.80629         4.11974         5.44970
     2010.80903         9.73931         5.27154
     2010.81177        17.04988         5.43485
     2010.81451        20.24246         5.34577
     2010.81724        17.49803         5.24092
     2010.81998         5.15460         5.17782
     2010.82272         9.85717         5.22143
     2010.82546         2.65374         5.27896
     2010.82820         3.57532         5.29938
     2010.83093         7.62389         5.38753
     2010.83367         0.21346         5.53414
     2010.83641         8.49303         5.35784
     2010.83915         1.52161         5.28731
     2010.84188         0.97418         5.18060
     2010.84462        12.39975         5.27340
     2010.84736        16.85632         5.24927
     2010.85010        22.76089         5.52672
     2010.85284         6.09847         5.31051
     2010.85557        13.11604         5.24927
     2010.85831        16.59961         5.27618
     2010.86105         3.61718         5.19359
     2010.86379         3.76875         5.33185
     2010.86653        -4.85667         5.23164
     2010.86926        -0.95410         5.23999
     2010.87200         2.09347         5.21401
     2010.87474        -3.62296         5.86356
     2010.87696        -1.21343         6.41845
     2010.92767        12.65777         9.04262
     2010.92950         3.55549         5.13142
     2010.93223         3.43806         5.18339
     2010.93497        12.62363         5.35876
     2010.93771         9.18020         5.27340
     2010.94045         9.76677         5.34021
     2010.94318         6.00335         5.13421
     2010.94592        13.59492         5.37639
     2010.94866        18.71249         5.22422
     2010.95043        11.21709        10.97271
     2011.13757    -47202.11703         5.62879
     2011.14031    -47200.06446         5.66405
     2011.14305    -47195.60389         5.88490
     2011.14567    -47199.50455         6.08997
     2011.14852    -47195.00975         5.76148
     2011.15086    -47201.40999         6.70797
     2011.15400    -47197.88160         5.49517
     2011.15674    -47197.91003         5.71138
     2011.15948    -47202.38746         6.25885
     2011.16221    -47192.69988         5.97862
     2011.16495    -47203.61231         6.25236
     2011.16769    -47199.80974         5.86634
     2011.17043    -47206.20317         5.76891
     2011.17316    -47214.80460         5.98326
     2011.17590    -47203.69402         5.73272
     2011.17864    -47198.38245         5.69560
     2011.18138    -47201.13988         5.88211
     2011.18412    -47207.91631         5.95728
     2011.18685    -47199.81974         6.01388
     2011.18959    -47212.65216         5.96377
     2011.19233    -47201.43459         5.77262
     2011.19507    -47200.36802         5.86077
     2011.19780    -47195.50945         5.93872
     2011.20054    -47199.08688         6.12709
     2011.20328    -47187.22030         6.17070
     2011.20602    -47202.35773         5.87655
     2011.20876    -47200.17816         5.72529
     2011.21149    -47206.08159         5.82273
     2011.21423    -47206.87301         5.76334
     2011.21697    -47191.84944         5.89139
     2011.21971    -47197.36087         5.78654
     2011.22245    -47203.71030         5.71416
     2011.22518    -47198.87273         5.72251
     2011.22792    -47196.19415         5.89696
     2011.23066    -47196.42058         5.93129
     2011.23340    -47196.40601         5.98047
     2011.23613    -47200.50244         5.89139
     2011.23887    -47206.91687         6.11317
     2011.24161    -47201.82429         6.22637
     2011.24435    -47199.83672         6.01481
     2011.24709    -47198.97415         6.07698
     2011.24954    -47198.90316         6.56878
     2011.25804    -47190.86086         6.17070
     2011.26078    -47198.86129         6.19761
     2011.26351    -47190.99272         5.86727
     2011.26625    -47205.95114         5.67147
     2011.26899    -47203.66857         5.78654
     2011.27173    -47201.23200         5.85520
     2011.27446    -47198.86943         6.08997
     2011.27720    -47199.34086         5.92480
     2011.27994    -47209.85628         5.85799
     2011.28268    -47193.86971         5.80324
     2011.28542    -47205.26114         5.98790
     2011.28815    -47202.89257         5.83386
     2011.29089    -47206.02700         5.66312
     2011.29363    -47202.87042         5.71973
     2011.29637    -47202.52185         5.71138
     2011.29911    -47202.12428         5.68539
     2011.30184    -47205.17871         5.97027
     2011.30458    -47201.06813         5.74571
     2011.30732    -47197.47156         5.64457
     2011.31006    -47192.97099         5.76056
     2011.31279    -47194.58642         5.94985
     2011.31553    -47188.35985         5.84314
     2011.31827    -47199.44927         5.77355
     2011.32101    -47199.51570         5.89139
     2011.32375    -47207.68213         5.75220
     2011.32648    -47204.93256         5.62415
     2011.32922    -47208.77899         5.62044
     2011.33196    -47207.55841         5.79674
     2011.33470    -47206.31784         5.82737
     2011.33744    -47208.51827         5.66405
     2011.34017    -47201.85970         5.86356
     2011.34291    -47202.39212         5.90624
     2011.34565    -47195.19055         6.03893
     2011.34839    -47199.98498         5.85149
     2011.35112    -47204.36341         5.77819
     2011.35386    -47212.49484         5.87747
     2011.35660    -47207.14626         5.92944
     2011.35934    -47207.37969         5.97862
     2011.36208    -47217.95912         5.76334
     2011.36481    -47206.55055         5.85799
     2011.36755    -47203.99598         6.30525
     2011.37029    -47208.81640         5.86077
     2011.37303    -47199.91683         5.82644
     2011.37577    -47208.47426         5.76798
     2011.37850    -47215.97469         5.83015
     2011.38124    -47210.81112         5.73457
     2011.38398    -47211.23454         5.79860
     2011.38672    -47203.65597         5.98511
     2011.38945    -47198.78340         5.75313
     2011.39219    -47207.58083         5.85613
     2011.39493    -47212.15725         5.89418
     2011.39767    -47208.69668         5.98790
     2011.40041    -47203.47611         5.84592
     2011.40314    -47205.10754         6.04821
     2011.40588    -47207.33697         5.90902
     2011.40862    -47204.36039         5.85613
     2011.41136    -47212.31782         5.91274
     2011.41410    -47213.17725         5.94892
     2011.41683    -47206.42668         5.97769
     2011.41957    -47207.92511         6.10946
     2011.42231    -47213.75853         5.89789
     2011.42505    -47211.39696         6.03615
     2011.42778    -47222.92339         6.20225
     2011.43052    -47208.39982         6.05192
     2011.43326    -47211.47725         5.99346
     2011.43600    -47210.92467         6.15121
     2011.43874    -47212.21010         6.12801
     2011.44119    -47211.75311         6.91211
     2011.44421    -47210.12996         5.97769
     2011.44695    -47213.00538         6.21338
     2011.44969    -47211.90481         6.11595
     2011.45243    -47215.68724         6.23380
     2011.45516    -47209.25167         6.24493
     2011.45790    -47214.36710         6.31453
     2011.46064    -47218.06952         6.22081
     2011.46338    -47216.09995         6.24400
     2011.46611    -47206.35638         6.17998
     2011.46885    -47197.65781         6.20967
     2011.47159    -47213.45024         6.23380
     2011.47433    -47203.58366         6.15492
     2011.47707    -47206.70409         6.22081
     2011.47980    -47199.69652         6.30525
     2011.48254    -47202.20795         6.21338
     2011.48528    -47209.46137         6.15771
     2011.48802    -47200.24280         6.15585
     2011.49076    -47209.89123         6.16049
     2011.49349    -47211.60766         6.00460
     2011.49623    -47206.05909         6.07791
     2011.49897    -47204.05751         6.18647
     2011.50171    -47206.37594         6.23565
     2011.50444    -47208.73337         6.14286
     2011.50718    -47206.97380         6.06399
     2011.50992    -47201.34723         6.23936
     2011.51266    -47204.10565         6.31174
     2011.51540    -47205.71708         6.11688
     2011.51813    -47201.24251         6.14657
     2011.52087    -47203.29894         6.15864
     2011.52361    -47203.59637         6.08626
     2011.52635    -47207.72579         6.26349
     2011.52908    -47196.47222         6.52888
     2011.53182    -47198.56865         6.33587
     2011.53456    -47208.45008         6.26720
     2011.53730    -47185.66550         6.30154
     2011.54004    -47201.96993         6.17534
     2011.54277    -47197.75636         6.28298
     2011.54551    -47211.78579         6.09832
     2011.54825    -47210.16222         6.11966
     2011.55099    -47203.67164         6.36278
     2011.55373    -47199.02507         6.11131
     2011.55646    -47204.75550         6.03708
     2011.55806    -47225.98625        20.11369
     2011.56194    -47204.04436         6.20225
     2011.56468    -47201.08978         6.01666
     2011.56741    -47200.09121         6.14564
     2011.56913    -47193.01173        14.12394
     2011.57289    -47201.42007         5.99810
     2011.57563    -47203.46949         6.09554
     2011.57837    -47202.64192         6.22452
     2011.58110    -47214.75635         6.27555
     2011.58384    -47215.63478         6.21617
     2011.58658    -47204.04321         6.45743
     2011.58932    -47208.67663         6.08347
     2011.59206    -47204.35106         6.06399
     2011.59479    -47203.18449         6.08626
     2011.59753    -47202.18992         6.18740
     2011.60027    -47197.01135         6.08811
     2011.60301    -47203.31477         6.03986
     2011.60574    -47201.48420         6.27463
     2011.60848    -47197.74763         6.47970
     2011.61122    -47193.54306         6.39804
     2011.61396    -47198.15249         6.12245
     2011.61670    -47204.06291         6.37484
     2011.61943    -47202.35934         6.26442
     2011.62217    -47203.35477         6.21060
     2011.62491    -47202.63520         6.16606
     2011.62765    -47201.93562         6.23658
     2011.63039    -47195.84505         5.86912
     2011.63312    -47191.47548         6.18647
     2011.63586    -47201.39691         5.97769
     2011.63860    -47206.96034         6.22637
     2011.64134    -47183.89976         6.71539
     2011.64407    -47189.47919         6.26535
     2011.64681    -47194.25362         5.93501
     2011.64955    -47196.81405         6.34236
     2011.65229    -47199.70748         6.00738
     2011.65503    -47197.61890         5.98047
     2011.65776    -47200.87733         6.26627
     2011.66050    -47196.79476         6.14379
     2011.66324    -47197.47119         5.97769
     2011.66598    -47206.11761         6.31824
     2011.66872    -47197.20304         6.31081
     2011.67145    -47201.98547         5.99718
     2011.67419    -47191.95290         5.94707
     2011.67693    -47194.21933         5.82273
     2011.67967    -47201.23975         5.94243
     2011.68240    -47198.84918         6.03151
     2011.68514    -47191.95961         6.01945
     2011.68788    -47200.72204         6.05007
     2011.69062    -47191.77247         6.10574
     2011.69336    -47197.19989         5.96006
     2011.69609    -47199.99832         6.07327
     2011.69883    -47197.32175         5.93315
     2011.70157    -47197.97218         6.01573
     2011.70431    -47192.93561         5.91366
     2011.70705    -47197.85803         6.11595
     2011.70978    -47190.28046         6.42866
     2011.71252    -47194.72889         6.42588
     2011.71526    -47191.72932         6.41103
     2011.71800    -47193.37174         6.25885
     2011.72073    -47200.80817         5.90810
     2011.72347    -47194.74460         6.31545
     2011.72621    -47202.43003         6.13822
     2011.72895    -47192.19646         6.04079
     2011.73157    -47180.61712         6.46578
     2011.73442    -47200.79931         6.07791
     2011.73716    -47191.48074         6.32473
     2011.73939    -47199.17821         7.49299
     2011.75359    -47199.08031         6.42959
     2011.75633    -47187.03373         6.52424
     2011.75906    -47184.15916         6.28762
     2011.76180    -47185.81859         6.26349
     2011.76454    -47195.80702         6.21988
     2011.76728    -47203.47045         6.15678
     2011.77002    -47195.88987         6.33587
     2011.77275    -47188.03330         6.48805
     2011.77549    -47188.24873         6.53352
     2011.77823    -47193.21516         6.46207
     2011.78097    -47195.83159         6.07048
     2011.78371    -47197.00901         6.12987
     2011.78644    -47194.60944         6.00553
     2011.78918    -47195.91287         6.04821
     2011.79192    -47197.89030         6.19668
     2011.79374    -47203.71358        10.83723
     2011.79739    -47192.83115         5.93965
     2011.80013    -47191.56458         5.96192
     2011.80287    -47195.42301         6.20596
     2011.80561    -47185.57044         6.35072
     2011.80835    -47187.46586         6.27741
     2011.81108    -47199.60329         6.05471
     2011.81382    -47205.97072         6.33030
     2011.81656    -47204.12415         5.82922
     2011.81930    -47192.37758         5.92294
     2011.82203    -47204.39200         6.17163
     2011.82477    -47190.22943         6.19297
     2011.82751    -47205.94986         6.21988
     2011.83025    -47200.80429         5.97491
     2011.83299    -47199.75572         5.86541
     2011.83572    -47202.11814         5.96470
     2011.83846    -47192.96157         6.45650
     2011.84120    -47195.79000         5.98975
     2011.84394    -47202.14143         5.96006
     2011.84668    -47196.53285         5.89882
     2011.84941    -47196.83128         5.86263
     2011.85215    -47211.12571         5.84964
     2011.85489    -47206.07914         5.93779
     2011.85763    -47202.90357         5.97119
     2011.86036    -47190.26299         6.16884
     2011.86310    -47192.22942         6.04543
     2011.86584    -47188.22085         6.15400
     2011.86858    -47187.77528         6.01945
     2011.87132    -47197.20271         5.89974
     2011.87405    -47201.38813         5.97398
     2011.87679    -47179.86656         6.38412
     2011.87953    -47185.92499         6.18183
     2011.88227    -47196.41842         6.34515
     2011.88501    -47199.17185         6.01759
     2011.88774    -47201.95127         6.23658
     2011.89048    -47191.75570         6.65693
     2011.89322    -47188.62513         6.57899
     2011.89596    -47194.11456         6.22452
     2011.89869    -47196.06298         6.19018
     2011.90143    -47201.14241         6.02873
     2011.90417    -47199.17584         6.30432
     2011.90691    -47191.40827         6.24864
     2011.90965    -47190.98470         6.12337
     2011.91238    -47195.63712         6.30061
     2011.91512    -47205.13355         5.94336
     2011.91786    -47198.85298         6.19575
     2011.92060    -47205.94241         6.08626
     2011.92334    -47200.02884         6.03893
     2011.92607    -47213.98426         6.03893
     2011.92881    -47204.04669         6.09925
     2011.93155    -47197.43712         5.98511
     2011.93429    -47200.14755         6.22730
     2011.93702    -47200.88498         5.97583
     2011.93976    -47199.31240         6.04821
     2011.94250    -47202.58883         6.19111
     2011.94524    -47198.17126         6.08533
     2011.94798    -47202.29369         6.21338
     2011.95071    -47195.76811         5.84036
     2011.95345    -47188.46854         6.15956
     2011.95619    -47201.58997         6.17070
     2011.95893    -47201.59940         5.92758
     2011.96167    -47202.76183         6.17534
     2011.96440    -47189.84125         6.11224
     2011.96714    -47201.64068         6.14936
     2011.96988    -47196.40411         5.97955
     2011.97262    -47208.09954         5.98883
     2011.97535    -47206.22397         5.93037
     2011.97809    -47205.37439         5.99346
     2011.98083    -47197.02182         5.92387
     2011.98357    -47198.74125         5.84314
     2011.98631    -47195.56168         6.35350
     2012.33128    -47206.45159         6.15771
     2012.33401    -47203.50802         5.98697
     2012.33675    -47193.40245         6.05192
     2012.33949    -47204.67887         5.94614
     2012.34223    -47208.79430         5.77911
     2012.34496    -47218.40973         5.78932
     2012.34770    -47210.50316         5.88211
     2012.35044    -47210.81559         5.83943
     2012.35318    -47209.46901         5.87283
     2012.35592    -47205.42144         5.71045
     2012.35865    -47215.85087         5.83015
     2012.36139    -47211.10530         5.74385
     2012.36413    -47211.74272         5.76983
     2012.36687    -47210.80615         5.70395
     2012.36961    -47207.16958         5.82087
     2012.37234    -47205.43601         5.92016
     2012.37508    -47207.14744         5.75963
     2012.37782    -47206.30186         6.03522
     2012.38329    -47210.92272         5.99996
     2012.38603    -47196.55515         6.36463
     2012.38877    -47205.05958         6.06120
     2012.39151    -47205.75100         6.09646
     2012.39425    -47207.23143         6.13915
     2012.39698    -47210.69286         6.05192
     2012.39972    -47205.79129         5.89510
     2012.40246    -47206.99171         5.86727
     2012.40520    -47208.18814         5.97119
     2012.40794    -47208.82757         5.79582
     2012.41067    -47208.38000         5.99810
     2012.41341    -47205.52043         5.81716
     2012.41615    -47192.81485         6.37577
     2012.41889    -47205.76828         6.17534
     2012.42162    -47206.42771         5.83572
     2012.42436    -47196.90414         5.88490
     2012.42710    -47207.52657         5.99810
     2012.42984    -47205.06699         5.86263
     2012.43258    -47197.21342         6.09646
     2012.43531    -47213.16885         6.09646
     2012.43805    -47208.29528         6.05471
     2012.44079    -47213.93271         5.85242
     2012.44347    -47210.28025         5.96563
     2012.44604    -47203.21403         6.56414
     2012.44855    -47202.03592         7.35844
     2012.45111    -47199.52269         8.11006
     2012.45448    -47209.16584         5.89047
     2012.45687    -47207.47597         6.77849
     2012.45995    -47203.77570         6.29226
     2012.46269    -47198.21513         5.97212
     2012.46543    -47215.07156         6.00738
     2012.46817    -47206.02798         6.02965
     2012.47091    -47208.77041         5.86077
     2012.47364    -47203.19484         6.03244
     2012.47638    -47200.58727         6.25700
     2012.47912    -47207.73370         6.03615
     2012.48186    -47204.68112         5.94428
     2012.48459    -47210.38355         6.11224
     2012.48733    -47205.25198         5.91181
     2012.49007    -47201.70441         5.90995
     2012.49281    -47202.95283         5.99532
     2012.49543    -47202.92249         6.28576
     2012.49811    -47204.17304         6.27370
     2012.50068    -47206.40181         6.91953
     2012.50319    -47195.64571         8.22976
     2012.50576    -47201.98348         8.61207
     2012.50827    -47207.44238        12.09828
     2012.51083    -47209.40415        17.68810
     2012.51454    -47207.25461         6.24772
     2012.51705    -47209.82650         7.00769
     2012.52019    -47205.19611         6.01017
     2012.52292    -47210.19254         5.89974
     2012.52566    -47203.94597         5.86819
     2012.52840    -47198.28540         5.82180
     2012.53114    -47204.88883         5.94336
     2012.53388    -47203.04425         6.15028
     2012.53650    -47204.77491         6.43423
     2012.53901    -47197.14081         7.14316
     2012.54158    -47203.42358         7.44010
     2012.54409    -47203.43047         8.22605
     2012.54665    -47197.37325         9.91951
     2012.54928    -47194.65291        13.19045
     2012.55304    -47201.60125         5.92201
     2012.55555    -47199.68214         6.28854
     2012.55738    -47195.20643        15.18920
