# ================= DQRFIT RESULTS ================
# INPUT FILE: series/HORS.rad
# OUTPUT: LDETRENDED
# FILTER FUNCTION: f(t)
# f(t)=+line(t)
# line(t)=+P 1+P 2*t
# heav(t)=(t<0?0:1)
# TOTAL OBSERVATIONS MTOT=  217
# INITIAL TIME INTERVAL= 2018.6197 - 2006.3436 = 12.2761
# TOTAL OBSERVATIONS AFTER PREFILTER M=  216
# TIME-SPAN=    0.0000 -    0.0000 =  0.0000
# OBSERVATIONS: USED M=   216 REJECTED MTOT-M=     1 %USED=   99.5392
# N=  2 PARAMETERS
# MAXSIG= 175.00000
# MAXRES=  16.93197
# SCALE FACTOR FOR LENGTHS: SCL=  10.00000
# SCALE FACTOR FOR SIGMAS: SCLSIG=   1.00000
# CHI^2=    347.063 DOF=   214 CHI^2/DOF=   1.62179
# RMS=      7.411 SDEV=      7.427 MEAN=    0.14315
#  P #       PARAMETER +-    SIGMA %error PARAMETER NAME
# P 1 =      -789.89935 +-  238.882  30.24 YZERO                              
# P 2 =         0.39199 +-    0.119  30.27 SLOPE                              
#       T            LDETRENDED       SIG_OBS
     2006.34361         0.41141         7.29968
     2006.34634        -2.81366         7.34043
     2006.34908        -8.91074         7.35699
     2006.35182        -7.53881         7.46014
     2006.35456        -5.76588         7.29076
     2006.35729        -8.02996         7.32260
     2006.36003        -4.70703         7.28312
     2006.36277       -10.68510         7.39137
     2006.36551        -8.56418         7.36081
     2006.36825        -7.03325         7.38246
     2006.37098        -6.75832         7.55820
     2006.37372        -8.81840         7.49070
     2006.37646         0.77053         7.37099
     2006.37920        -7.29254         7.55947
     2006.38193        -3.53862         7.50344
     2006.38467        -9.44269         7.61551
     2006.38741        -3.50976         7.40665
     2006.39015         0.50516         7.41175
     2006.39289         2.18509         7.55056
     2006.39562        -8.26698         7.69956
     2006.39836        -6.52505         7.82309
     2006.40110       -21.32313         7.51490
     2006.40384        -7.66120         7.42066
     2006.40658        -0.73327         7.36463
     2006.40931        -5.61135         7.44995
     2006.41205        -4.85842         7.42830
     2006.41448        -7.81337         8.48403
     2008.71732         3.87393         7.30987
     2008.72006         9.03386         7.41811
     2008.72280         8.87979         7.42703
     2008.72554         2.05971         7.38500
     2008.72827        10.93964         7.37609
     2008.73101         7.75557         7.39519
     2008.73375         9.85849         7.35571
     2008.73649         8.71642         7.43212
     2008.73922        14.09235         7.38882
     2008.74470         8.59920         7.41302
     2008.74744         7.53313         7.38628
     2008.75018         8.48806         7.37481
     2008.75291         8.22198         7.51235
     2008.75565        12.16191         7.50089
     2008.75839         9.26384         7.48434
     2008.76113        10.78376         7.29713
     2008.76387         2.24469         7.33152
     2008.76660         8.56262         7.41684
     2008.76934         9.93454         7.44104
     2008.77208        12.63647         7.27803
     2009.56332        -3.75769         7.46396
     2009.56606       -11.05276         7.48052
     2009.56879        -9.69884         7.32388
     2009.57153        -4.19991         7.37736
     2009.57427        -8.65598         7.58622
     2009.57701        -1.96306         7.50853
     2009.57974        -5.59213         7.41811
     2009.58248        -0.71320         7.44104
     2009.58522        -3.78727         7.43340
     2009.58796        -4.05835         7.65371
     2009.59070        -5.28142         7.45377
     2009.59343       -10.14349         7.57348
     2009.59617        -9.26957         7.30987
     2009.59891        -3.24664         7.29204
     2009.60165        -6.78371         7.28185
     2009.60439        -3.38279         7.28694
     2009.60712        -0.84086         7.37736
     2009.60986        -5.23393         7.42958
     2009.61260        -5.07701         7.34043
     2009.61534        -4.97608         7.38500
     2009.61807        -5.53415         7.34425
     2009.62081         3.05677         7.34170
     2009.62355        -2.76530         7.33406
     2009.62629        -3.47737         7.25256
     2009.62903         1.20555         7.27803
     2009.63176        -2.91452         7.28949
     2009.63450        -8.99059         7.37609
     2009.63724        -3.35767         7.41811
     2009.63998        -7.83474         7.43212
     2009.64272        -8.71681         7.39519
     2009.64545        -0.74889         7.32260
     2009.64819        -4.82396         7.41684
     2009.65093        -2.35003         7.41684
     2009.65367        -6.47111         7.32897
     2009.65640        -4.90418         7.15832
     2009.65914        -1.63725         7.23473
     2009.66188        -4.74332         7.27166
     2009.66462        -9.73640         7.33661
     2012.03560         6.14420         7.07300
     2012.03833         6.60213         7.10738
     2012.04107        11.93305         7.10865
     2012.04381         6.39398         7.09974
     2012.04655        12.22091         7.06918
     2012.04929        14.36183         7.20926
     2012.05202         4.05676         7.12394
     2012.05476         2.81869         7.10865
     2012.05750         4.34261         7.07936
     2012.06007        13.02561         7.56966
     2012.07119         1.00625         7.03352
     2012.13142         3.26764         7.31114
     2012.15332         5.64505         8.10580
     2014.04792         5.66139         7.03734
     2014.05065         6.31631         7.00550
     2014.05339         2.35324         7.03479
     2014.05613         0.30517         7.09847
     2014.05887         0.63509         7.10483
     2014.06161         5.62102         7.08955
     2014.06434         5.42595         7.24110
     2014.06708         5.53687         7.28440
     2014.06982         6.33880         7.16978
     2014.07256         3.36773         7.07554
     2014.07530         2.07066         7.08700
     2014.07803         2.04958         7.08700
     2014.08077         8.08551         7.06536
     2014.08351         7.02144         7.09592
     2014.08625         2.94036         7.14049
     2014.08898         2.70529         7.36081
     2014.09172         4.28422         7.32642
     2014.09446         6.96814         7.02715
     2014.09720         6.47707         7.18888
     2014.09994        11.57100         7.03097
     2014.10267        -6.50108         7.18252
     2014.10541         1.55285         7.14049
     2014.10815        -4.41122         7.15450
     2014.11363       -13.62737         7.13285
     2014.11636         5.04156         7.13922
     2014.11910       -12.10652         7.23218
     2014.12184         0.50641         7.25638
     2014.12458         5.91334         7.19525
     2014.12731         9.48026         7.12139
     2014.13005         3.53519         7.05007
     2014.13279         6.66912         7.37991
     2014.13553        -3.11796         7.33406
     2014.13827         2.27797         7.10483
     2014.14100         6.91190         7.06790
     2014.14374         2.57582         7.15705
     2014.14648         4.90275         7.18124
     2014.14922         3.50768         7.20162
     2014.15196         1.92061         7.18888
     2015.72622         5.05151         7.23600
     2015.72896         5.99843         7.20289
     2015.73170         7.98636         7.26275
     2015.73443         3.82729         7.79889
     2015.73717        13.43121         7.99883
     2015.73991        13.48814         8.17839
     2015.74265        13.56507         8.24716
     2015.74538        13.01800         7.59131
     2015.74812         4.42292         7.64480
     2015.75086         5.37185         8.08033
     2015.75360        11.60678         7.81799
     2015.75634         7.68770         7.87912
     2015.75907         8.36163         7.57348
     2015.76181         8.78556         7.17360
     2015.76455        12.92748         8.06760
     2015.76729         9.30341         8.06378
     2015.77003        11.20934         8.10453
     2015.77276        13.16826         7.88421
     2015.77550        12.94219         7.48052
     2015.77824        12.71112         7.47160
     2015.78371        16.93197         8.00647
     2015.78919         9.34782         7.60786
     2015.79193        10.76075         7.18124
     2015.79740         5.90860         9.49646
     2015.80014        13.81853         9.21120
     2015.80288        10.29046         7.73267
     2015.80836         6.83231         7.69956
     2015.81383         7.58616         8.40380
     2015.83300         3.91865         7.95935
     2018.48324        -5.76122         6.97366
     2018.48597        -5.88229         7.07682
     2018.48871        -2.44436         7.18506
     2018.49145        -6.66844         7.11375
     2018.49419        -5.37351         7.22709
     2018.49692        -5.54358         7.12139
     2018.49966        -4.11266         7.15323
     2018.50240        -5.91973         7.15705
     2018.50514       -12.68680         7.22582
     2018.50788        -3.38288         7.19398
     2018.51061        -8.77595         7.11757
     2018.51335       -13.75102         7.21308
     2018.51609        -0.11010         7.12521
     2018.51883        -9.21517         7.07045
     2018.52157        -6.55824         7.12776
     2018.52430        -5.43832         7.09719
     2018.52704        -9.68439         7.00041
     2018.52978        -1.85746         7.30859
     2018.53252        -6.58554         7.21435
     2018.53525        -4.27761         7.29204
     2018.53799       -12.53668         7.29331
     2018.54073        -2.99976         7.17488
     2018.54347        -4.28783         7.05644
     2018.54621        -1.72590         7.12394
     2018.54894        -5.89898         7.15323
     2018.55168       -11.25005         7.23600
     2018.55442        -5.38012         7.11502
     2018.55716       -10.10319         7.13922
     2018.55990        -1.03727         7.40793
     2018.56263       -12.67334         7.35953
     2018.56537        -7.81941         7.29586
     2018.56811        -6.65649         7.11120
     2018.57085        -2.82756         7.07682
     2018.57358        -8.38563         7.21053
     2018.57632        -8.77971         7.48306
     2018.57906        -5.62678         7.53782
     2018.58180        -1.51885         7.24874
     2018.58454        -0.69693         7.32005
     2018.58727        -3.58700         7.11630
     2018.59001        -4.53407         7.12139
     2018.59275        -3.35215         7.08700
     2018.59549        -3.47022         7.10738
     2018.59823        -3.22729         7.03861
     2018.60096        -3.25737         7.02460
     2018.60370        -2.77944         7.03989
     2018.60644        -5.14051         7.15959
     2018.60918        -3.16959         7.05517
     2018.61191        -5.42366         7.05389
     2018.61465        -5.54573         7.06026
     2018.61739        -2.04181         7.02206
     2018.61973        -1.01272         8.42927
