# ================= DQRFIT RESULTS ================
# INPUT FILE: series/HTCH.rad
# OUTPUT: LDETRENDED
# FILTER FUNCTION: f(t)
# f(t)=+line(t)+annual(t)
# line(t)=+P 1+P 2*t
# annual(t)=+P 3*sin(2*pi*t+P 4)
# heav(t)=(t<0?0:1)
# TOTAL OBSERVATIONS MTOT= 1558
# INITIAL TIME INTERVAL= 2013.5797 - 2008.7228 =  4.8569
# TOTAL OBSERVATIONS AFTER PREFILTER M= 1555
# TIME-SPAN= 2013.5797 - 2008.7228 =  4.8569
# OBSERVATIONS: USED M=  1555 REJECTED MTOT-M=     3 %USED=   99.8074
# N=  4 PARAMETERS
# MAXSIG= 175.00000
# MAXRES=  40.75066
# SCALE FACTOR FOR LENGTHS: SCL=  10.00000
# SCALE FACTOR FOR SIGMAS: SCLSIG=   1.00000
# CHI^2=   2301.393 DOF=  1551 CHI^2/DOF=   1.48381
# RMS=     11.771 SDEV=     11.773 MEAN=   -0.22586
#  P #       PARAMETER +-    SIGMA %error PARAMETER NAME
# P 1 =       411.75968 +-  428.228 104.00 YZERO                              
# P 2 =        -0.20297 +-    0.213 104.89 SLOPE                              
# P 3 =         8.05512 +-    0.425   5.28 ANNUAL AMPLITUDE                   
# P 4 =         2.69839 +-    0.068   2.51 ANNUAL PHASE                       
#       T            LDETRENDED       SIG_OBS
     2008.72279         6.99705        12.92180
     2008.72553        -3.38739        13.20684
     2008.72826         1.09116        12.43699
     2008.73100         4.02572        13.10939
     2008.73374         1.43828        13.23486
     2008.73648        -2.92017        12.86577
     2008.73921        -6.50761        12.42968
     2008.74469        -1.57750        12.82679
     2008.74743         5.92205        13.52233
     2008.75017        -8.65639        14.08145
     2008.75290        -4.20183        13.19466
     2008.75564        15.11272        12.94007
     2008.75838        15.15628        13.00341
     2008.76112        -5.36617        13.09234
     2008.76386        -5.59461        13.48213
     2008.76659        -5.23706        12.78537
     2008.76933       -13.06350        12.57220
     2008.77207         4.70306        11.80357
     2008.77481         6.64661        11.79626
     2008.78576       -17.12817        12.22747
     2008.78850        -3.14961        12.25549
     2008.79123        -3.91905        12.08373
     2008.79397         1.52850        12.00943
     2008.79671         3.69706        12.06668
     2008.80219         1.87617        11.84498
     2008.80492        -8.61728        12.05815
     2008.80766        15.65428        11.46858
     2008.81040         5.17784        11.56360
     2008.81314        -1.07961        12.02770
     2008.81587         4.49595        12.38583
     2008.81861        -6.04450        11.21765
     2008.82135         1.03506        10.94358
     2008.82409        -3.30939        11.59040
     2008.82683         2.51517        12.59778
     2008.82956         0.58273        12.08982
     2008.83230        -4.45872        11.94731
     2008.83504       -16.42516        12.33223
     2008.83778         4.51939        11.99238
     2008.84052       -12.51005        12.71959
     2008.84325         3.75950        12.04110
     2008.84873        -4.87238        11.68297
     2008.85147         5.10117        12.21651
     2008.85420        -6.70327        12.28838
     2008.85695        -3.23672        13.26775
     2008.85968        10.67784        12.00577
     2008.86242         2.71339        12.33467
     2008.86516        10.90895        12.06912
     2008.86789        -6.58449        11.98750
     2008.87611        -2.81783        11.88884
     2008.87885         2.02673        11.96192
     2008.88158         2.74928        12.10931
     2008.88432        -4.14316        11.54654
     2008.89253        11.68151        12.27254
     2008.89528         7.83806        12.90109
     2008.89801        12.00662        11.78042
     2008.90622         5.20629        11.05930
     2008.90896         0.62384        11.83524
     2008.91170        -7.12060        12.34563
     2008.91444       -11.96205        12.72203
     2008.91718        -4.13449        12.64772
     2008.91991        -2.08694        11.89980
     2008.92539        -6.26282        11.97045
     2008.92813         0.47573        12.06790
     2008.93086        -3.86271        12.33345
     2008.93360       -13.27916        12.29691
     2008.93634        -6.64260        11.39184
     2008.93908        13.36895        11.54533
     2008.94182       -20.19949        12.50886
     2008.94455        -8.75493        12.38096
     2008.94729        -6.49238        11.77190
     2008.95003       -22.22182        12.12393
     2008.95277        -2.18827        11.79017
     2008.95545       -21.93472        11.54289
     2008.98288       -36.63515        11.68785
     2008.98562        -0.44860        10.74380
     2008.98836       -35.87504        11.70003
     2008.99110       -13.78349        12.20555
     2008.99384         2.81207        11.80966
     2009.00479       -23.62071        13.39930
     2009.00752         7.89685        11.46737
     2009.01300       -12.50004        11.85473
     2009.01574        -4.13249        12.08008
     2009.01963         8.99430        31.59677
     2009.02121        -0.01937        11.60623
     2009.02431        -9.49775        14.63935
     2009.02669       -14.31926        11.31754
     2009.02943       -30.28371        11.78895
     2009.03490       -11.43460        11.72195
     2009.03764        -3.89604        11.05564
     2009.04038       -19.45348        12.18362
     2009.04312       -12.01793        11.89005
     2009.04585       -14.27037        11.85351
     2009.04860       -14.36882        11.10680
     2009.05133       -10.56026        11.34068
     2009.05407        -9.73571        11.88396
     2009.08693       -10.94604        11.21887
     2009.08966       -16.70448        11.80357
     2009.09240        -0.08093        11.25176
     2009.10061        -4.25926        12.33588
     2009.10335        -7.74570        11.87178
     2009.10609         4.31585        11.76337
     2009.10882         2.04541        11.89127
     2009.11156         4.81796        11.80113
     2009.11430       -10.26448        12.63920
     2009.11704         4.96308        12.01552
     2009.11978        -3.42237        11.79991
     2009.12251        -0.33981        11.33216
     2009.12799         7.30930        11.77920
     2009.13073         4.01285        11.95096
     2009.13347        -6.34959        11.27247
     2009.13620        -1.32103        11.65496
     2009.13895        -1.40348        11.21400
     2009.14168        -4.21992        11.35408
     2009.14442         4.92663        11.65252
     2009.14715       -11.09781        12.04232
     2009.14989       -21.57526        12.11419
     2009.15811         5.45641        10.94114
     2009.16084         8.22197        11.19085
     2009.16359         9.54752        11.94487
     2009.16632       -22.88092        12.22016
     2009.18822        -3.44748        11.19451
     2009.19096        -1.66892        11.96314
     2009.19370         9.02564        11.50635
     2009.19644         1.97919        11.13847
     2009.19917         7.70775        11.54411
     2009.20465        -6.25714        12.04232
     2009.20739        -7.71259        13.05214
     2009.21013        -2.01603        11.81575
     2009.21286        11.14453        12.74030
     2009.21560         4.89308        11.73413
     2009.21834        -0.31436        11.62572
     2009.22108         5.46919        12.10810
     2009.22381        -3.35625        11.44422
     2009.22655         5.75430        12.03257
     2009.23477        10.13897        11.89980
     2009.23750        -6.62947        12.26036
     2009.24024        -8.21392        11.73170
     2009.24298        -2.31036        11.66348
     2009.24572       -11.50981        12.05572
     2009.24846         5.13175        11.68785
     2009.25119       -22.49169        12.32492
     2009.25658        -2.23260        12.60631
     2009.27036         4.08620        11.69028
     2009.27310       -20.90925        11.73779
     2009.27583       -13.93469        11.91442
     2009.28131       -12.38558        12.28594
     2009.28405        -2.46203        11.91807
     2009.28679        -8.39247        11.21156
     2009.28952        -3.60391        11.76459
     2009.29226       -32.27536        12.22138
     2009.29500       -14.73280        11.83280
     2009.29774       -21.12025        12.07521
     2009.30047       -19.39569        11.17136
     2009.30595       -19.22358        11.83402
     2009.30869       -17.03302        11.68419
     2009.31143       -15.13647        11.50756
     2009.31416       -16.22691        11.45519
     2009.31690        -4.43336        12.22869
     2009.31964       -26.10180        12.29691
     2009.32238       -19.80525        11.66592
     2009.32512       -22.67269        12.15804
     2009.32785       -19.05313        12.10810
     2009.33059       -21.85858        11.56603
     2009.33333        -2.72402        12.20311
     2009.33607       -23.60647        11.89493
     2009.33880       -11.50391        11.93147
     2009.34154       -15.79036        12.64894
     2009.34428       -12.30180        11.96923
     2009.34702       -13.58724        12.10810
     2009.34976       -16.20969        11.94487
     2009.35249       -22.52313        11.52462
     2009.35523       -28.59958        12.04232
     2009.35797        -5.65202        12.57098
     2009.36071       -11.45347        12.66599
     2009.36344        -4.43891        11.60258
     2009.36618         5.88365        12.86698
     2009.36892       -11.76680        12.19580
     2009.37166       -15.12624        12.26280
     2009.37440       -11.82769        12.22016
     2009.37713         4.13987        12.76466
     2009.37987       -11.58658        12.50520
     2009.38261       -23.93602        13.13619
     2009.38535       -23.44146        12.28838
     2009.38809       -15.41091        12.09957
     2009.39074       -15.55437        12.43212
     2009.40832        13.65020        31.03278
     2009.40999       -14.80746        12.40654
     2009.41273       -16.69891        12.04354
     2009.41546         4.84665        12.20189
     2009.41820        -9.45080        12.52957
     2009.42094       -24.13024        12.05815
     2009.42368       -20.70068        12.83531
     2009.42642       -15.41513        12.31152
     2009.42915        -1.77157        13.02169
     2009.43190       -11.25402        12.19824
     2009.43463       -12.00346        12.53931
     2009.43737       -26.30791        11.55994
     2009.44010       -15.06635        12.54540
     2009.44284       -10.78479        12.98880
     2009.44558       -13.90424        12.24331
     2009.45106       -14.21013        12.65747
     2009.45379       -16.27757        12.67209
     2009.45653        -8.16602        12.30178
     2009.45927         6.36554        12.49911
     2009.46201        -4.92090        12.66599
     2009.46475        -4.43135        12.81704
     2009.46748        -4.95779        12.58560
     2009.47022        -3.87824        12.39314
     2009.48391       -13.07146        12.17266
     2009.48665        -6.54290        13.16177
     2009.48939       -15.96635        13.00463
     2009.49212         1.64221        11.82915
     2009.49486        -5.97224        12.16413
     2009.49760        -1.75268        12.31640
     2009.50034         3.14488        13.02169
     2009.50308       -16.42757        12.84993
     2009.50581       -10.76101        12.74517
     2009.50856       -11.34646        12.80730
     2009.51129         7.83910        13.65145
     2009.51403        -4.59735        12.20067
     2009.51676         8.17221        13.10452
     2009.51950       -16.92523        13.63196
     2009.52224       -19.24668        12.97296
     2009.52498        -1.62112        12.84506
     2009.52772        -1.68057        13.04483
     2009.53045        -0.75201        12.56002
     2009.53319         2.05054        13.63684
     2009.53593        -6.05390        12.29325
     2009.53867        -2.21434        13.08990
     2009.54141         6.20321        12.52469
     2009.54414         2.26477        12.55515
     2009.54689         9.01332        13.14837
     2009.55049        10.21705        23.49141
     2009.55236       -17.97057        12.22747
     2009.55509         7.21799        12.42237
     2009.55783       -12.20145        12.87429
     2009.56057        14.61610        13.02169
     2009.56331        -9.94834        12.58560
     2009.56596        -0.63881        13.32378
     2009.57166         6.72035        14.79648
     2009.57426         3.35588        12.74152
     2009.57700         1.64744        13.43463
     2009.57974        10.97099        13.68434
     2009.58247        15.34455        13.14959
     2009.58522         4.94710        13.05457
     2009.58795        12.68966        12.95591
     2009.59069         9.37121        13.48335
     2009.59342        -6.66523        13.14837
     2009.59616         9.68933        12.68914
     2009.59890        11.59388        13.12279
     2009.60164        -5.82856        13.19953
     2009.60438         4.41299        13.04239
     2009.60711        24.03255        12.24818
     2009.60985        12.17510        12.55758
     2009.61259        16.93266        13.92188
     2009.61533        -4.23178        12.30665
     2009.61807        12.85877        12.36999
     2009.62080        18.09033        12.23478
     2009.62355         3.23888        12.89500
     2009.62628        -0.72056        12.90475
     2009.62902        23.22799        13.52233
     2009.63175        11.77055        12.78415
     2009.63449        15.72311        12.86211
     2009.63723         8.92166        13.42245
     2009.63997        -8.53078        12.44673
     2009.64246         7.48272        13.70140
     2009.64818       -10.35512        13.58933
     2009.65092         8.23144        12.55393
     2009.65366         4.75800        12.27376
     2009.65639         0.87055        12.63554
     2009.65913        27.88311        13.51624
     2009.66188         5.13666        12.93033
     2009.66461        -7.02778        12.72568
     2009.66735       -13.13423        13.46508
     2009.67008       -13.61167        13.55400
     2009.67282        -0.30611        14.35309
     2009.67556        -7.79356        12.72690
     2009.67830         9.98000        13.63196
     2009.68104         8.30655        13.55157
     2009.68377        -4.55289        13.17151
     2009.68651        -1.32234        12.52957
     2009.68925        11.18022        12.97296
     2009.69199        -8.84822        12.98636
     2009.69472         6.25133        13.10574
     2009.69746        -7.42111        13.38956
     2009.70021        -2.62656        13.14350
     2009.70294        -6.01700        13.25678
     2009.70568         8.82355        12.58316
     2009.70841        -6.21389        12.48328
     2009.71115         1.06067        13.12888
     2009.71389       -21.23278        13.39565
     2009.71663        -3.25822        12.72446
     2009.71937        -3.42467        12.10688
     2009.72210       -14.72811        12.20798
     2009.72457       -11.09161        15.51761
     2009.73305        -0.50789        13.39078
     2009.73579         7.51167        12.90231
     2009.73853         6.01922        11.97045
     2009.74127         1.05378        13.02047
     2009.74401        -1.73467        13.86097
     2009.74674         9.83389        11.88153
     2009.74948         7.30845        11.81940
     2009.75222         8.41300        12.36268
     2009.75496       -11.03744        12.89257
     2009.75770         2.79811        12.06668
     2009.76043         1.45067        12.41628
     2009.76317        -4.01678        12.68305
     2009.76591        19.29278        11.60867
     2009.76865        28.69934        12.16048
     2009.77138         1.88389        13.20684
     2009.77412        -0.89355        11.97532
     2009.77687        13.42900        11.07513
     2009.77960        18.87556        11.91198
     2009.78234        17.74911        12.85480
     2009.78597         8.49385        21.22815
     2009.78781        15.66323        12.60022
     2009.79055         1.85278        12.87551
     2009.79329        18.92334        13.24704
     2009.79603        -2.99211        12.64529
     2009.79876        12.09945        12.69767
     2009.80150         1.03100        12.61849
     2009.80424         4.87956        12.93033
     2009.80698        16.16612        12.17997
     2009.80971        25.32267        12.33710
     2009.81245        14.59223        13.51015
     2009.81520        17.11478        12.70985
     2009.82073       -12.05209        13.16421
     2009.82340        12.89745        12.20920
     2009.82614        12.12600        12.49180
     2009.82888         9.50456        12.70376
     2009.83162        20.97612        13.39078
     2009.83436         4.95567        12.25549
     2009.83709         2.86823        12.44917
     2009.83983        11.38478        12.12028
     2009.84257         6.60434        12.26523
     2009.84531        16.07589        11.87665
     2009.84804        10.38745        12.84019
     2009.85078        22.49101        12.89500
     2009.85352         9.85256        12.74152
     2009.85626        31.53712        12.75614
     2009.85900        34.29367        12.45404
     2009.86174        14.85823        12.59900
     2009.86447        21.94678        13.17760
     2009.86721         2.84034        12.44308
     2009.86995         6.63290        12.39070
     2009.87269        12.48045        11.91076
     2009.87542        19.35701        12.83044
     2009.87816        31.05856        12.67209
     2009.88090        -2.60388        12.38096
     2009.88364        20.32167        12.58194
     2009.88637        18.07223        12.42968
     2009.88911        22.85379        12.39679
     2009.89185        11.65434        12.05450
     2009.90554        17.76512        12.10931
     2009.90828         8.04968        12.05694
     2009.91102        -1.97577        11.85595
     2009.91375         4.57579        12.63189
     2009.91649         7.16034        12.38705
     2009.91923         6.59890        11.26394
     2009.92197         5.81845        11.96558
     2009.92470         6.81301        11.46980
     2009.92744         6.37157        12.05937
     2009.93018        -4.95688        11.73170
     2009.93292         7.88268        11.18233
     2009.93566         8.72723        11.09584
     2009.93839        11.97479        11.07757
     2009.94113        -2.20766        11.84133
     2009.94387        14.63290        11.30048
     2009.94661         1.64946        11.05686
     2009.94935        16.49901        10.99961
     2009.95208       -10.41643        11.93147
     2009.95482       -36.00488        11.72317
     2009.96030       -10.19877        13.16664
     2009.96303         2.98179        12.17388
     2009.96577        -7.03465        12.47719
     2009.96851        -7.22910        12.17388
     2009.97125        14.41946        12.15560
     2009.97399        13.96101        11.74875
     2009.97672        -3.82043        11.63059
     2009.97946         2.38612        11.20303
     2009.98220        -3.55432        11.23105
     2009.98484        -2.53278        11.90467
     2009.99863        -6.87599        11.01057
     2010.00410       -14.76687        12.63311
     2010.00684         7.23468        11.42595
     2010.00958        -6.29076        13.21171
     2010.01232         1.63879        12.10931
     2010.01505        -8.38265        11.70003
     2010.01779        -3.88510        11.22983
     2010.02053         0.01446        11.55751
     2010.02327        -8.96198        12.50399
     2010.02600         9.58357        11.86325
     2010.02874        -2.82287        12.25671
     2010.03148         3.43368        12.29691
     2010.03422        -6.16576        11.95218
     2010.03696         5.38679        12.33832
     2010.03969        12.83035        12.39801
     2010.04243         6.41591        11.62207
     2010.04517        12.47346        11.90833
     2010.04791        15.47502        12.07764
     2010.05065         5.14457        12.08130
     2010.05338        -1.06687        12.49424
     2010.05612         2.42568        12.35294
     2010.05886         6.15824        11.99116
     2010.06141         7.80976        13.08503
     2010.06434        -6.29165        12.59534
     2010.06707       -14.50609        11.69272
     2010.06981         3.50746        13.07894
     2010.07255        -0.79998        12.07155
     2010.07529         1.16857        12.65016
     2010.07802        -6.92587        12.17266
     2010.08076       -11.34631        12.35781
     2010.09171        14.90391        11.90467
     2010.09445        14.13946        12.10810
     2010.09719        17.53302        12.39923
     2010.09993        11.36958        12.19580
     2010.10267         9.76513        11.60014
     2010.10540        13.53169        12.44308
     2010.10814         8.25924        12.52469
     2010.11088        13.19180        11.92903
     2010.11362       -10.43065        11.34921
     2010.11635         8.44891        11.88153
     2010.11909         9.65647        11.47468
     2010.12183         6.44002        11.36504
     2010.12457         7.49358        11.42960
     2010.12731        18.70113        13.43706
     2010.13004         6.76169        11.94609
     2010.13278         2.09524        11.47346
     2010.13552         2.93380        11.79260
     2010.13826         9.24436        11.96314
     2010.14099         0.97691        12.00090
     2010.14373         3.20247        12.60143
     2010.14647         0.65902        12.19215
     2010.14921        -3.40142        11.98750
     2010.15155        13.34205        14.06927
     2010.15742         7.22025        12.53078
     2010.16016         9.55080        12.15926
     2010.16290        -2.63364        11.83524
     2010.16564         2.08491        11.68297
     2010.16837         8.42947        13.04970
     2010.17111         1.61002        12.18971
     2010.17385         1.01158        11.94487
     2010.17649        10.73712        12.69888
     2010.18480         1.55080        11.57456
     2010.18754         1.86836        12.50277
     2010.19028         0.61191        11.46249
     2010.19301         2.77247        12.52591
     2010.19575         8.66003        12.11784
     2010.19849         1.51158        11.71952
     2010.20123        -8.93186        11.31510
     2010.20397        -6.07831        12.37486
     2010.20670        -7.24275        12.10810
     2010.20944         2.95180        11.23714
     2010.21218       -12.46064        11.95827
     2010.21492        -0.88708        11.11168
     2010.21766        -0.31753        12.09592
     2010.22039        -3.38697        12.32614
     2010.22313        -1.39642        11.87787
     2010.22587         2.53914        13.05214
     2010.22861         0.18069        12.64894
     2010.23134        -3.42875        12.13733
     2010.23408       -10.42319        11.72561
     2010.23956        -1.15108        12.19458
     2010.24230         5.91247        12.53566
     2010.24503        -3.96897        12.20555
     2010.24777        -0.75842        12.52713
     2010.25872        -3.13319        13.21658
     2010.26146         3.43336        12.12637
     2010.26420        -2.04508        12.29203
     2010.26694         7.44447        11.95827
     2010.26967        -0.03697        12.38217
     2010.27325         5.52176        20.28776
     2010.27515         7.84014        12.12759
     2010.27789        -8.20730        12.57098
     2010.28062         3.77025        12.07764
     2010.28336        -2.98219        12.40897
     2010.28610         1.04236        12.22260
     2010.28884        -2.60508        11.59527
     2010.29158       -13.32852        12.06912
     2010.29432         1.63203        11.84011
     2010.29705        -4.78741        11.99481
     2010.29979         8.40214        12.28107
     2010.30253         7.63570        11.92538
     2010.30527        11.67725        12.89257
     2010.30800        16.15081        12.31152
     2010.31074         9.96837        11.59649
     2010.31348        -8.93108        12.06546
     2010.31622        -1.09152        11.75241
     2010.31896         6.82203        12.78659
     2010.32169        15.54559        13.61491
     2010.32443        -5.27986        12.31518
     2010.32717        -0.36630        11.99359
     2010.32991         6.25326        11.68297
     2010.33265        10.88281        11.87544
     2010.33538        15.68437        13.38834
     2010.33812        -2.97408        12.91571
     2010.34086       -11.78052        12.12515
     2010.35476       -11.29870        13.05579
     2010.35728         0.83081        12.72934
     2010.36002         2.37737        12.50764
     2010.36276        -2.16308        11.92782
     2010.36550        -5.79052        13.29698
     2010.36824        -7.87296        12.28351
     2010.37098         5.33159        12.36390
     2010.37371        -3.43985        13.21537
     2010.37645         6.57270        11.71099
     2010.37919        -9.16274        12.54906
     2010.38193        -2.41619        12.13124
     2010.38466        -4.44663        12.55393
     2010.38740        -7.41907        12.12515
     2010.39014         5.45348        11.64156
     2010.39288       -15.73396        12.45404
     2010.39561       -13.11741        12.68061
     2010.39835       -15.70885        13.03387
     2010.40109       -17.00430        12.46379
     2010.40383        -7.05174        12.69888
     2010.40657        -2.30618        11.98872
     2010.40930       -22.80363        12.36512
     2010.41204       -13.10907        11.54898
     2010.41478         0.26448        11.94609
     2010.41752         3.08404        11.70855
     2010.42026        12.69159        12.77197
     2010.42299        -9.36985        12.13368
     2010.42573        -5.75029        12.30056
     2010.42847       -14.39074        11.71952
     2010.43675       -16.23206        13.20684
     2010.43942        -4.38852        11.91442
     2010.44216        -4.57996        11.55020
     2010.44490       -24.20640        12.78659
     2010.44763         1.71415        12.35050
     2010.45037       -10.04229        12.46744
     2010.45311         1.16026        11.90102
     2010.45585         0.41082        12.38948
     2010.45859         2.50137        12.13855
     2010.46132        -3.10007        11.94121
     2010.46406       -16.37951        12.16291
     2010.46680       -15.61396        12.69158
     2010.46954        -2.47740        12.43942
     2010.47227        -7.05785        13.37738
     2010.47501       -24.20329        12.32614
     2010.47775        -9.97674        13.31160
     2010.48049        -0.57718        12.41141
     2010.48323       -19.03362        12.67209
     2010.48596        -4.83507        13.33718
     2010.48870         1.04949        11.69637
     2010.49144        16.52204        12.65747
     2010.49418       -10.11340        11.92172
     2010.49692       -19.31285        13.14837
     2010.49965         8.80871        11.61598
     2010.50239        12.09027        11.71099
     2010.50513         9.49482        11.65496
     2010.50787        -6.83362        12.00577
     2010.51060        -9.55407        12.27498
     2010.51222       -18.38774        29.05091
     2010.52451        -2.59124        14.62595
     2010.52703        22.92127        12.81704
     2010.52977        -9.36018        11.67810
     2010.53251         7.44238        11.77433
     2010.53525        18.82693        12.15195
     2010.53798        -2.24351        13.48944
     2010.54072        -1.92195        12.65503
     2010.54346         1.15960        12.84262
     2010.54620        -2.96484        13.13132
     2010.54893         8.84371        12.66356
     2010.55167        -6.65073        11.94000
     2010.55441         2.08082        12.68792
     2010.55715         7.59338        12.36756
     2010.55989         8.48594        12.60874
     2010.56263        33.35749        12.30909
     2010.56536        -0.01095        11.77677
     2010.56810        -7.95140        13.27140
     2010.57084        11.16416        12.07399
     2010.57357         0.91671        12.49424
     2010.57631         1.66027        12.62336
     2010.57905         3.21083        11.53314
     2010.58179        17.77238        12.63676
     2010.58453       -14.02906        12.82800
     2010.58726       -17.66551        12.65990
     2010.59000         3.40005        12.37365
     2010.59274        14.03460        12.45404
     2010.59548       -15.84084        12.23600
     2010.59822        15.06072        11.79626
     2010.60071         8.95522        13.60760
     2010.60659        20.88541        14.15575
     2010.60917        11.13794        12.69036
     2010.61190         2.68549        11.76093
     2010.61464        20.53105        12.41994
     2010.61738        13.21161        12.66843
     2010.62012        11.49716        12.30178
     2010.62286        -4.79428        12.21285
     2010.62559         4.56827        12.15195
     2010.62833         8.92583        12.67574
     2010.63107         7.85838        13.27505
     2010.63381        28.32194        12.41994
     2010.63655         5.48350        11.86082
     2010.63928        14.52705        12.04719
     2010.64202        20.55261        12.35903
     2010.64476        -0.92884        12.55636
     2010.64750         6.01472        12.36147
     2010.65023         9.85927        12.80121
     2010.65297        19.01483        12.20311
     2010.65571         0.50339        12.37486
     2010.65845        20.19994        12.16413
     2010.66119        14.31750        11.98019
     2010.66392         0.25505        12.15439
     2010.66666        13.13361        12.21042
     2010.66940        11.96916        12.10201
     2010.67214        13.27172        12.78050
     2010.67488       -18.08672        12.53444
     2010.67761        -2.39517        11.91807
     2010.68014        10.91334        13.65511
     2010.68861        16.18206        11.90345
     2010.69130        11.91461        11.59283
     2010.69404         6.56517        12.13002
     2010.69678        -1.60628        12.62092
     2010.69952         9.50128        11.34190
     2010.70225         2.90083        12.20433
     2010.70499       -32.86361        12.63798
     2010.70773         7.22594        11.47468
     2010.71047        16.43650        12.24940
     2010.71321        18.55506        12.40410
     2010.71595         3.38761        12.15073
     2010.71868        20.07917        12.30909
     2010.72142        16.13572        12.13124
     2010.72416        -8.40172        12.21773
     2010.72689        20.01383        11.60989
     2010.72963        18.55239        12.11906
     2010.73237         1.77295        11.52827
     2010.73511        12.55650        11.90954
     2010.73785        17.59506        12.56733
     2010.74058       -10.65539        12.31518
     2010.74332         5.91917        12.70254
     2010.74606         4.96772        11.78164
     2010.74880         3.28428        12.32614
     2010.75154         9.91184        12.05572
     2010.75427        -3.85961        12.83653
     2010.75701        14.79995        11.97045
     2010.75975        15.44250        11.80600
     2010.78439        12.65750        12.23356
     2010.78713        44.27506        12.31152
     2010.78987        11.02162        11.88640
     2010.79261         7.92217        11.52949
     2010.79535        10.50073        11.77311
     2010.79808        37.32628        12.02770
     2010.80082         6.95584        12.25914
     2010.80355        15.74739        12.09226
     2010.80629        17.76895        11.96801
     2010.80903        20.97351        11.75484
     2010.81177        43.39906        12.22138
     2010.81451        41.83662        11.82671
     2010.81724        18.07417        11.47955
     2010.81998        10.43073        11.13847
     2010.82272        21.56328        11.94731
     2010.82546        15.96884        11.98141
     2010.82820        21.28540        11.23592
     2010.83094        14.55095        11.93269
     2010.83367        10.60151        11.70977
     2010.83641        14.72306        12.14708
     2010.83915         6.76262        11.28587
     2010.84188         6.12217        11.87665
     2010.84462        22.42873        11.38453
     2010.84736        33.78329        12.07399
     2010.85010         5.10784        11.99847
     2010.85284        22.91340        12.01065
     2010.85557        19.78095        11.39184
     2010.85831        17.80851        11.46371
     2010.86105        23.33706        11.40281
     2010.86376        13.24761        11.40524
     2010.88843        15.83962        11.87300
     2010.89117         9.27318        11.65983
     2010.89390         4.79673        10.60372
     2010.89664        23.92529         9.92036
     2010.89938        20.28484        10.35766
     2010.90212         6.00140        10.37837
     2010.90485        12.88896        10.58545
     2010.90760        11.46151        10.16154
     2010.91033        24.16307        10.61103
     2010.91307       -12.37938        10.50505
     2010.91581       -29.23682        10.47825
     2010.91854        18.29773        10.63417
     2010.92128        27.43929        10.24681
     2010.92402        14.36685        11.00570
     2010.92676        22.52140        11.33459
     2010.92950        16.39196        11.12142
     2010.93223        -6.70649        11.49417
     2010.93497         8.94207        11.26029
     2010.93771        28.11562        10.81811
     2010.94045        -2.37382        12.01674
     2010.94318         8.52674        11.47833
     2010.94585         3.25328        12.84749
     2010.98151        13.52852        11.20669
     2010.98425        25.46007        11.08000
     2010.98699        24.03563        11.57578
     2010.98973        -2.92982        11.88762
     2010.99247         2.98674        11.60380
     2010.99520        20.73929        10.63783
     2010.99794        22.97985        10.14205
     2011.00342        19.44696        10.11282
     2011.00616        23.25052         9.80951
     2011.00889        21.95107        10.27726
     2011.01163       -11.17437        10.38324
     2011.01437       -27.37882        11.72195
     2011.01711        14.17274        12.13124
     2011.01984        -5.39570        12.23113
     2011.02259        -5.27615        12.40775
     2011.02532        17.88741        10.94601
     2011.02806        15.87796        11.15309
     2011.03080       -27.12648        11.42717
     2011.03353       -18.31293        12.22991
     2011.03627        -5.04237        11.89371
     2011.03901         7.98119        12.42237
     2011.04175         2.20874        12.04354
     2011.04449        11.49130        11.92416
     2011.04722        13.08985        11.66227
     2011.04996        15.20141        11.51487
     2011.05270        12.13796        11.07026
     2011.05544        23.29252        11.57212
     2011.05796        15.80903        12.72446
     2011.07187        -5.93014        14.08510
     2011.07461         7.72141        13.45899
     2011.07734         0.69097        13.08259
     2011.08008        -7.10048        12.51860
     2011.08282       -10.06992        13.73307
     2011.08556        -7.66837        13.20440
     2011.08830        -2.93881        12.04354
     2011.09103        -4.21225        13.41027
     2011.09377        13.41530        13.32012
     2011.09651         3.69186        13.97913
     2011.09925         5.64841        13.96573
     2011.10198         2.90197        13.97547
     2011.10472        -9.49548        13.96573
     2011.10746        -5.88192        13.51259
     2011.11020         6.11564        13.42245
     2011.11294         3.71619        13.29211
     2011.11567         3.66175        14.56139
     2011.11841       -16.19770        15.33489
     2011.12115       -17.72414        13.16055
     2011.12389        -0.82659        14.38476
     2011.12663        -3.37703        14.33725
     2011.12936         5.20453        14.46394
     2011.13210         5.57708        13.24460
     2011.13484       -11.82036        14.51632
     2011.13758       -13.21781        13.62831
     2011.14031         0.99475        15.35438
     2011.14305        -2.37370        13.96451
     2011.14579        -7.20214        13.18004
     2011.14853        -9.06558        14.38841
     2011.15127        17.88297        12.84262
     2011.15400        -4.54747        14.38598
     2011.15674         0.17908        13.22268
     2011.15948         0.41264        15.73444
     2011.16222         7.38319        13.79641
     2011.16496       -18.84825        14.40181
     2011.16769         2.87031        13.98644
     2011.17043        -8.72814        12.90840
     2011.17291       -19.53564        14.75629
     2011.19781         8.08742        14.83181
     2011.20055       -20.92103        13.82686
     2011.20329       -14.35747        15.37387
     2011.20602       -15.17991        13.73063
     2011.20876       -15.30036        13.14228
     2011.21150        -8.06180        15.34098
     2011.21424       -14.02525        13.13619
     2011.21697         4.39431        14.11677
     2011.21971         3.74886        15.80143
     2011.22245        12.16742        12.72203
     2011.22519       -15.87102        13.91213
     2011.22793         9.74953        13.27627
     2011.23066         3.42309        13.88533
     2011.23340         4.35964        13.78788
     2011.23614        21.22920        13.38712
     2011.23888       -11.94525        13.21171
     2011.24162        -3.31069        13.88168
     2011.24435        -9.96613        13.20440
     2011.24709        14.57642        13.22389
     2011.24983        -6.76602        14.14723
     2011.25257        -7.50347        13.68312
     2011.25530        -4.92991        13.89142
     2011.25804       -16.74136        13.11792
     2011.26078         7.73720        14.48952
     2011.26352         3.53676        14.12896
     2011.26616        -9.88271        14.40912
     2011.28817        -9.29924        13.24947
     2011.29090        -9.35269        14.28487
     2011.29363        -7.53313        14.09728
     2011.29637        -3.38158        13.28967
     2011.29984        -2.67987        17.06340
     2011.30185        -8.95146        14.37258
     2011.30459        -4.51291        14.36040
     2011.30732       -10.32035        14.59062
     2011.31006         0.58220        14.08754
     2011.31280        -7.77324        14.45297
     2011.31554        -7.40569        15.01331
     2011.31828        -9.86613        14.30193
     2011.32101       -11.39157        14.71000
     2011.32375        -7.95202        14.85008
     2011.32649       -17.50646        14.61133
     2011.32923        -7.72791        14.30193
     2011.33196       -18.09735        14.52728
     2011.33470       -19.01380        14.11677
     2011.33744       -17.63424        15.56146
     2011.34018        -7.53468        15.05473
     2011.34292        -7.84813        13.94502
     2011.34565        -7.82357        15.18994
     2011.34840       -16.93402        14.91342
     2011.35113       -28.44446        13.76474
     2011.35387       -12.82991        14.61377
     2011.35661        -3.89035        14.75994
     2011.35934       -21.26879        13.23973
     2011.36208       -19.60224        13.89020
     2011.36482       -16.69668        15.41407
     2011.36756       -15.91513        14.70513
     2011.37029       -16.96057        14.01080
     2011.37303       -21.92702        15.48350
     2011.37554       -26.48351        16.24361
     2011.38672       -17.82524        15.76245
     2011.38946       -30.25468        14.25808
     2011.39220       -26.42313        14.83912
     2011.39493       -30.62257        15.07665
     2011.39767       -15.16501        15.19846
     2011.40041       -17.70146        14.89881
     2011.40315       -26.03490        13.75743
     2011.40589       -24.77935        14.04491
     2011.40862       -32.54279        14.35674
     2011.41136        -3.86524        14.06927
     2011.41410        -5.97068        14.25442
     2011.41684       -18.39112        13.99496
     2011.41958       -33.78457        14.67224
     2011.42231       -41.70501        14.18621
     2011.42505       -15.98046        14.48708
     2011.42779       -20.30990        14.24346
     2011.43053        -6.57435        13.22389
     2011.43326       -26.81379        14.93657
     2011.43600       -33.05223        14.65640
     2011.43876       -28.83968        14.44201
     2011.44148       -36.04712        14.59915
     2011.44422       -32.17257        14.85252
     2011.44695       -18.70401        13.98278
     2011.44968       -39.62946        14.85374
     2011.45243       -24.91790        15.45792
     2011.45517       -22.99034        14.19230
     2011.45791       -25.36779        14.64422
     2011.46064       -27.62823        14.85008
     2011.46338       -25.83468        14.79770
     2011.46612       -16.10712        15.52614
     2011.46886       -21.36157        13.57349
     2011.47159       -24.28201        13.68069
     2011.47433         0.08255        14.63204
     2011.47707        -2.02990        14.12652
     2011.47981         5.62766        13.32622
     2011.48255       -19.62979        14.14601
     2011.48528        10.77977        15.59313
     2011.48802         1.00932        15.19237
     2011.50445         3.89466        14.00714
     2011.50719       -13.14479        14.61986
     2011.50992        -5.62023        14.00471
     2011.51265        -3.17368        14.16428
     2011.51540        13.95088        15.92690
     2011.51814         0.58044        14.24833
     2011.52088        26.06499        14.80257
     2011.52361         9.38555        14.85861
     2011.52635         7.23310        14.22275
     2011.52909         4.88266        14.17037
     2011.53183        -3.61778        15.02914
     2011.53457         8.09377        14.61742
     2011.53730        16.82233        14.48708
     2011.54004        -5.04612        15.17410
     2011.54278         1.56244        13.69531
     2011.54552       -22.11801        16.10718
     2011.54825        -4.15645        14.16063
     2011.55099        35.19911        14.60889
     2011.55373         1.59966        14.87566
     2011.55647         7.64722        15.83554
     2011.55921        18.00177        15.30200
     2011.56194       -12.01067        14.91221
     2011.56468        16.75688        14.81110
     2011.56742        12.95944        14.29340
     2011.57016        -4.20800        14.07292
     2011.57290        -3.06345        14.41521
     2011.57563        -2.98889        16.57494
     2011.57837        -3.81334        14.28244
     2011.58111       -18.74878        15.12538
     2011.58385        -5.06723        14.15088
     2011.58658       -10.45267        16.13520
     2011.59022        24.52707        33.24732
     2011.59206         3.69644        14.18255
     2011.59480        -5.26500        14.87688
     2011.59754        14.58855        14.65518
     2011.60027        27.76611        15.63942
     2011.60301        12.08066        14.61255
     2011.60565         3.45620        14.91099
     2011.61398        -6.81811        14.55286
     2011.61670        10.62944        13.53451
     2011.62217         9.39555        12.73786
     2011.62491        -1.23589        12.71837
     2011.62765         6.13266        12.03501
     2011.63039         8.93922        12.61118
     2011.63312         7.12778        12.74639
     2011.63586        -4.25267        12.35659
     2011.63860        16.21089        12.63189
     2011.64134        12.32144        12.63920
     2011.64407        -3.89700        12.27376
     2011.64681        11.09455        12.32492
     2011.64955         3.27011        12.52226
     2011.65229        16.95767        13.82443
     2011.65503         3.94022        12.97052
     2011.65776        20.05578        12.39557
     2011.66050        24.81933        12.81826
     2011.66324         2.34289        13.08868
     2011.66598         2.40444        11.68541
     2011.66872        17.25200        12.25914
     2011.67145         9.21256        11.83280
     2011.67419        11.56511        12.78293
     2011.67693        10.67667        12.42115
     2011.67967       -11.96678        13.38468
     2011.68240         9.88978        12.63920
     2011.68514         6.00233        12.94251
     2011.68788         8.97289        12.51495
     2011.69062         4.80145        11.97167
     2011.69336        -3.28700        12.31640
     2011.69609        10.03956        12.50642
     2011.69871        12.00909        14.12408
     2011.71526        16.24045        11.74023
     2011.71800        12.84200        10.96916
     2011.72073         0.14856        10.95697
     2011.72347         1.53011        10.63052
     2011.72621       -13.92133        11.40281
     2011.72895        12.91123        11.36383
     2011.73169        10.24278        10.84369
     2011.73442         6.81534        10.99839
     2011.73716        26.22489        11.05930
     2011.73990         6.80545        11.03128
     2011.74264         2.54400        11.59161
     2011.74538         9.46456        11.66227
     2011.74811        19.30812        11.59527
     2011.75085         6.12867        11.32728
     2011.75359        13.15523        11.54533
     2011.75633        -5.98622        11.32728
     2011.75906        17.08334        11.06051
     2011.76180        21.86189        11.27247
     2011.76454        33.60545        11.23349
     2011.76728        11.28801        10.75842
     2011.77002         3.89956        11.68297
     2011.77275         9.77312        10.53063
     2011.77549        14.61567        11.73535
     2011.77823         9.55723        10.88754
     2011.78097        15.70578        11.29561
     2011.78371        15.73834        11.12629
     2011.78644        13.56890        10.64392
     2011.78918        -0.40955        10.56596
     2011.79192         9.08001        11.06173
     2011.79466         4.84356        10.38690
     2011.79739        13.86912        10.79009
     2011.80013        20.04867        10.90338
     2011.80287        13.63923        10.40273
     2011.80561        10.00079        10.70239
     2011.80835         7.17434        10.30894
     2011.81108        10.86490        10.69021
     2011.81382        -6.20855        11.11898
     2011.81656        10.28301        10.45389
     2011.81930        12.71056        10.33695
     2011.82203        14.35612        10.69995
     2011.82477        18.53568        10.79375
     2011.82751         0.07223        10.90094
     2011.83025        -6.34421        11.11289
     2011.83299        21.47834        10.50018
     2011.83572         6.00590        10.68290
     2011.83846         0.92845        10.80106
     2011.84121        17.94101        10.63296
     2011.84394         8.63657        10.11160
     2011.84668         7.76712        10.08480
     2011.84941        13.64068        10.02146
     2011.85215       -13.34077        10.77669
     2011.85489        -0.30221        11.06661
     2011.85763         5.06634        10.42100
     2011.86036        19.02890        10.02024
     2011.86310         4.86546        10.86440
     2011.86584         8.84101        10.71457
     2011.86858         8.69057        10.78522
     2011.87132         7.41412        10.56718
     2011.87405        10.24868         9.69500
     2011.87679       -22.91777        10.45998
     2011.87953        15.27879        10.86196
     2011.88227        12.73035         9.85214
     2011.88501        17.90390         9.62801
     2011.88760       -16.43157        12.02892
     2011.89048       -14.86499        10.33817
     2011.89322        -0.76843        10.69021
     2011.89596         1.18012        11.07757
     2011.89869        -0.98732        10.74015
     2011.90143        15.27024        10.73771
     2011.90417         3.76179        10.46486
     2011.90691         5.69235        10.41491
     2011.90965        10.27890        10.67072
     2011.91238        11.98446        10.94967
     2011.91512         3.95601        10.16154
     2011.91786        12.52857        10.82785
     2011.92060         3.30513         9.94106
     2011.92334        -3.41332        10.26021
     2011.92607        -1.78576         9.85945
     2011.92881        10.68379        10.09698
     2011.93155        16.42535        10.75964
     2011.93429        12.59990         9.99466
     2011.93702         6.83446        10.04582
     2011.93976         4.04902         9.69013
     2011.94250         7.92157        10.00928
     2011.94524         9.03413        10.00319
     2011.94798         9.46868         9.73642
     2011.95071        13.43124         9.85945
     2011.95345        19.46479        10.30041
     2011.95596        -6.82270        11.32241
     2011.96828       -26.72320        28.05083
     2011.96988         4.61513        10.37228
     2011.97262         3.77868         9.76444
     2011.97535        12.37724         9.56223
     2011.97809         6.84680         9.82412
     2011.98083        -2.66565        10.30163
     2011.98357         7.42491        10.55378
     2011.98631        14.00146        10.38202
     2011.98904         1.77802        10.32843
     2011.99178        14.40557        10.59154
     2011.99452        -2.07287        10.96185
     2011.99726        19.07169        10.28945
     2012.00273        17.33380         9.92036
     2012.00547         5.95535        10.14936
     2012.00821        13.20791         9.90939
     2012.01095         9.36046        10.13596
     2012.01368        12.63502        10.20905
     2012.01642        16.32158        10.08358
     2012.01916        31.47413         9.90574
     2012.02190        16.40269         9.94959
     2012.02464        20.14824        10.18834
     2012.02737        11.55880         9.43067
     2012.03011        10.96535         9.46600
     2012.03285         9.48191         9.71449
     2012.03559        21.39747         9.58659
     2012.03833         2.74502         9.66577
     2012.04106        11.82658         9.18705
     2012.04380         3.45413         9.82900
     2012.04654       -18.62131         9.46234
     2012.04928       -24.45376         9.50376
     2012.05749         8.03291         9.74860
     2012.06023        18.41647        10.30406
     2012.06297        13.48002         9.70231
     2012.06570         6.38158        10.51236
     2012.06844         9.95313        10.10064
     2012.07118        28.42869         9.63532
     2012.07392        12.74425         9.80220
     2012.07666        12.77380        10.43075
     2012.07939        12.25236        10.37228
     2012.08213        23.34391         9.85214
     2012.08487         4.61747        10.35522
     2012.08761        25.31902        10.13596
     2012.09034        14.08558        10.31746
     2012.09308        14.62514        10.28701
     2012.09582        30.51869        10.02511
     2012.09856        18.42025         9.88625
     2012.10130        12.14280        10.31868
     2012.10403        -0.91264        10.23341
     2012.10677         5.17291        11.14822
     2012.10951        11.05347        10.35401
     2012.11225        11.74803        10.84125
     2012.11498        20.68158        10.17616
     2012.11772        11.04814         9.89599
     2012.12046        11.29569        10.00319
     2012.12320        12.72525         9.97395
     2012.12594         7.88880        10.30163
     2012.12867        12.44936        10.20905
     2012.13141        -1.25408        10.15911
     2012.13415        -1.35053        10.17129
     2012.13689        13.30303         9.74860
     2012.13963        -0.92942        10.71579
     2012.14236         8.29314        10.97890
     2012.14510         3.48669        10.33086
     2012.14784         3.24225         9.95934
     2012.15058         2.03381         9.78027
     2012.15331         9.87236        10.28945
     2012.15605         4.16492        10.29675
     2012.15879         8.67947        10.38446
     2012.16153        -2.03397         9.95812
     2012.16427         3.15058        10.17494
     2012.16700        -7.07186         9.95325
     2012.16974        -8.98230        10.00319
     2012.17248        -1.51075         9.90939
     2012.17522         5.61981         9.81316
     2012.17796         6.38536         9.76444
     2012.18069         1.16492         9.74617
     2012.18343        -0.63153         9.92766
     2012.18617        -4.32197        10.15302
     2012.18891        11.96959        10.14327
     2012.19164         8.56714        10.03608
     2012.19438         5.93570        10.19200
     2012.19712        13.74525        10.14693
     2012.19986         9.72081        10.05191
     2012.20260         8.10736        10.18591
     2012.20533         4.76392        10.25047
     2012.20807         5.40748        10.26874
     2012.21081        10.52903         9.88990
     2012.21355         6.98059        10.18469
     2012.21629         3.00814        10.39420
     2012.21902         4.70770        10.24072
     2012.22176         4.62825        10.18591
     2012.22450       -14.99519         9.74617
     2012.22724         4.45437        10.05679
     2012.22997        -4.61608        10.15545
     2012.23271         7.02948         9.73277
     2012.23545         9.02303        10.04460
     2012.23819        -5.87341        10.02755
     2012.24093         4.02014        10.07384
     2012.24366       -11.91630        10.63783
     2012.24640        -0.46674         9.97395
     2012.24914         5.35881         9.75713
     2012.25188        -4.33163        10.17251
     2012.25462        -5.48208         9.96908
     2012.25706        -0.77758        11.69394
     2012.27652        -9.23063         9.92523
     2012.27926        12.23692        10.03851
     2012.28199        -0.93452        10.21149
     2012.28473        -9.42496        10.22001
     2012.28747         5.10759         9.95446
     2012.29021        -6.75685        10.27239
     2012.29295        -3.50530        10.02024
     2012.29568        -3.66674         9.98248
     2012.29842         0.98481        10.20905
     2012.30116       -14.12563        10.32599
     2012.30390       -16.07107        10.16154
     2012.30663       -16.99152        10.09577
     2012.30937         7.84704         9.98613
     2012.31211        -0.44341        10.69386
     2012.31485        -6.73885        10.25777
     2012.31759        -8.28430        10.12256
     2012.32032       -10.47874        10.53794
     2012.32306       -22.53918        10.06288
     2012.32580        -7.41263         9.94959
     2012.32854       -13.84707        10.45024
     2012.33128         4.97248        10.36497
     2012.33401        -8.22996        10.45633
     2012.33675        -7.27041        10.16033
     2012.33949        -4.42285        10.18225
     2012.34223        -8.21129        10.42466
     2012.34496       -11.53674        10.14936
     2012.34770       -25.21918        10.60981
     2012.35044        -8.02563        10.26874
     2012.35318        -9.29007        10.36253
     2012.35592       -10.90052        10.26874
     2012.35865       -18.24896        10.99595
     2012.36139       -10.67640        10.21758
     2012.36413       -23.73185        10.52698
     2012.36687       -21.26829        10.79984
     2012.36961       -21.54074        10.24925
     2012.37234       -25.05818        10.47460
     2012.37508       -10.12863        10.60737
     2012.37782       -22.21407        10.87049
     2012.38056       -21.22851        10.59398
     2012.38329       -15.95996        10.63174
     2012.38603       -31.69840        10.35035
     2012.38877       -12.37585        10.80227
     2012.39151        -5.35229        10.72553
     2012.39425       -11.85374        10.82055
     2012.39698       -15.52518        10.61468
     2012.39972       -15.01262        10.70604
     2012.40246       -22.10907        10.58545
     2012.40520       -18.50051        10.70604
     2012.40794       -10.03896        10.45998
     2012.41067       -13.30240        11.04712
     2012.41341       -10.63185        10.47704
     2012.41615       -11.96929        10.54038
     2012.41889       -17.74173        10.87292
     2012.42162        -7.64618        10.74137
     2012.42436         1.63338        10.45998
     2012.42710       -14.92307        11.30292
     2012.42984       -15.95851        10.38202
     2012.43258        -5.55396        10.32234
     2012.43531       -10.43440        10.47216
     2012.43805        -3.62984        10.19931
     2012.44079        -4.27729        10.86074
     2012.44353       -29.56673        10.76695
     2012.44626        -8.85818        11.11898
     2012.44900        -3.88362        10.62565
     2012.45174        -7.56107        10.34304
     2012.45448         0.83749        10.59641
     2012.45722       -15.26695        11.04346
     2012.45995        -0.97340        10.98256
     2012.46269        -4.49084        10.57692
     2012.46543       -17.69229        11.35165
     2012.46817         5.23827        10.82907
     2012.47091        13.99982        10.41248
     2012.47364         7.24738        10.65854
     2012.47638       -17.26906        11.23349
     2012.47912         3.32649        10.39420
     2012.48186         4.28705        10.50749
     2012.48459        17.08960        10.25047
     2012.48733       -15.71184        10.90703
     2012.49007       -13.09229        10.75477
     2012.49281         9.68527        10.70970
     2012.49555         3.70783        10.35766
     2012.49828         7.89938        10.19200
     2012.50102         2.71194        10.56352
     2012.50376        -8.68951        10.57327
     2012.50650        -9.80195        10.97403
     2012.50924        -7.68740        10.56961
     2012.51197        -2.29684        11.32363
     2012.51471        -2.21528        10.80106
     2012.51745        -3.60973        11.45275
     2012.52019        10.23783        11.31876
     2012.52292         1.38738        10.77426
     2012.52566         7.29794        10.85343
     2012.52840         1.96849        10.93748
     2012.53114         2.90905        11.12751
     2012.53365        -9.88444        12.41384
     2012.54757        -5.41762        10.83882
     2012.55030         3.18094        11.54167
     2012.55304         5.71049        11.11655
     2012.55578        -5.73995        10.90338
     2012.55852       -13.96739        10.80106
     2012.56125        -5.79284        10.94236
     2012.56399        -3.34328        11.21765
     2012.56673        -2.30573        11.61720
     2012.56947         9.65783        11.37479
     2012.57221         7.16838        11.12142
     2012.57494       -12.28206        11.13604
     2012.57768       -14.31750        11.55263
     2012.58042         9.07205        11.28099
     2012.58316        13.00061        11.07391
     2012.58590        23.00816        11.19207
     2012.58863        -2.28428        11.16284
     2012.59137       -10.75973        11.21156
     2012.59411        -1.64717        10.74502
     2012.59685        15.17039        11.79260
     2012.59958        -3.77606        11.18720
     2012.60232         1.58350        11.67323
     2012.60506         4.34305        10.69386
     2012.60780         9.40561        10.83638
     2012.61054        -5.21484        11.03372
     2012.61327         2.59872        11.21156
     2012.61601         3.26228        10.69995
     2012.61875       -10.54217        10.96550
     2012.62149        -8.39561        11.24811
     2012.62423        -3.86706        10.61590
     2012.62696         6.79250        10.89120
     2012.62970         6.09305        10.74624
     2012.63244         1.43661        10.77913
     2012.63518        -2.00983        10.90581
     2012.63791        -6.78528        10.87049
     2012.64065         1.98528        11.48564
     2012.64339        -6.22017        10.88267
     2012.64613        14.93639        11.10193
     2012.64887         9.70894        10.95819
     2012.65160         7.11350        10.92043
     2012.65434        -7.16194        10.99108
     2012.65708        -0.70239        10.92043
     2012.65982         7.23917        11.06051
     2012.66256         3.43672        10.71944
     2012.66529         1.68428        11.06051
     2012.66803         4.26583        10.86562
     2012.67077         0.82239        10.70239
     2012.67351         6.13595        10.81811
     2012.67624         6.52550        10.43075
     2012.67898         0.79806        10.73406
     2012.68172         7.77361        11.09706
     2012.68446        -0.63883        10.95088
     2012.68720         8.06972        10.95819
     2012.68993         3.99528        11.24689
     2012.69267        -0.39616        11.20669
     2012.69541         1.66739        11.18354
     2012.69815         4.42895        11.07026
     2012.70089        -3.77850        10.94479
     2012.70362        -1.93294        10.46242
     2012.70636         2.16461        10.69752
     2012.70910        26.92117        11.92903
     2012.71184        -6.80927        11.06661
     2012.71457         8.03728        10.58667
     2012.71731         4.44284        11.21643
     2012.72005         7.02639        10.78157
     2012.72279         8.33195        10.75964
     2012.72553        25.40850        10.82420
     2012.72826         0.65106        10.71457
     2012.73100         5.81862        11.29074
     2012.73374        16.44517        11.24201
     2012.73648         9.30273        10.67437
     2012.73921         8.43228        10.97890
     2012.74195        -0.58916        11.08488
     2012.74469        12.46539        10.78522
     2012.74743        19.69995        10.92165
     2012.82142       -20.94003        11.68054
     2012.82409        -2.78049        11.55873
     2012.82683        -0.22193        11.36017
     2012.82956        -1.32938        11.31023
     2012.83230         9.11318        11.16893
     2012.83504        -7.28027        11.07757
     2012.83778        -8.59571        11.28099
     2012.84052         8.62384        11.26394
     2012.84325        -1.04960        10.92287
     2012.84599        11.59796        11.36626
     2012.84873       -12.12349        11.47833
     2012.85147        -0.36893        10.90216
     2012.85420        -9.55938        10.93870
     2012.85694        -9.18482        11.55263
     2012.85968       -13.34027        10.40029
     2012.86242        -6.17771        10.32964
     2012.86516       -12.18715        10.83882
     2012.86789       -17.82560        12.23478
     2012.87063         2.16196        10.98499
     2012.87337       -12.75349        10.76817
     2012.87611        10.01307        10.75111
     2012.87885         0.80562        10.38446
     2012.88158       -14.68782        10.59154
     2012.88432       -17.96526        11.08122
     2012.88706       -19.41071        11.27978
     2012.88980       -14.20715        11.71952
     2012.89253        -4.43960        10.96185
     2012.89527       -13.57104        10.88876
     2012.89801       -13.58849        10.80471
     2012.90075        -2.50693        10.63174
     2012.90349         1.09163        10.35401
     2012.90622         3.12418        10.71091
     2012.90896       -12.82326        11.22862
     2012.91170        -9.09471        10.51723
     2012.91444       -13.03515        10.64879
     2012.91718         0.97040        11.27856
     2012.91991         3.35396        11.13117
     2012.92265       -16.58348        11.07879
     2012.92539        -9.47893        10.93992
     2012.92813        -3.04637        10.56596
     2012.93086       -19.73282        10.77182
     2012.93360       -37.42326        11.47468
     2012.93634        -5.72271        10.87292
     2012.93908         1.40785        10.47095
     2012.94182       -21.32959        11.04833
     2012.94455        -1.07604        10.55621
     2012.94729        -2.24848        11.53680
     2012.95003         5.37007        10.51358
     2012.95277        -4.46637        10.43440
     2012.95551         8.52518        10.17738
     2012.95824         8.32674        10.71822
     2012.96098         7.17130        11.61598
     2012.96372         2.20085        10.76573
     2012.96646        16.45041         9.59025
     2012.96919       -19.67404        10.74868
     2012.97193        -4.16948        10.21027
     2012.97467        -9.74793        11.49051
     2012.97741        10.68563        10.83760
     2012.98015        -1.94081        11.06295
     2012.98288        -1.34026        10.52454
     2012.98562         2.82430        10.83638
     2012.98836        -8.48515        10.63661
     2012.99110        13.83141        10.53185
     2012.99384        12.12096        10.27361
     2012.99657        15.40252         9.97152
     2012.99931        18.07908         9.64872
     2013.00205        20.23363         9.82534
     2013.00479         5.03219        10.03851
     2013.00752         8.31574         9.82656
     2013.01026         3.16530        10.29675
     2013.01300         1.97985        10.26996
     2013.01574        -7.33559        10.37837
     2013.01848        -4.30103        10.79497
     2013.02121       -18.10848        10.99352
     2013.02395       -10.84692        11.45762
     2013.02669        -6.10237        11.04955
     2013.02943         8.10019         9.94594
     2013.03216        15.29774         9.44773
     2013.03490         8.35230         9.56345
     2013.03764        -6.61414        10.34670
     2013.04038        -2.06159        10.74502
     2013.04312        -8.25503        11.24689
     2013.04578         6.88851        10.20174
     2013.06502         1.56941        10.48922
     2013.06776        -3.89703        10.78522
     2013.07049        -5.82048        10.73650
     2013.07323         3.67108        10.58667
     2013.07597        -5.48436        11.16284
     2013.07871       -29.24981        11.62085
     2013.08145         6.18775        11.03859
     2013.08418       -12.02170        10.85831
     2013.08692        -8.55714        10.67072
     2013.08966        -3.32459        10.48069
     2013.09240        -6.72803        10.22001
     2013.09514         3.56853        10.76451
     2013.09787        -3.90992        11.71708
     2013.10061       -10.05336        11.73901
     2013.10335        -2.58781        10.78400
     2013.10609         0.22675        10.35279
     2013.10882        -5.45670        10.49896
     2013.11156         1.16486        10.58545
     2013.11430       -24.89458        10.90216
     2013.11704        -9.77203        10.67681
     2013.11978       -19.49447        11.37601
     2013.12251       -13.42492        11.00570
     2013.12525       -13.78236        11.11289
     2013.12799         0.95119        10.81933
     2013.13073       -10.60025        11.08975
     2013.13347        -1.99769        10.56718
     2013.13620         7.17786        10.71579
     2013.13894        -5.26658        10.47825
     2013.14168        -5.95103        10.54647
     2013.14442       -12.10947        11.60380
     2013.14715         0.54708        11.50756
     2013.14989       -28.66736        11.77068
     2013.15263        -5.87480        10.87292
     2013.15537       -13.33025        10.64270
     2013.15811       -28.32569        10.82542
     2013.16084       -33.72014        10.79131
     2013.16358       -14.98458        11.51000
     2013.16632       -13.12803        10.48313
     2013.16906        -9.79847        10.76695
     2013.17180       -14.20091        10.63661
     2013.17453       -19.68236        10.52454
     2013.17727       -10.07180        11.26760
     2013.18001       -15.35025        11.10924
     2013.18275        -4.20269        10.53307
     2013.18548       -16.13814        10.61225
     2013.18822       -22.46258        10.59276
     2013.19096       -17.28302        10.72553
     2013.19370       -12.46647        10.84734
     2013.19644        -6.64791        10.55012
     2013.19917       -23.50336        10.78157
     2013.20191       -31.20680        10.70604
     2013.20465       -18.15125        10.73406
     2013.20739       -10.43869        10.76208
     2013.21013       -20.30613        10.91069
     2013.21286        -7.56958        10.70970
     2013.21560       -29.95802        11.21643
     2013.21834       -17.31147        11.08610
     2013.22108       -15.58191        10.76451
     2013.22381         5.51164        10.35888
     2013.22655       -19.02980        10.38568
     2013.22929       -15.47924        10.51236
     2013.23203       -24.68869        10.62565
     2013.23477       -18.90213        10.71701
     2013.23750       -27.42558        10.96550
     2013.24024       -24.64202        10.79497
     2013.24298       -10.30347        10.53551
     2013.24572       -27.89291        10.94723
     2013.24846       -18.86835        10.94114
     2013.25119       -10.21380        10.80958
     2013.25393       -10.72324        10.78157
     2013.25667        -4.64269        10.97525
     2013.25941        -9.02013        10.84369
     2013.26214       -12.93458        11.11898
     2013.26488       -15.22002        10.79131
     2013.26762       -17.60446        10.15667
     2013.27036       -30.56391        11.33216
     2013.27310       -26.63135        11.09219
     2013.27583       -19.24980        11.12142
     2013.27857       -18.96524        10.99474
     2013.28131       -14.57469        11.14578
     2013.28405       -15.87113        10.67194
     2013.28679       -15.24357        10.25290
     2013.28952       -27.84202        10.84125
     2013.29226       -21.84646        10.46973
     2013.29500       -27.51891        10.90581
     2013.29774        -8.34935        10.97159
     2013.30047       -27.07480        10.62686
     2013.30321         0.61376        11.00692
     2013.30595       -15.19968        10.68655
     2013.30869       -22.50513        10.69143
     2013.31143        -6.10957        11.08488
     2013.31416       -16.45302        10.79984
     2013.31690       -12.72946        10.42831
     2013.31964        -6.22091        10.86927
     2013.32238        -1.47335        11.04224
     2013.32512       -16.31079        11.42960
     2013.32785       -15.09424        11.28708
     2013.33059        -6.82368         9.98979
     2013.33333        -4.14013        10.42831
     2013.33607        -8.62057        10.51236
     2013.33880       -22.97202        10.84247
     2013.34154        -5.71846        10.85222
     2013.34428       -25.49390        11.27003
     2013.34702       -21.94035        10.55012
     2013.34976       -15.72879        10.66584
     2013.35249       -28.23124        10.87780
     2013.35523       -21.77268        11.06661
     2013.35797       -14.82213        10.77791
     2013.36071       -17.45157        10.82907
     2013.36344        -3.05101        10.93139
     2013.36618       -15.82046        10.89485
     2013.36892       -10.51990        10.90460
     2013.37166       -20.17535        10.86805
     2013.37440       -10.07579        10.83394
     2013.37713        -7.48524        10.68046
     2013.37987        -9.62368        11.01179
     2013.38261       -10.29412        11.13726
     2013.38535       -27.71157        11.58796
     2013.38809       -10.88801        10.49896
     2013.39082        -5.23046        10.49044
     2013.39356       -11.59590        10.49774
     2013.39630       -24.44835        10.61834
     2013.39904       -21.57579        10.88267
     2013.40177        -9.76223        10.47338
     2013.40451       -13.40568        10.63174
     2013.40725        -5.46212        10.84369
     2013.40999         5.15643        11.00448
     2013.41273        -4.75201        10.40517
     2013.41546       -29.17846        10.79862
     2013.41820       -21.78590        10.95819
     2013.42094         5.62066        10.95697
     2013.42368        -6.09679        10.67681
     2013.42642       -20.46723        10.86318
     2013.42915        -0.39068        10.85222
     2013.43189        -7.96612        10.90094
     2013.43463       -20.00557        11.36017
     2013.43737         0.14899        10.67803
     2013.44010        -6.10145        10.25168
     2013.44284        -5.15290        10.90216
     2013.44558       -13.94634        10.71457
     2013.44832        -7.42979        10.91190
     2013.45106         8.11477        10.35401
     2013.45379        -4.99968        10.82907
     2013.45653       -11.65312        10.98377
     2013.45927        -9.85056        11.12508
     2013.46201       -11.04601        10.57936
     2013.46475         3.47455        10.54769
     2013.46748        -1.48690        11.32972
     2013.47022        -5.74934        11.42351
     2013.47296        -1.99679        10.57205
     2013.47570       -16.22223        10.47460
     2013.47843        14.05133         9.93497
     2013.48117         3.38988        10.54281
     2013.48391        -0.05856        10.57083
     2013.48665        -5.71001        10.91434
     2013.48939         2.71455        10.96550
     2013.49212         2.62910        11.72195
     2013.49486        -1.21734        10.83882
     2013.49760        -1.95778        11.96192
     2013.50034       -14.44223        11.67323
     2013.50308         8.43433        11.69515
     2013.50558        -8.05617        12.66478
     2013.51230        37.87120        22.03576
     2013.51403         9.01955        10.85709
     2013.51676         2.87011        11.40402
     2013.51950        19.68666        10.58179
     2013.52224         9.06122        10.50749
     2013.52498        16.02077        11.19938
     2013.52772        16.78833        11.43448
     2013.53045         9.69288        10.89363
     2013.53319        17.93244        10.67072
     2013.53593        17.61900        11.15796
     2013.53867         4.55655        10.82055
     2013.54141        29.86711        10.65245
     2013.54414        20.03466        10.78522
     2013.54688       -14.46378        11.60867
     2013.54962        24.82877        11.15187
     2013.55236        26.88033        10.89241
     2013.55509        21.95489        10.58910
     2013.55783        14.04944        10.74868
     2013.56057        15.40700        11.25420
     2013.56331        15.31155        10.89485
     2013.56605        15.10011        11.02032
     2013.56878        33.78766        10.60128
     2013.57152        16.17322        10.88632
     2013.57426        28.96878        10.91190
     2013.57700        13.70333        10.46120
     2013.57974        20.50989        10.39786
