# ================= DQRFIT RESULTS ================
# INPUT FILE: series/IDSN.rad
# OUTPUT: LDETRENDED
# FILTER FUNCTION: f(t)
# f(t)=+line(t)+annual(t)
# line(t)=+P 1+P 2*t
# annual(t)=+P 3*sin(2*pi*t+P 4)
# heav(t)=(t<0?0:1)
# TOTAL OBSERVATIONS MTOT= 2846
# INITIAL TIME INTERVAL= 2022.7488 - 2010.0014 = 12.7474
# TOTAL OBSERVATIONS AFTER PREFILTER M= 2842
# TIME-SPAN= 2022.7488 - 2010.0014 = 12.7474
# OBSERVATIONS: USED M=  2842 REJECTED MTOT-M=     4 %USED=   99.8595
# N=  4 PARAMETERS
# MAXSIG= 175.00000
# MAXRES=  43.99631
# SCALE FACTOR FOR LENGTHS: SCL=  10.00000
# SCALE FACTOR FOR SIGMAS: SCLSIG=   1.00000
# CHI^2=   4881.219 DOF=  2838 CHI^2/DOF=   1.71995
# RMS=      7.800 SDEV=      7.789 MEAN=    0.44935
#  P #       PARAMETER +-    SIGMA %error PARAMETER NAME
# P 1 =      4877.13638 +-   81.870   1.68 YZERO                              
# P 2 =        -2.42120 +-    0.041   1.68 SLOPE                              
# P 3 =         4.42911 +-    0.195   4.39 ANNUAL AMPLITUDE                   
# P 4 =         3.09284 +-    0.062   2.01 ANNUAL PHASE                       
#       T            LDETRENDED       SIG_OBS
     2010.00136       -23.21684         7.51865
     2010.00410        -3.26321         7.63275
     2010.00684       -20.84558         7.87537
     2010.00958       -12.24196         7.31800
     2010.01232       -10.22933         7.34160
     2010.01505       -17.10970         7.41242
     2010.01779       -14.74507         7.37701
     2010.02053       -12.38444         7.33636
     2010.02327       -13.97781         7.39144
     2010.02600       -10.79918         7.34554
     2010.02874        -2.62555         7.44127
     2010.03148        -8.27392         7.43472
     2010.03422        -4.45230         7.53439
     2010.03696        -5.38767         7.77308
     2010.03969         0.32296         7.54619
     2010.04243        -1.65741         7.48062
     2010.04517         7.28622         7.44652
     2010.04791         5.42285         7.47013
     2010.05065         4.43548         7.54881
     2010.05338         3.67211         7.62357
     2010.05612         6.28674         7.45045
     2010.05886         6.14336         7.36390
     2010.06160         2.54399         7.33636
     2010.06433        -1.95638         7.27865
     2010.06707        -5.74975         7.30882
     2010.06981        -5.21112         7.51734
     2010.07255        -3.45549         7.44652
     2010.07529        -5.35086         7.52652
     2010.07802        -3.71223         7.30095
     2010.08076         0.38740         7.29177
     2010.08350        -1.77398         7.40324
     2010.08624         5.13965         7.30357
     2010.08898         9.39628         7.58685
     2010.09171         4.55291         7.32062
     2010.09445         0.79954         7.41373
     2010.09719        -0.97683         7.46619
     2010.09993        -7.09920         7.32193
     2010.10266        -2.85757         7.34816
     2010.10540        -5.14094         7.51603
     2010.10814        -1.53632         7.42160
     2010.11088        -6.65969         7.44652
     2010.11362        -0.16506         7.32718
     2010.11635         1.10557         7.32980
     2010.11909         1.65620         7.41373
     2010.12183        -4.11817         7.34816
     2010.12457        -0.68754         7.27472
     2010.12731        -1.83491         7.50422
     2010.13004       -12.42728         7.45439
     2010.13278        -5.32966         7.48849
     2010.13552        -2.40503         7.46095
     2010.13826        -5.48540         7.43996
     2010.14099        -7.51577         7.33373
     2010.14373        -4.74914         7.71144
     2010.14647        -8.04651         7.60783
     2010.14921        -5.69788         7.59209
     2010.15195        -5.64025         7.44127
     2010.15468        -1.88462         7.29701
     2010.15742         1.86300         7.43472
     2010.16016        -0.86437         7.34947
     2010.16290        -4.51774         7.53439
     2010.16564        -4.95711         7.51078
     2010.16837         2.56052         7.44127
     2010.17111         7.96815         7.41767
     2010.17385        -4.22722         7.42685
     2010.17659        -4.17059         7.41242
     2010.17932         0.95904         7.42423
     2010.18206         2.85666         7.42160
     2010.18480         4.97729         7.38095
     2010.18754         0.98392         7.42291
     2010.19028         0.27955         7.36914
     2010.19301         1.19818         7.44521
     2010.19575         3.07081         7.42160
     2010.19849        -1.14456         7.31537
     2010.20123        -8.02793         7.22882
     2010.20397        -1.39330         7.40718
     2010.20670        -9.93368         7.50422
     2010.20944        -2.39005         7.38619
     2010.21218        -8.55642         7.35996
     2010.21492        -4.03779         7.29832
     2010.21765        -5.42616         7.34423
     2010.22039        -1.92053         7.51078
     2010.22313        -8.14490         7.35603
     2010.22587        -5.48527         7.52259
     2010.22861        -2.20564         7.52127
     2010.23134         8.17798         7.44783
     2010.23408        -6.20139         7.52652
     2010.23682       -10.35376         7.52914
     2010.23956        -2.04313         7.56324
     2010.24230         5.33250         7.83471
     2010.24503        -2.44287         7.67340
     2010.24777         0.24476         7.48062
     2010.25051         0.53139         7.76258
     2010.25325         8.74402         7.61177
     2010.25598         3.19064         7.61439
     2010.25872         6.20827         7.59603
     2010.26146        11.72590         7.59078
     2010.26420         0.46953         7.82816
     2010.26694        -1.75784         7.68127
     2010.26967        -1.97321         7.75734
     2010.27241        -3.63458         7.68258
     2010.27515        -0.67995         7.58947
     2010.27789        -5.49933         7.66160
     2010.28062         1.98630         7.57636
     2010.28336        -2.36007         7.69963
     2010.28610        -7.37244         7.66029
     2010.28884        -1.71381         7.45177
     2010.29158         2.83782         7.58029
     2010.29431        -0.05255         7.62095
     2010.29705        -0.79292         7.50422
     2010.29979        -1.43529         7.64193
     2010.30253         9.62133         7.70881
     2010.30527         7.37696         7.79668
     2010.30800         2.25859         7.61963
     2010.31074         5.31222         7.61832
     2010.31348         6.14985         7.47275
     2010.31622        -2.40752         7.50029
     2010.31895         0.51511         7.79406
     2010.32169         8.96874         7.67865
     2010.32443        11.41437         7.71537
     2010.32717        13.31099         7.52259
     2010.32991         8.89562         7.46357
     2010.33264         5.45525         7.42685
     2010.33538        -1.37712         7.78488
     2010.33812         3.74651         7.73898
     2010.34086         0.77514         7.49636
     2010.34360        -6.86923         7.45963
     2010.34633        -6.60760         7.53963
     2010.34907        -4.04397         7.44652
     2010.35181        -3.08235         7.46357
     2010.35455        -2.41772         7.41767
     2010.35728         0.37391         7.53177
     2010.36002        -4.13346         7.57636
     2010.36276        -7.04483         7.42554
     2010.36550        -7.33320         7.64193
     2010.36824        -4.45657         7.66291
     2010.37097        -2.92594         7.49898
     2010.37371         1.74569         7.46357
     2010.37645         2.21331         7.41636
     2010.37919         1.85694         7.64586
     2010.38193        11.16957         7.73898
     2010.38466         6.73420         7.75865
     2010.38740         2.60183         7.67865
     2010.39014        -2.21054         8.11930
     2010.39288        -0.10691         7.56062
     2010.39561        -2.68228         7.58291
     2010.39835        -4.07865         7.44390
     2010.40109         1.13297         7.46488
     2010.40383        -3.37940         7.37964
     2010.40657         1.40723         7.38882
     2010.40930        -0.01114         7.32324
     2010.41204         6.10149         7.35996
     2010.41478         5.45012         7.38095
     2010.41752        12.57675         7.33898
     2010.42026         7.04338         7.44652
     2010.42299        -3.55999         7.33111
     2010.42573        -0.89337         7.39275
     2010.42847        -0.29474         7.42160
     2010.43121         3.84589         7.62488
     2010.43394         4.26852         7.40193
     2010.43668       -12.32485         7.44259
     2010.43942         3.17878         7.36127
     2010.44216        -2.12859         7.29570
     2010.44490        -7.00196         7.43341
     2010.44763        -7.12633         7.32849
     2010.45037        -2.97171         7.33636
     2010.45311        -1.26608         7.73635
     2010.45585        11.96155         7.49636
     2010.45859         1.56318         7.50029
     2010.46132        -4.20019         7.46750
     2010.46406        -3.62456         7.41504
     2010.46680         2.85707         7.41504
     2010.46954         6.41570         7.38357
     2010.47227        -8.49667         7.29832
     2010.47501        -8.13105         7.41767
     2010.47775        -0.88642         7.50947
     2010.48049        -4.49279         7.61439
     2010.48323        13.67784         7.31668
     2010.48596         4.46847         7.32193
     2010.48870         0.58610         7.44259
     2010.49144         1.57773         7.63275
     2010.49418        -0.16064         7.63144
     2010.49692       -11.60201         7.38619
     2010.49965        -2.47339         7.44390
     2010.50239        -0.63176         7.32062
     2010.50513         2.80287         7.35996
     2010.50787         4.89850         7.40849
     2010.51060        -6.65087         7.29832
     2010.51334        -7.16424         7.33505
     2010.51608        -4.95661         7.22095
     2010.51882        -1.26898         7.31275
     2010.52156         3.81665         7.54619
     2010.52429         8.94527         7.40980
     2010.52703        11.67190         7.35996
     2010.52977         4.91753         7.42685
     2010.53251       -10.05684         7.37045
     2010.53525        -8.99221         7.34816
     2010.53798        -5.38558         7.40062
     2010.54072        -4.96995         7.36783
     2010.54346       -17.90932         7.50685
     2010.54620         8.32531         7.41504
     2010.54893       -11.35707         7.61045
     2010.55167        -2.03444         7.40718
     2010.55441        -0.74581         7.31013
     2010.55715         0.00082         7.44783
     2010.55989        -7.26755         7.43209
     2010.56262         3.74308         7.28652
     2010.56536        -4.63229         7.30882
     2010.56810        -7.21666         7.33767
     2010.57084        -3.31703         7.55931
     2010.57357        -0.34341         7.79668
     2010.57631        -1.31478         7.53045
     2010.57905         5.86285         7.64586
     2010.58179        -6.16252         7.42554
     2010.58453        -1.77389         7.38488
     2010.58726        -7.43226         7.58816
     2010.59000       -10.24963         7.64717
     2010.59274         0.53100         7.62095
     2010.59548         9.49763         7.60521
     2010.59822         4.70625         7.59078
     2010.60095         1.53188         7.52259
     2010.60369         1.83151         7.50029
     2010.60643        12.77314         7.59209
     2010.60917        -1.37123         7.43996
     2010.61190         2.42740         7.43996
     2010.61464        -0.52297         7.41636
     2010.61738        -2.76834         7.30750
     2010.62012        -4.99971         7.40062
     2010.62286        -4.67709         7.40324
     2010.62559        -3.22846         7.47013
     2010.62833         5.36017         7.39668
     2010.63107        -2.16920         7.53832
     2010.63381        10.96843         7.36914
     2010.63655         0.24506         7.46881
     2010.63928         3.89669         7.56586
     2010.64202        -1.03168         7.49898
     2010.64476        -8.47005         7.47931
     2010.64750        -0.88043         7.30750
     2010.65023        -0.44780         7.66685
     2010.65297        -8.94417         7.83078
     2010.65571        11.44746         7.31931
     2010.65845         9.19909         7.28914
     2010.66119         2.19672         7.35603
     2010.66392         3.02435         7.47668
     2010.66666        -4.97302         7.42947
     2010.66940         1.84461         7.39275
     2010.67214        -1.48477         7.23275
     2010.67488         0.20786         7.27996
     2010.67761        19.92949         7.53439
     2010.68035         6.94612         7.28127
     2010.68309         5.66275         7.23406
     2010.68583        11.91538         7.18816
     2010.68856        11.72001         7.30750
     2010.69130        12.41164         7.29177
     2010.69404         8.36127         7.47013
     2010.69678        -1.96211         7.29177
     2010.69952         2.30452         7.28521
     2010.70225         3.15915         7.35078
     2010.70499         5.52278         7.29046
     2010.70773         1.97741         7.19603
     2010.71047         3.30404         7.23800
     2010.71321        -1.72133         7.25505
     2010.71594         1.80830         7.42291
     2010.71868         6.09192         7.42029
     2010.72142         8.31755         7.38882
     2010.72416         6.06718         7.39800
     2010.72689         2.09581         7.35603
     2010.72963         2.11544         7.29439
     2010.73237         3.92407         7.24849
     2010.73511         4.80570         7.29439
     2010.73785         9.16733         7.44914
     2010.74053         6.31582         7.52390
     2010.74332         8.35658         7.53439
     2010.74606         5.08821         7.31537
     2010.74880         1.23584         7.37964
     2010.75154         6.74647         7.26947
     2010.75427         6.30810         7.35996
     2010.75701        11.63973         7.51865
     2010.75975        16.36736         7.31406
     2010.76249         8.85199         7.24455
     2010.76522         9.03762         7.43865
     2010.76796        11.79224         7.27341
     2010.77070         2.36587         7.32455
     2010.77344         4.37150         7.33898
     2010.77618        11.60413         7.59996
     2010.77891         4.89576         7.35996
     2010.78165         2.76639         7.27734
     2010.78439         6.97202         7.47931
     2010.78713         1.63165         7.46881
     2010.78987        10.32028         7.41373
     2010.79260        12.00390         7.30750
     2010.79534         1.14153         7.30750
     2010.79808         4.22916         7.23669
     2010.80082         5.96279         7.26160
     2010.80355         5.04042         7.23013
     2010.80629         6.22905         7.26029
     2010.80903         4.09868         7.33636
     2010.81177        12.58131         7.42554
     2010.81451        22.86494         7.24062
     2010.81724        20.32756         7.21570
     2010.81998         8.98319         7.20390
     2010.82272         2.60082         7.15144
     2010.82546        -1.60255         7.23537
     2010.82820         9.09208         7.16849
     2010.83093        12.93371         7.37177
     2010.83367         9.47334         7.46881
     2010.83641        -1.34103         7.21964
     2010.83915        -0.07540         7.17505
     2010.84188         2.93022         7.22357
     2010.84462         5.19985         7.13570
     2010.84736        11.81948         7.17898
     2010.85010         7.02211         7.15537
     2010.85284        17.28774         7.20652
     2010.85557        16.77137         7.06619
     2010.85831         8.05100         7.10685
     2010.86105         2.63963         7.04521
     2010.86379         1.57926         7.14488
     2010.86653        -0.86912         7.12783
     2010.86926         1.57651         7.07537
     2010.87200         1.81414         7.16193
     2010.87474         4.19177         7.34685
     2010.87748         9.39840         7.24718
     2010.88021        -4.08497         7.26947
     2010.88295         5.97466         7.15013
     2010.88569         8.38329         7.05308
     2010.88843         5.76992         7.43734
     2010.89117         2.85854         7.47275
     2010.89390         5.62517         7.16324
     2010.89664         6.61780         7.04914
     2010.89938         6.66543         7.12914
     2010.90212         3.23906         7.06882
     2010.90485         4.99169         7.13177
     2010.90759        11.79232         7.11210
     2010.91033        12.68595         7.09505
     2010.91267         0.63061         8.24652
     2010.92425        -4.18536         7.75865
     2010.92676         1.89572         7.03078
     2010.92950        -4.34565         6.98095
     2010.93223         1.64098         7.48718
     2010.93497        -7.77239         7.36127
     2010.93771         0.17124         7.18554
     2010.94005        -4.83510         8.84061
     2015.00068         3.46150         6.96521
     2015.00342         4.13413         6.93898
     2015.00616        -8.95425         6.96390
     2015.00889        -3.02462         7.14882
     2015.01163         8.83601         7.42816
     2015.01437        -0.34036         7.20521
     2015.01711        -2.26273         7.37045
     2015.01984         5.72490         7.12128
     2015.02258         5.48253         7.26029
     2015.02532         6.82216         7.10160
     2015.02806         4.53779         7.04914
     2015.03080         4.08641         7.14619
     2015.03353        -3.28796         7.15800
     2015.03627         3.61367         7.07275
     2015.03901         3.64330         7.07537
     2015.04175        12.49093         7.11603
     2015.04449         4.48756         7.15144
     2015.04722        -1.38881         7.63799
     2015.04996        -6.07218         7.18685
     2015.05270         2.80445         7.15013
     2015.05544         2.75907         7.05046
     2015.05817         7.43270         7.10554
     2015.06091         2.54033         7.16980
     2015.06365         3.67296         7.29964
     2015.06639         4.37459         7.14619
     2015.06913        -1.49878         7.04783
     2015.07186        -2.01015         7.10816
     2015.07460         7.51248         7.16062
     2015.07734        -4.81890         7.15275
     2015.08008        -5.31227         7.17373
     2015.08282         1.55136         7.11603
     2015.08555         3.14999         7.12259
     2015.08829         6.96262         7.16324
     2015.09103         6.30825         7.16324
     2015.09377         4.32088         7.17767
     2015.09650        -0.12849         7.23537
     2015.09924         2.19314         7.34029
     2015.10198        -2.38924         7.26816
     2015.10472         1.58539         7.14882
     2015.10746         2.71302         7.20783
     2015.11019         6.78565         7.26160
     2015.11293         2.81228         7.26685
     2015.11567        -1.89509         7.05701
     2015.11841        -3.63146         7.10423
     2015.12115         6.11717         7.18423
     2015.12388         5.50580         7.19078
     2015.12662         4.76542         7.11078
     2015.12936         1.76105         7.04128
     2015.13210         1.80868         7.12390
     2015.13483        -2.19869         7.24718
     2015.13757         6.86694         7.25242
     2015.14031         2.79157         7.12390
     2015.14305        -0.30780         7.10816
     2015.14579        -4.11117         7.00587
     2015.14852         3.08546         7.14357
     2015.15126         4.08908         7.13308
     2015.15400         6.27571         7.13046
     2015.15674         5.14934         7.08062
     2015.15948         5.85797         7.00849
     2015.16221         5.03460         7.08980
     2015.16495         1.12323         7.13570
     2015.16769         6.94286         7.15537
     2015.17043         5.66149         7.14488
     2015.17316        -4.66888         7.33373
     2015.17590         2.82674         7.30226
     2015.17864         7.26337         7.10423
     2015.18138         6.95900         7.20914
     2015.18412         1.41163         7.23406
     2015.18685         0.66326         7.19210
     2015.18959         5.59089         7.14357
     2015.19233         5.28752         7.44259
     2015.19507        -1.99185         7.13964
     2015.19780        -0.25722         7.24193
     2015.20054        -5.41960         7.23931
     2015.20328         2.51203         7.26291
     2015.20602        -3.06434         7.35734
     2015.20876         7.49329         7.18816
     2015.21149        -2.12508         7.20390
     2015.21423        -0.92245         7.22488
     2015.21697         2.63618         7.17505
     2015.21971        -2.00019         7.13832
     2015.22245         8.96044         7.20390
     2015.22518         3.40206         7.27734
     2015.22792        10.03469         7.17767
     2015.23066         6.18332         7.06751
     2015.23340         6.75995         7.24849
     2015.23613         0.87258         7.43996
     2015.23887         6.40421         7.43341
     2015.24161         5.42784         7.50422
     2015.24421         5.30812         8.00783
     2015.26984         2.22920        11.90027
     2015.27173         6.70876         7.32718
     2015.27446        -4.34362         7.35734
     2015.27720         6.78301         7.24062
     2015.27994         4.84264         7.13832
     2015.28268         1.95127         7.22619
     2015.28542         6.09190         7.25898
     2015.28815        -0.15047         7.32849
     2015.29089         4.36016         7.22095
     2015.29363         3.60679         7.30882
     2015.29637         1.07142         7.11734
     2015.29911         2.15704         7.14226
     2015.30184         6.75867         7.18554
     2015.30447         6.70303         7.60127
     2015.30829        -4.55071        12.67666
     2015.31006        11.53556         7.00456
     2015.31279         3.33319         7.01242
     2015.31553         5.79482         6.98226
     2015.31827        -2.71455         7.04521
     2015.32101        -1.41692         7.04914
     2015.32375         3.77170         7.00456
     2015.32648         1.90633         7.25242
     2015.32922        -2.96504         7.09898
     2015.33196         2.59159         7.13964
     2015.33470         1.41022         7.00193
     2015.33744         1.77585         7.00324
     2015.34017        -0.60352         7.10029
     2015.34291         4.50411         7.05046
     2015.34565         6.17574         7.09767
     2015.34839         3.11536         7.11603
     2015.35112        -3.62401         7.04259
     2015.35386         5.83462         7.03472
     2015.35660        -2.55175         7.09767
     2015.35934         4.35388         7.29701
     2015.36208         4.13551         7.27865
     2015.36481         5.47414         7.19078
     2015.36755        13.28077         7.17636
     2015.37029         9.71140         7.00718
     2015.37303        -1.68598         7.07144
     2015.37577        -2.12535         7.06751
     2015.37850        -2.94272         7.20521
     2015.38124        -1.48409         7.02423
     2015.38398        -2.48946         7.04521
     2015.38672        -2.59283         7.09242
     2015.38945         2.69680         7.13701
     2015.39219         3.82043         7.13046
     2015.39493        -1.12594         7.10947
     2015.39767         2.38868         7.12914
     2015.40041         3.58531         7.11341
     2015.40314         0.04494         7.29177
     2015.40588        -7.46343         7.02685
     2015.40862        -1.26980         7.18029
     2015.41136         2.71183         7.15931
     2015.41410        -0.17954         7.17636
     2015.41683         5.37009         7.23800
     2015.41957         6.03172         7.12128
     2015.42231        -0.55166         7.13046
     2015.42505        -2.38403         7.35734
     2015.42778        -2.77140         7.13177
     2015.43052        -3.19377         7.10423
     2015.43326        -0.58314         7.05046
     2015.43600        -3.14951         7.28127
     2015.43874         6.42412         7.16718
     2015.44147        -8.50325         7.43996
     2015.44421        11.76938         7.12914
     2015.44695         0.05600         7.07800
     2015.44969         4.77163         7.06095
     2015.45243        -3.59574         7.31931
     2015.45516        -2.33411         7.19341
     2015.45716         0.81772        10.83798
     2015.46338        -5.14322         7.50947
     2015.46611         6.17741         7.16849
     2015.46885         6.47604         7.12914
     2015.47159         0.25666         7.07013
     2015.47433         2.55629         7.22226
     2015.47707         7.20692         7.27996
     2015.47980         5.75855         7.22488
     2015.48254        -0.29682         7.22095
     2015.48528         1.53581         7.07013
     2015.48802         7.18844         7.01636
     2015.49076        -3.44493         7.09767
     2015.49349         2.73470         7.59472
     2015.49623         5.15132         7.33767
     2015.49897         6.92295         7.40718
     2015.50171         4.78258         7.02423
     2015.50444         8.70021         7.07537
     2015.50718        -0.11616         7.18685
     2015.50992         2.67747         7.10816
     2015.51266         7.63410         7.12521
     2015.51465        10.01593        10.39077
     2015.53456        10.34513        10.90093
     2015.53730        28.93876        11.58683
     2015.54004        34.11439        11.87404
     2015.54277        14.03201        11.53830
     2015.54551        14.65564        11.49240
     2015.54825        18.44727        11.42683
     2015.55099        16.11090        11.89371
     2015.55373         1.29953        11.82420
     2015.55646        31.53516        11.96846
     2015.55920        24.28279        11.77043
     2015.56194        21.60742        11.61830
     2015.56468        16.10505        11.60519
     2015.56741        26.89567        11.87535
     2015.57015        29.46630        11.69699
     2015.57289         9.26793        11.77961
     2015.57563        15.86256        11.57240
     2015.57837        17.33019        11.62748
     2015.58110        15.31782        11.61306
     2015.58384        21.75745        11.66027
     2015.58658        17.42108        11.76519
     2015.58932         6.90071        12.28191
     2015.59168        12.68541        11.87404
     2015.60938        46.63728        42.63061
     2015.61122        21.85974        11.83076
     2015.61344        24.42812        14.61370
     2015.62569        34.57478        23.01497
     2015.62765        22.93151        11.63404
     2015.63039        15.85714        11.87797
     2015.63312         8.44577        11.89896
     2015.63586        31.81840        11.83076
     2015.63860        12.06603        12.33436
     2015.64134        19.18065        11.70748
     2015.64407        20.96428        11.81240
     2015.64681        19.15191        12.77108
     2015.64955        21.98554        11.70617
     2015.65229        16.16417        11.77043
     2015.65480        32.92325        12.71207
     2015.67271        28.68561        37.42407
     2015.67410        18.22197        12.30813
     2015.68874        17.81742        28.09166
     2015.69062        21.03997        11.65896
     2015.69336         7.80660        12.68715
     2015.69609        14.32123        11.75338
     2015.69883        20.96586        11.92125
     2015.70157        28.23949        11.85961
     2015.70431        30.27412        11.95797
     2015.70705        26.25975        11.64715
     2015.70933        31.31627        13.38485
     2015.72974         6.98869        21.42547
     2015.73169        10.72941        11.76256
     2015.73442        -0.88096        12.12584
     2015.73716         3.61467        11.66289
     2015.73990        18.31029        11.93699
     2015.74264        22.00792        11.83469
     2015.74538        20.99455        11.82027
     2015.74811        14.31718        11.99338
     2015.75085        15.59381        11.66027
     2015.75359        13.03844        11.54093
     2015.75633        15.55607        11.58158
     2015.75906        18.57870        11.69961
     2015.76180         7.77133        11.68650
     2015.76454        18.95095        11.82945
     2015.76728        11.69958        11.69830
     2015.77002        11.28321        11.58552
     2015.77275        11.32584        11.78092
     2015.77549        14.07047        12.30813
     2015.77823        20.58910        11.64584
     2015.78097        -3.26727        11.72847
     2015.78371        11.30836        11.77830
     2015.78644        20.87799        11.53437
     2015.78918        13.03161        11.56191
     2015.79192        19.47824        11.58552
     2015.79466        20.20787        11.64715
     2015.79739        25.08250        11.82420
     2015.80013        28.80413        12.49961
     2015.80287         9.27676        11.54748
     2015.80561        24.27939        11.71535
     2015.80835         9.50102        11.70092
     2015.81108        15.64465        11.65633
     2015.81382        13.33527        11.69043
     2015.81656         5.99090        11.78092
     2015.81930        20.49953        11.66945
     2015.82203        21.27616        11.62486
     2015.82477        22.19579        11.62879
     2015.82751        39.08342        11.80978
     2015.83025        16.70905        11.82814
     2015.83299         1.18468        12.17699
     2015.83572        10.68431        11.88715
     2015.83846        14.38793        12.21371
     2015.84120        23.86656        12.96387
     2015.84394        23.75619        13.06223
     2015.84565         0.73333        33.02934
     2015.87490        23.81216        17.50417
     2015.87679        20.26974        12.85633
     2015.87953        26.73837        13.14879
     2015.88227        28.00500        12.71207
     2015.88501         0.93363        13.07534
     2015.88774         8.49725        12.77239
     2015.89048        19.41288        12.92977
     2015.89322        30.48551        12.77108
     2015.89596        20.84414        12.76321
     2015.89869        25.81077        12.59272
     2015.90143        15.71540        12.64387
     2015.90417        14.06403        12.66223
     2015.90691        15.26766        12.90879
     2015.90965        21.45729        12.95469
     2015.91238        21.33391        12.83797
     2015.91512        15.17854        12.65305
     2015.91910         6.77118        29.77428
     2015.92060        12.37180         7.25636
     2015.92214        19.10253        22.26743
     2015.93249         6.05561        13.58682
     2015.93429        23.84595         7.57242
     2015.93702         9.76357         7.54226
     2015.93976        11.88120         7.50816
     2015.94250        22.81483         7.42947
     2015.94524        15.35746         7.34291
     2015.94798        13.96909         7.35865
     2015.95071        22.44072         7.21046
     2015.95345        12.66635         7.21046
     2015.95619        11.40598         7.20259
     2015.95893        15.70760         7.36783
     2015.96167         6.50423         7.26685
     2015.96383         8.43348         9.64979
     2015.97085         7.31647        12.61633
     2015.97262         9.24175         7.17373
     2015.97535        18.20338        10.95995
     2015.97809        14.81601        11.07535
     2015.98077        10.20150         7.32062
     2015.99006        11.21099        14.07075
     2015.99178         5.34315         7.15275
     2015.99452         2.66278         7.11210
     2015.99726         4.30041         7.33373
     2016.00000         0.65304         7.22226
     2016.00273        -0.91133         7.15406
     2016.00547        -2.37370         7.20783
     2016.00821         2.26692         7.13308
     2016.01095         8.30255         7.17898
     2016.01368         5.79318         7.25636
     2016.01642        14.35781         7.41898
     2016.01916        28.48744         7.85963
     2016.02190         5.27907         7.41767
     2016.02464         7.22670         7.18816
     2016.02737         5.92633         7.13964
     2016.03011         7.32296         7.11603
     2016.03285         1.00358         7.13570
     2016.03559        10.70021         7.05701
     2016.03833         9.27484         7.21832
     2016.04106        11.33647         7.03996
     2016.04380         5.10210         7.16587
     2016.04654        15.84573         7.25636
     2016.04928        10.17636         7.05046
     2016.05201        13.31899         7.03078
     2016.05475        -0.18238         7.05046
     2016.05749         3.01024         7.12259
     2016.06023        10.80787         7.19210
     2016.06297        12.30450         7.06619
     2016.06570         5.99813         7.18947
     2016.06844         1.28576         7.20521
     2016.07118         1.09839         7.21308
     2016.07392        10.95702         7.26554
     2016.07666         8.79865         7.31013
     2016.07939        10.24528         7.17898
     2016.08213        11.33290         7.47668
     2016.08487         4.71253         7.21701
     2016.08761        -1.89184         7.16718
     2016.09034        -0.04521         7.15669
     2016.09308         5.34642         7.09636
     2016.09582         1.15005         7.11472
     2016.09856        -6.66032         7.17767
     2016.10130        -2.39369         7.16193
     2016.10403        -4.48906         7.16849
     2016.10677        -6.50244         7.12128
     2016.10951         0.74719         7.11603
     2016.11225        -1.77818         7.13308
     2016.11498        -1.21155         7.26029
     2016.11772        -7.74592         7.36521
     2016.12046         2.31471         7.20259
     2016.12320        -2.14466         7.48849
     2016.12594        -0.25503         7.25111
     2016.12867         8.88460         7.22882
     2016.13141        18.86022         7.29439
     2016.13415         1.86985         7.20783
     2016.13689        -3.56952         7.21439
     2016.13963         2.14311         7.14751
     2016.14236         3.34474         7.16587
     2016.14510        -2.18963         7.13439
     2016.14784        -1.45900         7.12914
     2016.15023        -0.93520         8.22160
     2016.19008        -5.41974        20.07859
     2016.19164         5.45006         7.07144
     2016.19438        10.49169         7.03865
     2016.19712         1.00232         7.00980
     2016.19986        11.69495         7.24849
     2016.20260        -7.57542         7.21832
     2016.20533        -1.68080         7.28127
     2016.20807         5.39083         7.41373
     2016.21081        -3.64354         7.14357
     2016.21355         0.38709         7.18160
     2016.21629         1.24372         7.03734
     2016.21902         0.63235         7.13046
     2016.22176        16.82798         7.13570
     2016.22450         1.43661         7.07931
     2016.22724         2.78224         6.99931
     2016.22997        13.03386         7.08324
     2016.23271        -0.30351         7.04652
     2016.23545         3.11312         7.01898
     2016.23819         0.24275         7.14882
     2016.24093        14.47138         7.16455
     2016.24366         8.63901         7.04128
     2016.24640         6.27364         7.05833
     2016.24914         0.20027         7.15931
     2016.25188         7.17490         7.05308
     2016.25462         0.97052         7.14882
     2016.25735        -1.75885         7.47931
     2016.26009        -1.92422         7.11865
     2016.26283        -8.31359         7.10685
     2016.26557         0.70704         7.14488
     2016.26830         0.34567         7.06751
     2016.27104         6.99930         7.07144
     2016.27378        11.86593         7.15537
     2016.27652         1.67756         7.10423
     2016.27926        12.11618         7.11734
     2016.28199         8.07781         7.14619
     2016.28473        13.51644         7.17505
     2016.28747         5.63907         7.07800
     2016.29021        -6.22030         7.14619
     2016.29295         1.94833         7.09898
     2016.29568         2.57096         7.09505
     2016.29842         4.65859         7.21832
     2016.30116         2.40322         7.25505
     2016.30390        -8.88916         7.15406
     2016.30663         7.45247         7.18029
     2016.30937         8.58510         7.13046
     2016.31211         9.40873         7.11472
     2016.31485         9.54636         7.09767
     2016.31759         8.05299         7.18685
     2016.32032        -0.07338         7.11472
     2016.32306        -0.47675         7.10029
     2016.32580         3.49988         7.08849
     2016.32854         6.77750         7.13308
     2016.33002         0.86509        29.92247
     2016.35446       -11.75874        26.67790
     2016.35592         4.20579         7.11734
     2016.35865        -1.68158         7.10685
     2016.36139         1.79005         7.12652
     2016.36413        -1.15932         7.08193
     2016.36687        -1.56569         7.09505
     2016.36961        17.27994         7.28914
     2016.54571         0.31633        13.24715
     2016.54757         8.49281         7.13439
     2016.55030        10.58644         7.32193
     2016.55304         5.34507         7.13964
     2016.55578        11.21670         7.24324
     2016.55852         0.73233         7.36521
     2016.56125        12.68896         7.15406
     2016.56399         6.84259         7.15013
     2016.56673        15.80222         7.28127
     2016.56947         7.64085         7.27865
     2016.57221        12.51347         7.31275
     2016.57494        11.70210         7.41373
     2016.57768        15.20573         7.18029
     2016.58042        15.91136         7.16980
     2016.58316         9.61099         7.08455
     2016.58590         6.66662         7.10292
     2016.58863         8.05325         7.15537
     2016.59137         5.20288         7.12914
     2016.59411        16.03951         7.10554
     2016.59685        16.72013         7.15669
     2016.59958         6.62976         7.38357
     2016.60232         8.96339         7.11865
     2016.60506         9.99702         7.24062
     2016.60780        14.21865         7.11996
     2016.61054        12.38528         7.04521
     2016.61327         8.60791         7.14882
     2016.61601         6.79954         7.12128
     2016.61875         1.62417         7.18029
     2016.62149        15.63879         7.17505
     2016.62423        14.71242         7.18685
     2016.62696        13.04605         7.08980
     2016.62970         7.80468         7.14619
     2016.63244         7.36631         7.32980
     2016.63518         7.03694         7.14619
     2016.63791        21.24757         7.05964
     2016.64065        22.99520         7.10292
     2016.64339        13.19383         7.13439
     2016.64613         8.57245         7.11472
     2016.64887         4.04308         7.04521
     2016.65160        13.61271         7.07800
     2016.65434        14.09834         7.06488
     2016.65708        10.15797         7.06751
     2016.65982         6.31560         7.18816
     2016.66256         7.90123         7.08455
     2016.66529        10.34586         7.07537
     2016.66803        11.91149         7.23144
     2016.67077         8.45111         7.39144
     2016.67351        22.88974         7.21046
     2016.67624        14.19737         7.03210
     2016.67898        18.51100         7.21308
     2016.68172        18.30863         7.05833
     2016.68446        27.89026         7.41111
     2016.68720        12.45189         7.62750
     2016.68993         6.50552         7.19472
     2016.69267         6.38915         7.04914
     2016.69541         9.67877         7.03865
     2016.69815        19.85040         7.08980
     2016.70089        26.59903         7.50554
     2016.70362         3.24666         7.23669
     2016.70636        -3.77171         7.40718
     2016.70910        -0.70408         7.39931
     2016.71184         5.28955         7.07275
     2016.71457        -2.58982         7.23931
     2016.71731         9.26181         7.32193
     2016.72005         3.16043         7.08324
     2016.72279         3.97806         7.01898
     2016.72553         6.53169         7.13570
     2016.72826         4.61932         7.18291
     2016.73100         3.88895         7.09636
     2016.73374        -3.91242         7.00587
     2016.73648        -3.85279         7.00980
     2016.73921        -0.55116         6.97964
     2016.74195         3.39447         6.98488
     2016.74469        -2.21691         7.08455
     2016.74743        -1.01028         7.13046
     2016.75017         4.74535         7.34291
     2016.75290        -2.46102         7.02685
     2016.75564         1.12761         6.94160
     2016.75838         6.37324         6.95210
     2016.76112         3.52087         6.95078
     2016.76386         2.80050         6.99013
     2016.76659        -3.59187         6.95210
     2016.76933        -4.19725         7.06226
     2016.77207        -5.21162         7.01636
     2016.77481        -2.87899         7.07800
     2016.77754         5.25964         7.07931
     2016.78028        -2.40873         7.01505
     2016.78302         2.09490         7.06619
     2016.78576        -7.63247         7.10554
     2016.78850         3.57516         7.03341
     2016.79123        -3.54221         7.14095
     2016.79397        18.55841         7.03603
     2016.79671         7.47904         6.97701
     2016.79945        -0.02333         6.94947
     2016.80219         0.25930         7.05570
     2016.80492        -2.52307         7.03341
     2016.80766         0.45056         7.10685
     2016.81040        -8.89481         7.00980
     2016.81314        -3.22018         7.04259
     2016.81587        -8.07356         6.97177
     2016.81861        -9.17693         7.01111
     2016.82135       -12.17430         7.03603
     2016.82409        -2.94867         7.09505
     2016.82683        -1.05004         6.92980
     2016.82956        -0.57041         7.01242
     2016.83230         1.86722         7.22226
     2016.83504        -1.97815         6.96259
     2016.83778        -0.31552         6.98357
     2016.84052        -6.12490         6.92062
     2016.84325        -3.63627         6.93898
     2016.84599        -2.14464         6.97308
     2016.84873         3.14999         7.08455
     2016.85147        -1.38038         7.11865
     2016.85420        -7.37275         7.01767
     2016.85694        -1.93412         7.00718
     2016.85968        -5.64749         7.14357
     2016.86242        -4.94586         7.06882
     2016.86516         0.38376         7.15537
     2016.86789         0.27439         7.07275
     2016.87063        -2.06498         7.14751
     2016.87337        -3.19835         7.02685
     2016.87611         0.79528         7.00849
     2016.87885        -0.17709         7.05046
     2016.88158       -11.82146         7.10160
     2016.88432        -3.34683         7.08324
     2016.88706        -6.95920         7.09505
     2016.88980         3.11842         7.05439
     2016.89253         2.14205         7.08718
     2016.89527        -4.26832         7.07669
     2016.89801         2.11531         7.10947
     2016.90075        -5.46106         7.13177
     2016.90349        -3.17043         7.19472
     2016.90622         6.96820         7.18816
     2016.90896         9.62983         6.99931
     2016.91170         3.28546         7.09636
     2016.91444        -4.44892         7.10160
     2016.91718        -1.40029         7.15800
     2016.91991        -4.46166         7.13177
     2016.92265        -1.80603         7.00980
     2016.92539        -9.10940         6.99275
     2016.92813       -12.01777         7.05308
     2016.93086        -5.80514         7.05439
     2016.93360        -4.48251         7.00193
     2016.93634        -5.44088         6.95210
     2016.93908       -10.94126         7.08718
     2016.94182        -8.66463         6.98619
     2016.94455        -3.06600         7.00587
     2016.94729        -3.57437         7.07406
     2016.95003        -2.11474         7.10685
     2016.95277        -1.29311         7.06882
     2016.95551       -15.97048         7.08193
     2016.95824        -8.12985         7.00324
     2016.96098        -4.91222         6.95341
     2016.96372       -12.83860         6.87865
     2016.96646       -11.39997         6.96652
     2016.96919       -12.00034         6.98882
     2016.97193        -8.74371         7.03996
     2016.97467        -2.36508         6.99537
     2016.97741         1.14555         6.99800
     2016.98015        -2.11082         6.96259
     2016.98288        -2.94219         6.93505
     2016.98562        -9.15956         6.93111
     2016.98836        -5.50694         7.00193
     2016.99110        -7.20531         6.97046
     2016.99384        -4.89068         7.00324
     2016.99657       -13.69905         7.00718
     2016.99931        -2.58342         6.93111
     2017.00205        -0.48579         6.99144
     2017.00479        -3.89116         6.94029
     2017.00752       -11.56653         6.94554
     2017.01026        -8.33690         6.90751
     2017.01300        -6.22428         6.95210
     2017.01574        -6.65265         6.95078
     2017.01848        -9.56202         6.92587
     2017.02121        -6.13539         6.93636
     2017.02395        -8.79176         7.01767
     2017.02669       -10.36113         6.99406
     2017.02943        -5.22150         6.89964
     2017.03216        -9.36687         6.93505
     2017.03490        -7.66024         6.93111
     2017.03764       -13.42762         6.96390
     2017.04038       -11.15899         7.00193
     2017.04312        -7.98436         6.94947
     2017.04585        -5.68973         7.16980
     2017.04859         4.43690         7.22882
     2017.05133         7.46853         6.98357
     2017.05407         2.73416         6.97701
     2017.05681         4.11879         6.96128
     2017.05954        -7.37658         6.99537
     2017.06228        -0.95196         6.99144
     2017.06502        -6.20033         6.90619
     2017.06776       -10.58770         7.00062
     2017.07049       -10.70207         6.97308
     2017.07323       -14.35544         7.00193
     2017.07597       -14.17581         6.94423
     2017.07871       -12.89618         6.92980
     2017.08145        -9.53455         7.55537
     2017.08413       -16.20006         7.88717
     2017.08692       -14.50230        10.59273
     2017.08995        14.53202        80.17796
     2017.09325        -7.70997        11.30748
     2017.09514       -14.58341         6.98488
     2017.09787       -19.15378         6.98488
     2017.10061        -7.68115         7.03734
     2017.10335       -17.68752         9.27340
     2017.10609       -19.58389        23.91201
     2017.10888       -12.50913         9.99208
     2017.11156       -17.59664        10.84454
     2017.11436       -17.05487         7.18685
     2017.11704       -17.67238         7.32062
     2017.11978       -17.51375         7.01505
     2017.12251       -15.39012         8.73176
     2017.12525       -17.44349        21.41497
     2017.12799        -3.31486        12.47338
     2017.13056       -15.93265        18.72909
     2017.13267        -5.81354        15.22222
     2017.13649        -4.45029        13.10944
     2017.13900        -8.82521        37.90538
     2017.14168       -11.71972        10.02749
     2017.14442        -8.78209         8.58094
     2017.14715        -6.57346        10.28978
     2017.14984       -13.01697        17.41631
     2017.15223       -12.45517        21.40186
     2017.15446        -5.71578        27.02675
     2017.15845        -0.52112         8.27406
     2017.16084        -8.46432         7.05439
     2017.16358       -17.11569         7.02029
     2017.16632       -11.19106         6.99537
     2017.16906        -8.48343         7.05964
     2017.17180       -14.22580         7.04783
     2017.17453        -8.38517         7.05439
     2017.17727        -0.36354         7.14226
     2017.18001       -12.17891         7.02423
     2017.18275       -22.70028         7.12914
     2017.18822       -16.45303         7.20783
     2017.19096       -14.80740         7.05833
     2017.19370       -19.95577         7.13832
     2017.19644        -8.98814         7.03734
     2017.19917        -8.18451         7.03734
     2017.20191       -11.92088         7.03603
     2017.20465       -14.96725         7.45963
     2017.20739       -11.15962         7.01636
     2017.21013       -13.75100         7.17373
     2017.21286       -16.23337         7.14095
     2017.21560       -12.23974         6.99669
     2017.21834        -9.56211         7.05833
     2017.22108        -1.52148         7.14751
     2017.22381        -6.07585         7.23669
     2017.22655        -8.47322         7.20652
     2017.22929        -7.11059         7.02160
     2017.23174        -4.88166         7.94881
     2017.23562       -12.09726        11.48716
     2017.23750       -13.00671         7.06751
     2017.24024        -4.30808         7.05701
     2017.24298       -14.05545         6.92193
     2017.24572        -7.19182         6.93636
     2017.24846       -12.54519         6.95865
     2017.25119        -3.85856         7.14488
     2017.25393        -9.38493         7.02423
     2017.25667       -11.07131         7.05439
     2017.25941       -13.81468         6.92587
     2017.26214       -17.50505         7.08324
     2017.26488        -7.32742         7.24455
     2017.26762        -8.62679         7.17111
     2017.27036        -4.69516         7.06226
     2017.27310       -11.88153         7.08062
     2017.27583        -9.87790         7.00849
     2017.27857       -21.51727         7.06751
     2017.28131       -15.54465         7.14619
     2017.28405       -19.43602         7.09111
     2017.28679        -9.76139         7.04390
     2017.28952       -11.75476         6.99537
     2017.29226        -5.72813         7.03472
     2017.29500       -18.63050         7.06619
     2017.29774       -12.00287         7.06751
     2017.30047       -16.97424         6.98095
     2017.30321       -14.01261         7.00062
     2017.30595       -16.69799         7.03996
     2017.30869       -12.75736         7.12914
     2017.31143        -6.40773         7.04783
     2017.31416       -15.62710         7.05046
     2017.31690        -4.44347         7.04652
     2017.31964        -6.94484         7.18685
     2017.32238       -10.11921         7.18029
     2017.32512       -14.69858         7.03210
     2017.32785        -9.09195         7.10816
     2017.33059       -16.50733         7.10685
     2017.33333       -16.18770         7.02554
     2017.33607       -17.83707         7.03341
     2017.33880       -21.80844         7.01505
     2017.34154       -11.40281         7.24324
     2017.34428       -15.24418         7.12390
     2017.34702       -14.44555         7.05570
     2017.34976       -14.33792         6.95865
     2017.35249       -17.37929         7.03341
     2017.35523       -17.45367         6.97570
     2017.35797       -21.67504         7.11078
     2017.36071       -15.38241         7.19865
     2017.36344       -15.74978         7.02423
     2017.36618       -16.28015         7.03865
     2017.36892       -12.44752         6.99144
     2017.37166       -11.85789         7.03472
     2017.37440       -18.81426         6.98226
     2017.37713       -14.07863         7.06095
     2017.37987       -16.19801         7.05046
     2017.38261       -16.24338         7.03996
     2017.38535       -22.95275         7.02292
     2017.38809       -19.80412         7.05177
     2017.39082       -14.53449         6.97046
     2017.39356        -6.95286         7.15406
     2017.39630       -11.06123         7.02423
     2017.39904       -15.76360         7.02160
     2017.40177       -18.88697         7.01111
     2017.40451       -13.15635         7.30882
     2017.40725       -10.31372         6.96915
     2017.40999       -12.80809         6.99144
     2017.41273       -14.01346         7.12390
     2017.41546        -7.62883         7.27209
     2017.41820       -18.45520         7.28521
     2017.42094       -13.80357         7.03603
     2017.42368       -11.61894         7.12259
     2017.42642        -8.44531         7.15406
     2017.42915       -15.25369         7.01374
     2017.43189       -14.55406         7.24718
     2017.43463        -9.29143         7.09767
     2017.43737        -7.06780         7.26423
     2017.44010        -7.12917         7.03341
     2017.44284        -7.63954         7.03603
     2017.44558        -7.80491         7.03472
     2017.44832       -10.43328         6.95341
     2017.45106        -1.21765         7.02554
     2017.45379        -1.91503         7.14226
     2017.45653       -14.98940         7.29439
     2017.45927        -6.65477         7.11734
     2017.46201       -12.21514         7.00324
     2017.46475       -13.30251         7.04128
     2017.46748         1.72912         7.24062
     2017.47022       -21.91325         7.26029
     2017.47296        -3.15762         7.25767
     2017.47570       -14.53099         7.04390
     2017.47843       -11.79437         7.06488
     2017.48117       -13.46874         7.05964
     2017.48391        -7.94611         7.19341
     2017.48665        -1.26548         7.25373
     2017.48939        -2.32085         7.19865
     2017.49212        -5.33422         7.08849
     2017.49486       -13.08859         7.09505
     2017.49760       -12.50796         7.04914
     2017.50034        -4.37233         7.19341
     2017.50308        -1.86071         7.02816
     2017.50581       -11.87208         7.11865
     2017.50855        -8.23945         7.08980
     2017.51129        -7.00382         7.15800
     2017.51403       -14.02919         7.04390
     2017.51676        -8.84656         6.99931
     2017.51950        -4.24793         7.12128
     2017.52224        -0.78230         7.36259
     2017.52498        -3.32167         7.16587
     2017.52772        -7.46905         7.17898
     2017.53045        -3.34242         7.01374
     2017.53319        -1.41479         7.24980
     2017.53593        -1.30416         7.20914
     2017.53867        -2.65353         7.33505
     2017.54141        15.19310         7.12914
     2017.54414        -4.09027         7.05833
     2017.54688         1.42036         7.11603
     2017.54962         0.77099         7.10554
     2017.55236        -5.67339         7.16324
     2017.55509         3.87324         7.08455
     2017.55783        -5.11313         7.03865
     2017.56057        -2.91950         7.02423
     2017.56331         0.96413         7.12783
     2017.56605        -1.75724         7.18554
     2017.56878        -9.43561         7.12521
     2017.57152        -3.11798         7.19472
     2017.57426        -9.79235         7.08980
     2017.57700        -3.89273         7.15144
     2017.57974        -0.83710         7.20783
     2017.58247        -7.44847         7.15800
     2017.58521        -6.55884         7.12259
     2017.58795       -10.02421         7.25636
     2017.59069        -5.61358         7.31668
     2017.59342        -3.00895         7.11734
     2017.59616        -0.35432         7.13439
     2017.59890        -0.66369         6.98488
     2017.60164        -9.61707         7.13439
     2017.60438       -13.39344         7.16062
     2017.60711        -6.44981         7.19996
     2017.60985       -15.60118         7.31668
     2017.61259        -2.50255         7.10160
     2017.61533         1.11008         7.20128
     2017.61807        -0.49229         7.26423
     2017.62080        -1.98966         7.13832
     2017.62354         1.92497         7.09636
     2017.62628         4.56859         7.23800
     2017.62902         7.17122         7.37701
     2017.63175         5.38285         7.04390
     2017.63449       -15.08152         7.12259
     2017.63723        -5.36689         7.06882
     2017.63997        -3.08926         7.10292
     2017.64271        -1.04463         7.01505
     2017.64544        -0.35300         7.17242
     2017.64818        -3.03837         7.24455
     2017.65092        -6.41175         7.17242
     2017.65366        -2.26412         7.05046
     2017.65639        -3.79949         7.11472
     2017.65913        -6.26986         7.12783
     2017.66187         0.36777         7.23013
     2017.66461         7.35740         7.25636
     2017.66735        -2.88097         7.28652
     2017.67008         6.82166         7.02423
     2017.67282         3.95429         7.23275
     2017.67556        -0.88309         7.07669
     2017.67830        -6.87246         7.00587
     2017.68104        -5.60183         7.07144
     2017.68377         6.87080         7.19210
     2017.68651         6.34143         7.27341
     2017.68925         6.01506         7.03078
     2017.69199         0.28769         7.14226
     2017.69472         3.64032         7.02423
     2017.69746         4.47394         7.15669
     2017.70020         9.99957         7.42160
     2017.70294         0.60320         7.37177
     2017.70568        -3.47217         7.16193
     2017.70841        -3.35454         6.92718
     2017.71115        -8.68791         7.10685
     2017.71389         2.60972         6.99800
     2017.71663         8.51835         7.02685
     2017.71937         1.07998         6.97308
     2017.72210        -2.11040         6.94816
     2017.72484        -0.73977         6.95210
     2017.72758        -0.43114         6.95078
     2017.73032         2.67749         6.97308
     2017.73305         2.49312         6.96128
     2017.73579        -3.06525         6.90751
     2017.73853        -5.62162         6.99406
     2017.74127        -3.04299         6.93767
     2017.74401         0.66964         6.97177
     2017.74674         1.96626         7.02947
     2017.74948         3.76189         7.03996
     2017.75222         1.47152         6.96390
     2017.75496        -1.01485         6.95734
     2017.75770        -8.09322         7.15537
     2017.76043        -4.39659         6.96128
     2017.76317        -0.81096         6.99275
     2017.76591         2.03367         7.07669
     2017.76865         7.28430         7.18423
     2017.77138        -2.39908         6.96390
     2017.77412        -1.56745         6.99144
     2017.77686         0.17018         7.03341
     2017.77960         4.70281         7.06226
     2017.78234        -4.22156         7.07537
     2017.78507        -3.97393         6.94685
     2017.78781        -7.51430         6.97046
     2017.79055        -3.41467         6.91013
     2017.79329        -1.66904         6.96783
     2017.79603         3.61758         7.05308
     2017.79876        -3.13979         7.14619
     2017.80150        10.11784         7.12128
     2017.80424         6.67747         6.94423
     2017.80698       -10.56890         7.10160
     2017.80971        -8.41027         7.16062
     2017.81245        -7.85864         6.95603
     2017.81519        -6.42401         7.00324
     2017.81793        -6.03438         7.08193
     2017.82067        -8.12776         7.14357
     2017.82340        -4.39013         7.01898
     2017.82614        -0.28450         7.01374
     2017.82888        -5.16787         6.96259
     2017.83162        -0.83424         6.99669
     2017.83436        -6.49861         7.12914
     2017.83709        -2.90898         7.25373
     2017.84257        -5.87172         7.00456
     2017.84531        -6.22210         6.99013
     2017.84804       -10.51747         6.97833
     2017.85078        -8.74784         7.00587
     2017.85352        -6.06721         7.09505
     2017.85626        -2.88458         7.24062
     2017.85900        -4.84495         7.10160
     2017.86173        -0.76332         7.09636
     2017.86447        -3.78769         7.22095
     2017.86603        10.95608        24.15726
     2017.90925         7.31772        12.50223
     2017.91102        -8.37500         7.15669
     2017.91375        -2.06237         7.15931
     2017.91649         1.51026         6.96915
     2017.91923        -0.63112         7.04390
     2017.92197        -3.14649         7.00193
     2017.92470        -2.73186         6.98488
     2017.92744        -9.08123         7.04128
     2017.93018        -9.51460         7.05439
     2017.93292       -10.18597         6.97701
     2017.93566        -9.00934         6.96521
     2017.93839        -6.69171         6.98357
     2017.94113        -9.58108         6.99931
     2017.94387        -3.36146         7.06882
     2017.94661        -0.58483         6.99669
     2017.94935        -9.23520         7.04914
     2017.95208        -9.49857         7.19865
     2017.95482        -7.08794         6.97046
     2017.95756        -2.95631         6.99669
     2017.96030         0.09732         7.01767
     2017.96303         1.28195         7.33373
     2017.96577        -2.21242         7.21177
     2017.96851        -7.53780         7.00718
     2017.97125        -4.07417         6.96128
     2017.97399        -1.29054         6.98619
     2017.97672       -11.93191         6.96783
     2017.97946        -7.27828         7.01242
     2017.98220        -5.26065         6.98751
     2017.98494        -8.54602         6.96390
     2017.98767       -13.61439         6.98751
     2017.99041       -10.70576         6.95997
     2017.99315       -14.22614         7.08587
     2017.99589       -23.88051         7.18423
     2017.99863        -6.24788         7.05308
     2018.00136       -13.62525         6.99013
     2018.00410       -13.60962         6.98619
     2018.00684       -12.36699         7.05308
     2018.00958       -13.98236         7.07931
     2018.01232        -7.94673         7.05439
     2018.01505        -2.47810         6.98751
     2018.01779         0.18252         6.98226
     2018.02053        -7.66885         7.04521
     2018.02327        -3.68422         7.03472
     2018.02600        -5.59559         7.15669
     2018.02874        -5.94396         7.04521
     2018.03148        -9.91733         6.99931
     2018.03422        -7.23670         6.99013
     2018.03696       -15.82207         6.94423
     2018.03969       -16.22344         7.06751
     2018.04243       -14.99782         7.05177
     2018.04517       -12.73019         7.00062
     2018.04791       -12.13256         7.03865
     2018.05065        -6.66393         7.08324
     2018.05338        -5.33630         7.00324
     2018.05612       -11.51267         7.05046
     2018.05886        -9.17604         7.06751
     2018.06160        -5.91241         7.03472
     2018.06433        -8.97678         7.26554
     2018.06707        -5.68916         7.20390
     2018.06981       -10.01953         7.21570
     2018.07255        -8.85490         7.22750
     2018.07529       -16.45827         7.29701
     2018.07802       -16.57164         7.24193
     2018.08076       -29.85101         7.32324
     2018.08350       -18.49638         7.17373
     2018.08624       -15.09275         7.30488
     2018.08898       -12.22112         7.19210
     2018.09171       -16.16650         7.28914
     2018.09445       -12.21287         7.12521
     2018.09719       -11.05724         7.37439
     2018.09993        -3.09161         7.15144
     2018.10266       -20.09398         7.16324
     2018.10540       -25.51035         7.59734
     2018.10814       -21.84472         7.20914
     2018.11088        -4.97309         7.14357
     2018.11362        -7.33946         7.08980
     2018.11635       -11.14884         7.11734
     2018.11909       -11.68121         7.32586
     2018.12183        -8.42658         7.35865
     2018.12457        -6.03695         7.14619
     2018.12731       -12.50032         7.14488
     2018.13004        -8.85469         7.07406
     2018.13278        -7.14906         7.16980
     2018.13552        -2.15743         7.16193
     2018.13826        -6.51781         7.11865
     2018.14099        -8.93618         7.23013
     2018.14373        -5.60355         7.10816
     2018.14647        -5.77292         7.42029
     2018.14921        -2.79129         7.31931
     2018.15195        -1.35166         7.16062
     2018.15468        -6.10003         7.22882
     2018.15742        -4.14540         7.15406
     2018.16016        -4.67877         7.11341
     2018.16290        -9.49115         7.27472
     2018.16564        -6.26252         7.35996
     2018.16837        -7.40389         7.17767
     2018.17111        -4.56326         7.19996
     2018.17385        -7.76563         7.20652
     2018.17659        -9.86000         7.10816
     2018.17932        -4.20737         7.10292
     2018.18206        -5.30974         7.44652
     2018.18480       -17.13811         7.39144
     2018.18754        -8.55349         7.15275
     2018.19028       -12.51286         7.17111
     2018.19301        -7.02923         7.06226
     2018.19575        -4.46660         7.16587
     2018.19849        -5.40597         7.14357
     2018.20123        -1.65034         7.21046
     2018.20397        -3.98671         7.09373
     2018.20670        -3.15908         7.15669
     2018.20944         0.08955         7.01111
     2018.21218        -8.17383         7.16980
     2018.21492       -18.22720         7.09636
     2018.21765        -5.63557         7.01898
     2018.22039        -5.12894         6.95210
     2018.22313         1.76769         7.05308
     2018.22587       -11.09568         7.10947
     2018.22861       -10.52705         7.01505
     2018.23134        -4.00042         6.99144
     2018.23408        -9.55179         6.99144
     2018.23682       -20.60117         7.07275
     2018.23956       -10.14354         7.02423
     2018.24230       -10.98691         7.09636
     2018.24503        -1.09428         7.02554
     2018.24777        -6.18865         6.94423
     2018.25051       -17.42202         7.01242
     2018.25325        -6.88539         6.99275
     2018.25598        -7.41576         7.06751
     2018.25872        -8.95013         7.21439
     2018.26146        -7.16651         7.07669
     2018.26420       -11.95788         6.94685
     2018.26694       -14.67125         7.07537
     2018.26967       -20.29062         6.99144
     2018.27241       -13.92799         7.03996
     2018.27515        -4.79436         7.08849
     2018.27789         4.69027         7.14619
     2018.28062        -4.53810         7.16062
     2018.28336        -6.49847         6.94160
     2018.28610       -19.14485         7.03734
     2018.28884        -2.58622         7.03603
     2018.29158         4.33141         7.20914
     2018.29431        -6.03796         7.11734
     2018.29705        -9.29133         6.97308
     2018.29979       -15.11570         6.96915
     2018.30253       -11.15907         7.12128
     2018.30527        -6.41344         7.00849
     2018.30800        -9.21781         6.92980
     2018.31074       -10.17419         6.91275
     2018.31348        -8.13556         6.95472
     2018.31622       -11.62993         6.96783
     2018.31895       -10.90530         7.20390
     2018.32169        -6.23067         6.92456
     2018.32443        -9.45704         7.00587
     2018.32717        -7.69441         6.96783
     2018.32991        -8.77178         7.15144
     2018.33264       -10.48915         6.98882
     2018.33538       -12.62553         7.20390
     2018.33812        -5.82990         7.17111
     2018.34086       -12.28727         6.98357
     2018.34360       -13.33164         7.07275
     2018.34633       -15.50201         7.13832
     2018.34907       -15.81438         7.08980
     2018.35181         0.88825         7.07537
     2018.35455        -7.68312         7.02292
     2018.35728        -3.66749         6.96783
     2018.35882       -19.89177        24.77102
     2018.37708       -22.72057        10.53634
     2018.37919       -12.48046         7.02292
     2018.38193       -11.75083         7.04783
     2018.38466        -5.10921         7.04914
     2018.38740        -6.71358         7.09636
     2018.39014        -4.23995         7.04783
     2018.39288        -4.73732         7.05177
     2018.39561        -6.33969         7.06357
     2018.39835        -9.54206         7.10160
     2018.40109        -6.49743         7.07931
     2018.40383        -8.22780         7.05833
     2018.40657       -10.03817         7.09636
     2018.40930         1.33345         7.43865
     2018.41204        -4.05592         7.07537
     2018.41478       -10.15629         7.05308
     2018.41752       -17.37266         6.95865
     2018.42026       -15.96003         7.02423
     2018.42299        -3.69740         7.06488
     2018.42573        -4.03577         7.09636
     2018.42847        -4.63014         7.01898
     2018.43121        -4.99451         7.48324
     2018.43394        -8.33189         7.02816
     2018.43668        -6.08426         7.06882
     2018.43942        -2.44163         7.29701
     2018.44216        -9.99600         7.08324
     2018.44490        -9.64237         7.34685
     2018.44763       -10.97774         6.93636
     2018.45037        -2.33911         7.03865
     2018.45311         1.33652         7.40193
     2018.45585        -6.83385         7.04390
     2018.45859        -3.81223         7.01767
     2018.46132       -14.69160         6.95210
     2018.46406       -12.70997         6.90619
     2018.46680       -10.65934         6.93636
     2018.46954        -5.02871         7.05570
     2018.47227         3.92692         7.18685
     2018.47501        13.81155         7.16587
     2018.47775        -5.83582         6.94685
     2018.48049        -7.38119         7.00718
     2018.48323        -1.96357         7.11210
     2018.48596        -6.23394         6.99013
     2018.48870        -6.33031         7.00980
     2018.49144        -2.01868         7.05439
     2018.49418        -3.48005         7.16849
     2018.49692        -0.36642         7.31668
     2018.49965         0.42321         7.02292
     2018.50239         1.24184         7.60521
     2018.50513       -10.30153         6.92324
     2018.50787        -8.88591         7.05570
     2018.51060        -6.55428         7.06488
     2018.51334        -4.11965         7.08324
     2018.51608        -5.53102         7.10685
     2018.51882        -2.50339         6.98357
     2018.52156        -6.56976         7.00587
     2018.52429       -12.78213         7.06357
     2018.52703         5.68650        16.12844
     2018.52977        -5.09787         7.05439
     2018.53251        -3.25325         7.08455
     2018.53525        -2.57662         7.10554
     2018.53798        -3.85599         7.15931
     2018.54072        -5.33236         7.14357
     2018.54346        -3.01973         7.07669
     2018.54620         2.17990         7.51340
     2018.54893        -3.63947         7.07275
     2018.55167        -3.23284         7.07537
     2018.55441        -8.87222         6.96915
     2018.55715       -11.05359         7.00062
     2018.55989        -4.45096         7.10685
     2018.56262        -3.39533         7.10685
     2018.56536        -1.22070         7.47800
     2018.56810         1.57593         7.07144
     2018.57084        -1.50144         7.11603
     2018.57357        -4.97481         7.09505
     2018.57631        -4.81218         7.33373
     2018.57905        -0.70256         7.40980
     2018.58179        -2.33193         7.25898
     2018.58453         6.09670         7.48193
     2018.58726         0.76633         7.11341
     2018.59000        -6.57204         7.01111
     2018.59274         2.27159         7.05439
     2018.59548         1.24222         6.94685
     2018.59822         7.51985         7.11472
     2018.60095         0.69048         6.97308
     2018.60369         0.80810         7.02685
     2018.60643        -0.89227         7.02160
     2018.60917         0.13536         7.01505
     2018.61190        -0.42701         6.99669
     2018.61464         0.48662         7.00193
     2018.61738         3.70625         7.02029
     2018.62012         6.47788         6.99406
     2018.62286         4.32151         7.05964
     2018.62559         0.77914         7.13439
     2018.62833         0.22576         7.29701
     2018.63107         2.21339         6.99406
     2018.63381        -1.58698         7.27209
     2018.63655        -1.94635         6.95865
     2018.63928        -1.81272         7.33898
     2018.64202         1.00291         7.20390
     2018.64476        10.47154         7.03996
     2018.64750         7.25517         6.95603
     2018.65023         5.87980         7.25111
     2018.65297         8.63042         6.98619
     2018.65571        -2.85795         6.99537
     2018.65845        -4.42032         6.98619
     2018.66119         5.92831         7.09242
     2018.66392         3.59094         7.02423
     2018.66666         6.69457         6.94554
     2018.66940         3.92820         6.92980
     2018.67214        -0.83417         7.27996
     2018.67488         3.24646         6.88783
     2018.67761         1.16808         6.93505
     2018.68035        -1.33329         7.06226
     2018.68309        -1.56066         7.07669
     2018.68583         1.76897         7.03210
     2018.68856         8.07860         7.05177
     2018.69130         4.01023         6.98488
     2018.69404         1.39086         7.08849
     2018.69678         7.55249         7.18816
     2018.69952         3.57212         7.14751
     2018.70225        -6.42926         7.07275
     2018.70499         0.89837         7.18947
     2018.70773       -10.46900         7.13439
     2018.71047        -2.07537         7.02292
     2018.71321        -0.60974         7.02160
     2018.71594         0.34489         6.92193
     2018.71868         2.93152         7.05177
     2018.72142        -0.94785         6.97439
     2018.72416        -0.85522         7.22095
     2018.72689         1.27440         7.11472
     2018.72963        -2.30997         7.08980
     2018.73237        -2.03234         7.07800
     2018.73509        -0.95674         7.13964
     2018.73785        -2.17708         7.12783
     2018.74058        -9.38745         6.94160
     2018.74332         2.17618         7.02816
     2018.74606         2.71781         6.99406
     2018.74880         0.81844         6.91144
     2018.75154        -7.33094         6.94292
     2018.75427        -8.30431         7.06357
     2018.75701         3.08732         7.13701
     2018.75975        -3.63005         6.95210
     2018.76249         0.52858         6.93374
     2018.76522        -1.52679         7.19341
     2018.76796        -1.93416         6.91406
     2018.77070        -1.93253         6.95341
     2018.77344         4.23610         6.91013
     2018.77618         0.39972         6.92718
     2018.77891         6.59435         6.93898
     2018.78165        -4.46702         7.24193
     2018.78439        -2.76239         7.01636
     2018.78713        -4.88276         6.98619
     2018.78987        -8.16213         7.15537
     2018.79260        -3.85450         7.07275
     2018.79534         2.67913         6.99275
     2018.79808        -6.06224         7.07931
     2018.80082        -4.74462         7.04128
     2018.80355         2.87001         7.01636
     2018.80629         3.64264         7.14095
     2018.80903        -2.21873         7.16324
     2018.81177         0.54790         7.49898
     2018.81456         2.73367         7.23931
     2018.81724         2.06516         7.07669
     2018.81998         0.69279         6.98619
     2018.82272        -5.46658         7.02160
     2018.82546         6.30504         7.97242
     2018.82820         5.00367         6.98488
     2018.83093        -2.95270         6.89701
     2018.83367        -9.30407         7.02423
     2018.83641        -5.28844         7.19996
     2018.83915         2.43719         6.92849
     2018.84188        -2.26818         6.97177
     2018.84462         0.47745         6.97570
     2018.84736        -1.71192         7.19996
     2018.85010        -2.58330         6.97308
     2018.85284        -2.20467         6.92324
     2018.85557        -7.65704         6.97964
     2018.85831        -1.19641         6.94685
     2018.86105        -4.74078         6.90751
     2018.86379        -7.68215         7.10554
     2018.86653        -0.64652         6.93505
     2018.86926       -10.63989         6.98226
     2018.87200        -3.64926         7.04128
     2018.87474         0.34036         7.12783
     2018.87748        -2.08501         7.04652
     2018.88021        -1.68138         7.15275
     2018.88295        -3.05375         7.12390
     2018.88569        -6.00912         7.26423
     2018.88843         2.91951         7.38619
     2018.89117         5.52714         7.09636
     2018.89390        -1.25823         7.13177
     2018.89664        -4.99760         7.27734
     2018.89938        -2.78898         7.11865
     2018.90212         0.19565         7.09505
     2018.90485         6.31828         7.06619
     2018.90759         3.16191         7.24324
     2018.91033         2.41454         7.12521
     2018.91307         3.55417         7.22226
     2018.91581         5.18980         7.03078
     2018.91854        11.12843         7.05046
     2018.92128         3.31406         7.02685
     2018.92402         1.31268         7.09242
     2018.92676         1.86331         7.07931
     2018.92950         3.26094         7.06357
     2018.93223        -1.10343         7.26554
     2018.93497        -0.18080         7.08718
     2018.93771        -5.59517         7.12652
     2018.94045         1.72646         7.11865
     2018.94318         9.28909         7.08587
     2018.94592         5.31272         6.96259
     2018.94866        10.12234         6.92718
     2018.95140         4.12797         7.12914
     2018.95414         8.76460         7.23669
     2018.95687         4.24823         7.24324
     2018.95961         4.72186         6.95997
     2018.96235         4.28949         7.03734
     2018.96509        -3.63688         7.05439
     2018.96783         0.05475         6.95472
     2018.97056         3.44838         7.12783
     2018.97330         1.04800         7.00193
     2018.97604        -3.13837         7.13439
     2018.97878         2.26126         7.09242
     2018.98151        -4.10011         6.96915
     2018.98425         1.55352         7.12259
     2018.98699        -4.21285         7.27209
     2018.98973        -2.29122         7.49111
     2018.99247         0.38141         7.08324
     2018.99520         0.81703         7.22488
     2018.99794        -5.50634         7.20390
     2019.00068        -7.46871         7.25505
     2019.00338        -6.43916         7.26947
     2019.00616        -0.51145         6.99669
     2019.00889        -4.71482         7.04259
     2019.01163        -2.15519         7.03078
     2019.01437         0.34844         7.05833
     2019.01711        -2.94493         7.35078
     2019.01984        -3.59931         7.60783
     2019.02258        -2.82968         7.13046
     2019.02532        -0.01605         7.51996
     2019.02806        -7.22342         7.10292
     2019.03080        -3.22479         7.22619
     2019.03353        -9.68416         8.28979
     2019.03627       -12.53853         6.96390
     2019.03901        -2.10790         6.99669
     2019.04175        -4.32527         6.98226
     2019.04449         1.10135         7.17636
     2019.04722        -2.68202         7.14488
     2019.04996       -10.79939         7.06619
     2019.05270       -21.65776         7.91603
     2019.05544         1.12887         7.38095
     2019.05812        -2.08264         7.49767
     2019.06097        -3.65073         7.44390
     2019.06365         5.79376         7.10554
     2019.06639        -0.84161         7.10160
     2019.06913        -3.12599         7.42947
     2019.07186        -2.39636         7.12652
     2019.07460        -6.79473         6.92980
     2019.07734        -2.68210         7.06095
     2019.08008         0.46953         6.87865
     2019.08282        -3.32684         7.11603
     2019.08555         1.62779         6.92587
     2019.08829        -6.25258         6.89177
     2019.09103         3.91905         7.05439
     2019.09377         2.58667         6.91669
     2019.09650         2.13530         6.93242
     2019.09924         2.29893         6.91275
     2019.10198        -3.90044         6.99537
     2019.10472        -1.42181         6.90095
     2019.10746        -4.85018         6.97701
     2019.11019         1.94245         6.91931
     2019.11293         1.65308         7.06095
     2019.11567         1.62971         7.26816
     2019.11841         3.76833         6.94554
     2019.12115        12.84996         7.14882
     2019.12388         9.45459         7.11603
     2019.12662         8.09822         6.94292
     2019.12936         1.38085         6.94160
     2019.13210         1.07048         6.97046
     2019.13483        -0.31989         6.97570
     2019.13757         1.16274         7.03996
     2019.14031         5.04537         6.91538
     2019.14305         0.96599         6.92587
     2019.14579        -2.71838         6.94947
     2019.14852        -5.27975         6.96259
     2019.15126        -7.70512         6.93505
     2019.15400        -8.70149         6.92193
     2019.15674        -4.62986         6.90357
     2019.15948        -1.12723         6.93636
     2019.16221        -4.40460         7.12652
     2019.16495        -2.02197         6.88259
     2019.16769       -13.84135         6.90226
     2019.17043        -5.94872         6.86160
     2019.17316        -5.36209         6.92587
     2019.17590        -6.26946         7.39275
     2019.17864        -2.99283         6.98619
     2019.18138        -1.43920         7.00193
     2019.18412       -11.25557         6.92587
     2019.18685        -5.51394         6.94685
     2019.18959        -5.08131         6.95341
     2019.19233         1.45931         7.27996
     2019.19507        -0.69806         6.95865
     2019.19780        -6.09143         6.92718
     2019.20054        -9.77080         7.11078
     2019.20328       -11.83317         6.93898
     2019.20602       -12.95754         6.94423
     2019.20876       -11.26191         6.97701
     2019.21149        -9.23928         6.89964
     2019.21423       -11.91765         6.89570
     2019.21697        -2.72003         6.97570
     2019.21971        -3.53340         7.11210
     2019.22245        -5.91277         6.99144
     2019.22518        -6.86514         6.92062
     2019.22792       -15.52651         6.86685
     2019.23066       -10.65188         6.91538
     2019.23340        -9.21725         6.92193
     2019.23608       -10.73876         7.32586
     2019.23893       -12.78686         7.00062
     2019.24161       -11.61337         7.16587
     2019.24435       -12.87274         7.08980
     2019.24709        -3.76211         7.10423
     2019.24982        -4.80948         7.06619
     2019.25256        -9.33785         7.17898
     2019.25530        -5.58322         7.04783
     2019.25804        -2.14559         7.00849
     2019.26078         1.76104         7.01767
     2019.26351        -9.59733         7.13701
     2019.26625       -17.02271         6.95472
     2019.26899        -9.53908         7.03078
     2019.27173        -0.24745         7.24980
     2019.27446        -6.87582         6.95341
     2019.27720        -5.70119         7.07537
     2019.27994         4.36744         6.87734
     2019.28268        -5.57493         6.94947
     2019.28542        -4.75830         6.89570
     2019.28815        -6.14867         6.92718
     2019.29089        -2.23305         6.99537
     2019.29363        -5.36042         6.96390
     2019.29637        -0.82679         7.09767
     2019.29911         3.04184         7.05833
     2019.30184        -8.29753         6.92193
     2019.30458       -12.84390         7.02029
     2019.30732        -5.56427         6.95210
     2019.31006        -7.56764         7.20652
     2019.31279       -10.00901         7.10160
     2019.31553        -6.15239         7.04783
     2019.31827        -6.20176         6.96783
     2019.32101       -11.59913         7.07144
     2019.32375       -16.40850         7.00193
     2019.32648       -12.53087         6.94816
     2019.32922        -8.66524         6.96128
     2019.33196        -8.02461         7.12652
     2019.33470       -11.44698         7.11865
     2019.33744        -9.32535         7.01242
     2019.34017        -8.40773         7.01767
     2019.34291        -2.92610         7.04521
     2019.34565        -8.28247         7.25636
     2019.34839        -9.22184         7.04652
     2019.35112       -12.02821         7.04652
     2019.35386        -8.72758         6.92193
     2019.35660        -6.56195         7.06882
     2019.35934         5.50968         7.06357
     2019.36208         2.77731         6.95210
     2019.36481        -1.80407         7.35865
     2019.36755         1.01556         6.93636
     2019.37029        -5.03281         7.20652
     2019.37303        -5.25918         6.98357
     2019.37577        -6.88455         7.05046
     2019.37850        -4.43992         6.94292
     2019.38124        -1.03129         6.90619
     2019.38398         0.40534         6.97701
     2019.38672        -7.07703         7.01111
     2019.38937        -9.38860         7.21046
     2019.39219        -6.55778         8.49307
     2019.39493        -6.04215         6.92456
     2019.39767       -12.04252         7.03341
     2019.40041        -9.61989         6.91800
     2019.40314        -2.71126         6.99406
     2019.40588        -6.72963         7.16849
     2019.40862        -3.78400         7.11341
     2019.41136        -6.94237         7.05570
     2019.41410        -6.74775         7.00718
     2019.41683        -6.85312         6.97046
     2019.41957         3.25551         7.19472
     2019.42231        -4.87886         7.15406
     2019.42505         2.70677         7.09767
     2019.42778         3.77440         7.21701
     2019.43052        -1.88797         7.15275
     2019.43326        -6.47434         7.05046
     2019.43600       -16.45672         7.10423
     2019.43874        -8.16409         7.56718
     2019.44147       -12.80246         7.19472
     2019.44421        -1.31183         7.17242
     2019.44695         4.97180         7.38095
     2019.44969        -0.38857         7.22882
     2019.45243        -4.41094         7.24062
     2019.45516        -1.36531         7.30226
     2019.45790        -3.05568         7.21439
     2019.46064        -2.63606         7.19341
     2019.46338        -8.91843         7.72062
     2019.46611        -0.80980         7.59603
     2019.46885         4.44283         7.42947
     2019.47159        -0.21554         7.17242
     2019.47433         3.31109         7.23144
     2019.47707        -2.50728         7.17242
     2019.47980        -7.16865         7.21701
     2019.48254        -3.70302         7.31013
     2019.48528        -3.45240         7.37832
     2019.48802        -8.05177         7.53570
     2019.49076        -4.12914         7.06488
     2019.49349        -0.65451         7.05701
     2019.49623        -3.92888         7.28390
     2019.49897        -3.26125         7.13177
     2019.50171         2.21138         7.21964
     2019.50444        -4.58399         7.07669
     2019.50718        -7.44436         6.98226
     2019.50992        -3.81674         7.33898
     2019.51266        -6.24311         7.34554
     2019.51540         1.01552         7.11078
     2019.51813        -3.92485         7.06357
     2019.52087        -3.38122         7.03078
     2019.52361        -6.57559         7.08587
     2019.52635        -0.57496         7.25111
     2019.52908        -2.15933         7.60783
     2019.53182        -0.44270         7.47537
     2019.53456        -7.26708         7.73898
     2019.53730         1.26655         7.36259
     2019.54004         3.71218         7.37308
     2019.54277         0.25581         7.25767
     2019.54551        -3.08356         7.57898
     2019.54825         2.80607         7.03078
     2019.55099        -0.79430         7.11865
     2019.55373        -2.33967         7.22095
     2019.55646        -1.36404         7.19210
     2019.55920        -8.27542         7.43209
     2019.56194         0.95921         7.25767
     2019.56468        -4.66216         7.44259
     2019.56741         0.25047         7.22619
     2019.57015        -3.24190         7.10292
     2019.57289        -6.69327         7.28652
     2019.57563         8.87836         7.33242
     2019.57837        -2.46101         7.24980
     2019.58110         0.83962         7.17242
     2019.58384        -5.22576         7.55275
     2019.58658        -2.84913         7.31931
     2019.58932         2.02150         7.07931
     2019.59206         8.25513         7.19865
     2019.59479         4.59076         7.23406
     2019.59753        -0.87961         7.80062
     2019.60027         0.01402         7.38882
     2019.60301         1.69065         9.32585
     2019.60574         1.11628         7.51078
     2019.60848         8.02290         7.51472
     2019.61122         3.48153         7.05439
     2019.61396        -3.69084         7.28652
     2019.61670         0.67579         7.11603
     2019.61943         0.59542         7.30488
     2019.62211         1.26491         7.38750
     2019.62491        15.94268         7.09505
     2019.62765        13.91531         7.05570
     2019.63039         6.97494         7.16324
     2019.63312         0.88356         7.09373
     2019.63586         7.35319         7.05570
     2019.63860         2.84782         7.05308
     2019.64134         6.45045         7.22095
     2019.64407         8.13408         7.19078
     2019.64681        -7.50629         7.13308
     2019.64955         8.59034         7.33505
     2019.65229         6.75897         7.21832
     2019.65503        -2.92240         7.24193
     2019.65776         0.52722         7.25636
     2019.66050         2.16285         7.18816
     2019.66324        -2.60552         7.08455
     2019.66598         8.12311         7.05570
     2019.66872        10.88674         7.05570
     2019.67145         1.15437         7.09373
     2019.67419         2.24100         7.16062
     2019.67693         4.71163         7.25505
     2019.67967        -3.97974         7.39275
     2019.68240         5.83888         7.04390
     2019.68514         1.26051         7.05964
     2019.68788         8.19814         7.19210
     2019.69062         3.60577         7.17505
     2019.69336         0.73940         7.10816
     2019.69609         0.25903         6.99406
     2019.69883        -1.17134         7.06751
     2019.70157        10.83629         7.05833
     2019.70431         1.38492         7.07669
     2019.70705         7.22454         7.09898
     2019.70978         6.72217         7.01898
     2019.71252         0.95180         7.31406
     2019.71526         1.40943         7.01111
     2019.71800         0.55506         7.34160
     2019.72073        -1.55831         7.41898
     2019.72347         0.29532         7.07537
     2019.72621         5.27895         7.03734
     2019.72895         1.49058         7.05964
     2019.73169         1.42420         7.08324
     2019.73442         5.63683         7.11078
     2019.73716        11.44346         7.25898
     2019.73990         5.56909         7.39668
     2019.74264         1.88172         7.42947
     2019.74538        -1.12865         6.98226
     2019.74811         4.37198         7.11734
     2019.75085        -0.59139         7.53701
     2019.75359         0.41724         7.45701
     2019.75633         6.39686         7.27603
     2019.75906        13.38349         7.48193
     2019.76180        -2.38588         7.36259
     2019.76454         8.88675         7.14882
     2019.76728        -8.51262         7.71144
     2019.77002        -3.05699         7.59340
     2019.77275        -2.40536         7.30226
     2019.77549         0.10427         7.16849
     2019.77823         2.97190         7.21308
     2019.78097         5.08252         7.23013
     2019.78371        -2.36485         7.26554
     2019.78644         0.29378         7.28914
     2019.78918        -0.87259         7.19078
     2019.79192         5.83504         7.31800
     2019.79466        10.89267         7.21701
     2019.79739         7.75930         7.19210
     2019.80013         4.29593         7.15406
     2019.80287        -1.63544         7.16193
     2019.80561        -0.84682         7.19734
     2019.80835        -4.13119         7.18554
     2019.81108         1.22544         7.20521
     2019.81382         0.99207         7.18947
     2019.81656        -9.19330         7.47668
     2019.81930        -2.37567         7.12259
     2019.82203        -0.11604         7.12390
     2019.82477         1.96559         7.16849
     2019.82751        -2.24578         7.13308
     2019.83025        -4.07216         7.53570
     2019.83299        -5.26553         7.28914
     2019.83572        -1.77990         7.11472
     2019.83846         2.19073         7.19865
     2019.84120        14.34936         7.26291
     2019.84394         0.61999         7.38619
     2019.84668        -7.67338         7.23144
     2019.84941        -0.75275         7.20914
     2019.85215         0.71188         7.11734
     2019.85489         7.17350         7.21439
     2019.85763        -1.86287         7.23144
     2019.86036        -0.10424         7.41111
     2019.86310         2.54139         7.25242
     2019.86584         5.65802         7.35341
     2019.86858         5.80465         7.16324
     2019.87132         4.22928         7.32980
     2019.87405         1.89091         7.31800
     2019.87679         5.35453         7.38750
     2019.87953         7.58716         7.16718
     2019.88227         9.08479         7.33505
     2019.88501         7.10042         7.15931
     2019.88774         6.84905         7.35996
     2019.89048        12.11168         7.10685
     2019.89322         6.96331         7.20521
     2019.89596         3.82994         7.19472
     2019.89869        12.67357         7.21964
     2019.90143         9.42619         7.14226
     2019.90417         8.92482         7.14488
     2019.90691         4.06345         7.16193
     2019.90965         2.76708         7.17505
     2019.91238         5.66571         7.15669
     2019.91512         7.73834         7.18685
     2019.91786        10.15297         7.15275
     2019.92060        10.68560         7.16193
     2019.92334         5.51323         7.19210
     2019.92607         4.69685         7.19996
     2019.92881        -1.97752         7.20783
     2019.93155         2.77911         7.24062
     2019.93429         5.38474         7.15144
     2019.93702         4.25037         7.20128
     2019.93976         4.49500         7.16718
     2019.94250         4.73263         7.22882
     2019.94524        -7.78674         7.20521
     2019.94798        -7.01011         7.18160
     2019.95071         4.35951         7.49767
     2019.95345        10.01514         7.20390
     2019.95619         6.13577         7.20390
     2019.95893        -0.46260         7.19210
     2019.96167         2.35003         7.22488
     2019.96440         6.33266         7.32193
     2019.96714         3.68629         7.48324
     2019.96988        -2.90808         7.22357
     2019.97262         5.72355         7.26947
     2019.97535         6.47717         7.21439
     2019.97809        -1.10320         7.19078
     2019.98083        -0.83157         7.15275
     2019.98357         2.15206         7.14095
     2019.98631         2.38669         7.15669
     2019.98904         0.69232         7.19603
     2019.99178         2.83095         7.21046
     2019.99452        -0.92842         7.21046
     2019.99726         6.29221         7.14751
     2020.00000         8.47783         7.18685
     2020.00273         7.89446         7.23931
     2020.00547         6.03009         7.32324
     2020.00821        -2.71728         7.43865
     2020.01095         5.31535         7.34554
     2020.01368        -7.65802         7.43209
     2020.01642        -4.72539         7.35734
     2020.01916        -8.22976         7.13439
     2020.02190         5.10087         7.29439
     2020.02464        -3.63151         7.31275
     2020.02737        -3.51988         7.14488
     2020.03011         0.63475         7.37964
     2020.03285        -8.42362         7.18947
     2020.03559        -4.58399         6.96783
     2020.03833        -1.77836         7.02816
     2020.04106        -2.85373         7.18291
     2020.04380         5.33890         7.20128
     2020.04654         5.57953         6.99537
     2020.04928        -3.46085         6.95472
     2020.05201        -2.85322         7.00456
     2020.05475         5.32341         7.01898
     2020.05749         0.62804         7.05701
     2020.06023         2.34067         6.96652
     2020.06291         0.68116         7.22095
     2020.06570         1.50693         7.00587
     2020.06844         6.40256         6.97308
     2020.07118         6.76719         7.04128
     2020.07392         5.88681         7.03865
     2020.07666         0.00644         7.13832
     2020.07939        -2.22493         6.99144
     2020.08213        -0.31730         7.01242
     2020.08487        -9.85967         7.03734
     2020.08761        -4.91304         6.98488
     2020.09034         6.25259         6.96652
     2020.09308         3.24822         6.94423
     2020.09582         0.50585         6.96652
     2020.09856         1.19447         6.97177
     2020.10130        -6.47390         6.93505
     2020.10403        -5.34627         7.06751
     2020.10677        -1.69564         6.96128
     2020.10951        -1.15301         7.16849
     2020.11225        -1.05838         6.92456
     2020.11498         1.19925         6.98357
     2020.11772        -4.89012         7.16587
     2020.12046        -9.51549         7.18423
     2020.12320         0.75913         6.94029
     2020.12594        -7.32724         6.97701
     2020.12867        -3.45261         6.94160
     2020.13141        -4.89898         7.14357
     2020.13415        -7.95535         7.11078
     2020.13689        -3.17972         7.18947
     2020.13963         2.47691         7.13046
     2020.14236         0.49554         6.93767
     2020.14510         2.32117         7.05046
     2020.14784       -14.25021         7.07931
     2020.15058        -7.51658         6.98882
     2020.15331        -9.09495         6.95341
     2020.15605        -9.45732         7.01242
     2020.15879         1.18931         7.01636
     2020.16153        -9.31606         7.05046
     2020.16427         0.11257         7.01111
     2020.16700         1.15120         7.01636
     2020.16974         4.22583         7.00587
     2020.17248        -2.30455         7.03865
     2020.17522        -2.21592         7.11210
     2020.17796        -6.66729         7.09636
     2020.18075        -6.60052         7.18160
     2020.18343         2.74297         6.93505
     2020.18617        -5.55440         6.92193
     2020.18891        -1.14177         7.08193
     2020.19164        -1.36314         7.16324
     2020.19438       -13.14551         7.16980
     2020.19712        -4.37289         7.17373
     2020.19986        -3.54826         7.15931
     2020.20260        -2.94463         7.07931
     2020.20533        -2.72500         7.06751
     2020.20807        -4.95637         7.08980
     2020.21081       -10.37774         7.07013
     2020.21355        -6.19711         7.64324
     2020.21629        -4.59948         7.42291
     2020.21902        -4.74385         7.25636
     2020.22176        -1.11423         7.06357
     2020.22450        -1.61360         7.16324
     2020.22724        -3.36997         7.18029
     2020.22997         3.18166         7.16062
     2020.23271         3.30629         7.08324
     2020.23545         4.00492         7.06357
     2020.23819        -3.06345         7.04259
     2020.24093        -1.35682         7.27209
     2020.24366        -5.38719         7.18423
     2020.24640       -10.65357         7.07537
     2020.24914       -12.40694         7.05570
     2020.25188        -3.30531         7.05701
     2020.25462        -6.49368         7.22488
     2020.25735        -1.00805         7.29177
     2020.26009        -2.11042         7.10816
     2020.26283         0.14521         7.15537
     2020.26557        -2.26216         7.11603
     2020.26830        -4.49353         7.07931
     2020.27104        -3.07191         7.13964
     2020.27378        -9.02328         7.13701
     2020.27652       -15.31765         7.14226
     2020.27926        -3.21302         7.76258
     2020.28199        -1.38339         7.14751
     2020.28473        -7.23176         7.09898
     2020.28747       -10.32013         7.12128
     2020.29021        -7.94150         7.11472
     2020.29295        -7.77487         7.10554
     2020.29568        -0.18525         7.08849
     2020.29842         9.84238         7.16980
     2020.30116        -2.99199         7.07800
     2020.30390        -4.63636         7.12128
     2020.30663        -3.24873         7.19078
     2020.30937       -13.45410         7.33636
     2020.31211        -4.18847         7.30882
     2020.31485        -2.12984         7.18947
     2020.31759        -7.18822         7.14488
     2020.32032        -2.51859         7.01505
     2020.32306        -6.67496         7.22619
     2020.32580        -5.80733         6.99275
     2020.32854        -9.18570         7.15013
     2020.33128        -7.48507         6.96652
     2020.33401        -6.17044         7.00849
     2020.33675        -1.01081         7.27734
     2020.33949         1.11082         7.31800
     2020.34223        -1.61656         7.14619
     2020.34496        -7.85193         7.18160
     2020.34770       -14.42930         7.10292
     2020.35044        -8.95067         7.11472
     2020.35318       -10.61104         7.09111
     2020.35592        -7.25141         7.08455
     2020.35865        -2.89778         6.94816
     2020.36139        -2.35215         7.40062
     2020.36413         5.00948         7.03472
     2020.36687        -5.15690         7.15931
     2020.36961        -7.44127         7.24980
     2020.37234        -2.95164         7.07537
     2020.37508        -5.76001         6.99275
     2020.37782        -1.13438         7.07669
     2020.38056        -7.15875         7.14751
     2020.38329        -6.35112         7.15275
     2020.38603         0.28051         7.03734
     2020.38877         4.38114         7.26423
     2020.39151        -0.82024         6.94029
     2020.39425        -6.77561         7.08849
     2020.39698       -10.11898         7.12259
     2020.39972        -6.11735         7.16062
     2020.40246         1.32428         7.16718
     2020.40520       -10.88709         7.54619
     2020.40794        -6.49946         7.26423
     2020.41067        -0.37583         7.21177
     2020.41341        -4.49220         7.40849
     2020.41615        -5.88958         7.18685
     2020.41889        -2.67895         7.34947
     2020.42162       -11.85332         7.09373
     2020.42436         0.99631         7.56455
     2020.42710        -1.67406         7.50291
     2020.42984        -2.13443         7.52521
     2020.43258         0.43420         7.13964
     2020.43531        -1.66417         7.32849
     2020.43805        -2.55154         7.21832
     2020.44079       -10.02292         7.26554
     2020.44353        -3.08029         7.28783
     2020.44621        -6.51478         7.22226
     2020.44900         4.11397         7.30095
     2020.45174         0.29660         7.16718
     2020.45448        -9.23677         7.11865
     2020.45722        -8.22014         6.99669
     2020.45995        -4.15651         6.94423
     2020.46269       -10.93688         7.04259
     2020.46543        -7.84026         7.08193
     2020.46817        -4.12563         7.08849
     2020.47091        -2.31300         7.36914
     2020.47364        -5.17337         7.13701
     2020.47638        -3.96174         6.96915
     2020.47912         1.50389         7.07275
     2020.48186        -3.80848         7.34291
     2020.48459       -10.45085         7.17242
     2020.48733         2.81478         7.36390
     2020.49007         4.45440         7.42291
     2020.49281        -3.33297         7.55931
     2020.49555        -1.75034         7.15275
     2020.49828         3.23129         7.24849
     2020.50102        -8.28008         7.13570
     2020.50376        -6.87145         7.07537
     2020.50650        -6.38482         7.13701
     2020.50924        -2.75219         7.31537
     2020.51197        -3.48356         7.19341
     2020.51471        -0.72094         7.03341
     2020.51745        -5.96231         7.18947
     2020.52019         0.87732         7.28259
     2020.52292         5.49895         7.38882
     2020.52566        -6.00842         7.27472
     2020.52840        -6.56979         7.30619
     2020.53114         5.32484         7.44259
     2020.53388         0.80247         7.20128
     2020.53661        -1.45690         7.21177
     2020.53935        -2.46428         7.23013
     2020.54209        -7.43665         7.65898
     2020.54483        -7.30902         7.58554
     2020.54757         4.63161         7.29701
     2020.55030         0.59824         7.34685
     2020.55304        -1.48413         7.28652
     2020.55578         1.35150         8.40652
     2020.55852         8.62013         7.34291
     2020.56125         2.65576         7.46357
     2020.56399         5.38338         7.26947
     2020.56673        -3.66899         7.41111
     2020.56947        -2.59536         7.27996
     2020.57221        -4.48173         7.45439
     2020.57494         0.06090         7.25898
     2020.57768         2.65953         7.20128
     2020.58042        -1.01884         7.33505
     2020.58316        -8.04421         7.31013
     2020.58590         4.62542         7.42947
     2020.58863         1.99704         7.36521
     2020.59137         3.88367         7.31013
     2020.59409         1.55524         7.47406
     2020.59685        14.94893         7.59865
     2020.59958        -2.40144         7.51340
     2020.60232        -0.41481         7.29046
     2020.60506         5.29482         7.23669
     2020.60780         7.85145         7.17505
     2020.61054         3.32508         7.26816
     2020.61327         1.99970         7.47275
     2020.61601        -4.62467         7.27472
     2020.61875         0.09796         7.44127
     2020.75838         2.26603         7.19996
     2020.76123         7.36894         7.42816
     2020.76386         1.00429         7.59734
     2020.76659         5.46592         7.24980
     2020.76933         4.91855         7.38095
     2020.77207        12.77618         7.19472
     2020.77481         8.49081         7.22226
     2020.77754         9.95644         7.17111
     2020.78028         2.64807         7.40455
     2020.78302        -3.63531         7.22357
     2020.78576        -2.72568         7.22226
     2020.78847         2.51988         7.17242
     2020.79123         8.50658         7.06751
     2020.79397         9.49121         7.32718
     2020.79671         5.06384         7.16849
     2020.79945         3.26347         7.14488
     2020.80219        -0.38290         7.31406
     2020.80492        -0.28127         7.01505
     2020.80766         4.33535         7.26554
     2020.81040         1.65898         7.18554
     2020.81314         3.71161         7.06488
     2020.81587         2.75724         7.08062
     2020.81861         2.28787         7.04390
     2020.82132         8.42643         7.59996
     2020.82409        11.24613         7.34816
     2020.82683         5.46576         7.18160
     2020.82956         3.11539         7.24062
     2020.83230         8.34301         7.32718
     2020.83504         4.42064         7.29046
     2020.83778         4.92127         7.09242
     2020.84052         8.78490         7.07144
     2020.84325        -0.88547         7.29701
     2020.84599         0.95116         7.32849
     2020.84873         6.47979         7.39275
     2020.85147        10.18742         7.30882
     2020.85420        16.88505         7.10554
     2020.85694        12.51567         7.27209
     2020.85968        16.73329         7.16455
     2020.86242        11.94393         8.51406
     2020.86515        11.07354         8.77897
     2020.86795         7.87433         7.68127
     2020.87063         6.62082         7.45570
     2020.87336         5.81644         7.26291
     2020.87611         7.30408         7.48718
     2020.87885         8.17271         7.58554
     2020.88158         1.60633         8.06553
     2020.88432         5.93896         7.71144
     2020.88706         3.38259         7.57767
     2020.88980         1.33222         7.37439
     2020.90349        11.86337         7.23669
     2020.90622         5.14299         7.24324
     2020.90896         4.77562         7.38750
     2020.91170         6.91125         7.56324
     2020.91444         7.43188         7.42423
     2020.91718         8.49551         7.33767
     2020.91991         0.13214         7.23931
     2020.92265         0.19977         7.30750
     2020.92539        -0.92660         7.22882
     2020.92813        -3.56997         7.25373
     2020.93086         3.38265         7.21570
     2020.93360         1.57328         7.25898
     2020.93634         9.69091         7.30619
     2020.93908         0.74254         7.56586
     2020.94182        -0.97883         7.26554
     2020.94455         3.05780         7.21570
     2020.94729         0.47743         7.26816
     2020.95003        -1.89294         7.33242
     2020.95277       -10.99331         7.28914
     2020.95551        -2.29069         7.33898
     2020.95824        -3.07906         7.37177
     2020.96098         1.84757         7.32849
     2020.96372         8.57520         7.26947
     2020.96646         2.54283         7.39931
     2021.27583        -1.85711         7.25111
     2021.27857         4.02252         7.36259
     2021.28131        -1.80585         7.33505
     2021.28405        -3.20722         7.31275
     2021.28679        -2.11959         7.33242
     2021.28952        -1.06496         7.32718
     2021.29226        -1.05133         7.31144
     2021.29500         2.10630         7.35472
     2021.29774        -6.30108         7.51603
     2021.30047        -3.90045         7.30095
     2021.30321         2.86918         7.32324
     2021.30595         9.63581         7.45308
     2021.30869        12.45244         7.57504
     2021.31143         7.38807         7.21046
     2021.31416        14.85170         7.14619
     2021.31690         4.83533         7.24980
     2021.31964         4.30296         7.38882
     2021.32238         3.53258         7.35472
     2021.32512        -9.63879         7.20914
     2021.32785         4.02084         7.19472
     2021.33059         3.68847         7.25505
     2021.33333         9.37510         7.30750
     2021.33607        -4.23227         7.19341
     2021.33880         1.89436         7.24718
     2021.34154         1.07199         7.26423
     2021.34428        -2.20538         7.37964
     2021.34702        -5.77976         7.31931
     2021.34976         4.67287         7.37701
     2021.35249        -3.78050         7.22095
     2021.35523        -1.68487         7.29308
     2021.35797        -2.04924         7.23144
     2021.36071        -6.19061         7.27078
     2021.36344        -8.75198         7.29308
     2021.36618        -4.99835         7.27734
     2021.36892        -5.23272         7.42816
     2021.37166        -2.69610         7.26685
     2021.37440         1.97853         7.25767
     2021.37713         1.49116         7.29439
     2021.37987         4.66679         7.48586
     2021.38261        -1.35458         7.71144
     2021.38535        -1.22595         7.46357
     2021.38809        -4.57032         7.41898
     2021.39082        -3.59669         7.26816
     2021.39356         4.26594         7.30750
     2021.39630         5.14556         7.39275
     2021.39904         1.07219         7.28127
     2021.40177        -2.29118         7.35865
     2021.40451        -3.48055         7.51472
     2021.40725        -4.25992         7.32718
     2021.40999         3.33571         7.36652
     2021.41273         1.03234         7.37832
     2021.41546        -0.61303         7.36652
     2021.41820        -7.89140         7.43078
     2021.42368         3.85485         7.47013
     2021.42642        -3.46452         7.64455
     2021.42915        -0.36889         7.46750
     2021.43189        -0.23926         7.48193
     2021.43463         4.06137         7.42554
     2021.43737        -6.56500         7.43865
     2021.44010        -5.19437         7.56455
     2021.44284        -5.41174         7.45963
     2021.44558        -4.36412         7.48849
     2021.44832         2.69451         7.52521
     2021.45106         1.31514         7.63406
     2021.45379         6.89477         7.68914
     2021.45653         2.94840         7.64455
     2021.45927         7.68203         7.35996
     2021.46201        -1.76534         7.35341
     2021.46475         8.45129         7.38488
     2021.46748        -4.22508         7.71144
     2021.47022         5.44554         7.49898
     2021.47296        24.32617         7.56193
     2021.47570         1.65980         7.84783
     2021.47843         0.59143         7.61308
     2021.48117        -6.99794         7.62357
     2021.48391        -8.09831         7.45439
     2021.48665        -0.89768         7.41242
     2021.48939        -4.49005         7.43865
     2021.49212        -9.53142         7.42423
     2021.49486        -1.31880         7.74553
     2021.49760         5.83483         7.77570
     2021.50034         2.37446         7.64455
     2021.50308         3.15609         7.77308
     2021.50855        -1.53765         7.80455
     2021.51129        -0.56502         7.47537
     2021.51403         4.45661         7.57111
     2021.51950         6.83386         7.48849
     2021.52224        -2.64651         7.40062
     2021.53045         5.20238         7.34816
     2021.53319         0.42901         7.56849
     2021.53867        11.01727         7.97766
     2021.54414         0.25352         7.44390
     2021.54688        -4.44785         7.30750
     2021.54962        -6.82222         7.27996
     2021.55236        11.21141         7.58029
     2021.55509         5.55104         7.40718
     2021.55783         5.57267         7.39931
     2021.56057        -1.59770         7.24718
     2021.56331         9.51393         7.29308
     2021.56605         8.88056         7.32324
     2021.56878        -1.39082         7.32849
     2021.57152         1.12281         7.28127
     2021.57426         1.98544         7.50160
     2021.57700         3.41707         7.68390
     2021.57974        11.10070         7.31668
     2021.58247        -5.30167         7.41767
     2021.58521        -0.65804         7.37439
     2021.58795        -6.07941         7.45832
     2021.59069         4.16822         7.55799
     2021.59342        -3.36216         7.39800
     2021.59616        10.81547         7.70094
     2021.59890         5.88310         7.38226
     2021.60164         3.04273         7.66291
     2021.60438        -9.84164         7.44390
     2021.60711         7.96599         7.38226
     2021.60985        11.96762         7.30750
     2021.61259        12.81125         7.40849
     2021.61533         1.00587         7.26554
     2021.61807        -0.52150         7.44652
     2021.62080         6.33113         7.40193
     2021.62354         8.22376         7.48586
     2021.62628         2.32739         7.49767
     2021.62902        10.39102         7.29177
     2021.63175         8.44065         7.40193
     2021.63449         3.84928         7.35996
     2021.63723        11.96391         7.75734
     2021.63997         5.95053         7.45832
     2021.64544         4.08479         7.26685
     2021.64818         1.44942         7.21964
     2021.65092         5.41105         7.24718
     2021.65366        20.01068         7.40849
     2021.65639        14.06831         7.24718
     2021.65913        -1.75106         7.26816
     2021.66187         1.37857         7.24849
     2021.66461         1.95219         7.43078
     2021.66735        10.50282         7.38226
     2021.67008         5.62645         7.58947
     2021.67282         3.31608         7.71406
     2021.67556         6.69371         7.72717
     2021.67830        10.01234         7.51996
     2021.68104         6.71997         7.36127
     2021.68377        13.81260         7.36914
     2021.68651         1.97023         7.35209
     2021.68925        -8.63515         7.42423
     2021.69199         5.45548         7.39275
     2021.69472         6.42011         7.63406
     2021.69746         4.22574         7.39406
     2021.70020         5.81937         7.46226
     2021.70294         5.04700         7.43865
     2021.70568         6.05763         7.27472
     2021.70841        14.22526         7.47800
     2021.71115        10.21289         7.38619
     2021.71389        11.51651         7.45177
     2021.71663         3.58914         7.75865
     2021.71937        12.31577         7.37177
     2021.72210        -0.05260         7.30488
     2021.72484         0.68803         7.29832
     2021.72758         6.02666         7.36914
     2021.73032         2.94629         7.72586
     2021.73305         7.62292         7.24980
     2021.73579        11.56455         7.48455
     2021.73853         8.85717         7.25242
     2021.74127         8.60080         7.43472
     2021.74401        10.13943         7.34816
     2021.74674        10.00506         7.35734
     2021.74948         8.19469         7.29046
     2021.75222         5.20732         7.23800
     2021.75496         0.83795         7.28652
     2021.75770         8.31458         7.38357
     2021.76043        14.67321         7.39013
     2021.76317         9.60283         7.30357
     2021.76591         5.87646         7.28914
     2021.76865         5.47009         7.27734
     2021.77138        11.34972         7.28259
     2021.77412        18.39635         7.47013
     2021.77686         8.18598         7.26554
     2021.77960         9.69461         7.24587
     2021.78234         8.56624         7.22750
     2021.78507        13.97887         7.32324
     2021.78781        12.13049         7.26947
     2021.79055        12.58212         7.21701
     2021.79329         6.72975         7.19865
     2021.79603        13.02038         7.24587
     2021.79876         8.28901         7.47144
     2021.80150         5.06864         7.44521
     2021.80426        15.89231         7.56849
     2021.80698        11.40390         7.22488
     2021.80971        10.29053         7.36521
     2021.81245        22.36615         7.45308
     2021.81519        13.55878         7.25111
     2021.81793        14.19041         7.22226
     2021.82067         4.11104         7.54619
     2021.82340         9.40567         7.36390
     2021.82614        15.11630         7.39013
     2021.82888        11.32293         7.46226
     2021.83162         8.03356         7.42291
     2021.83436        10.11419         7.37832
     2021.83709         8.03181         7.35472
     2021.83983        -1.22256         7.38750
     2021.84257         9.55807         7.44652
     2021.84531         4.42870         7.53832
     2021.84804         3.74833         7.49111
     2021.85078         4.15496         7.49111
     2021.85352        15.24059         7.33111
     2021.85626        12.26222         7.28127
     2021.85900         4.14285         7.25373
     2021.86173         1.59547         7.32324
     2021.86447         7.38910         7.51865
     2021.86721         3.35973         7.74816
     2021.86995         9.36736         7.77439
     2021.87269        10.48999         7.44127
     2021.87542        -3.72938         7.67865
     2021.87816         5.76225         7.32718
     2021.88090         4.20188         7.39275
     2021.88364         8.45751         7.32980
     2021.88637         6.82113         7.22488
     2021.88911         0.07476         7.27996
     2021.89185        -0.85561         7.35078
     2021.89459         2.28302         7.49242
     2021.89733         4.84565         7.28783
     2021.90006        10.19728         7.40455
     2021.90280         5.21191         7.40586
     2021.90554         0.70754         7.41898
     2021.90828        12.24517         7.31800
     2021.91102         6.39179         7.53832
     2021.91375         1.13542         7.33767
     2021.91649         6.94405         7.24587
     2021.91923         7.59768         7.42029
     2021.92197         6.25431         7.65767
     2021.92470        -5.90206         7.44521
     2021.92744        -5.75243         7.53832
     2021.93018         4.12520         7.42029
     2021.93292        14.05483         7.54881
     2021.93566        12.38345         7.58554
     2021.93839        13.54908         7.54357
     2021.94113        15.39871         7.79012
     2021.94387        19.41734         7.34423
     2021.94661         3.98497         7.40718
     2021.94935        10.79960         7.38357
     2021.95208         4.61723         7.37177
     2021.95482        11.50986         7.58291
     2021.95756        14.81349         7.50422
     2021.96030         8.50911         7.63144
     2021.96303        14.13974         7.55931
     2021.96577         4.99437         7.58422
     2021.96851         0.54900         7.58554
     2021.97125         2.01263         7.61177
     2021.97399         1.56026         7.50685
     2021.97672         1.86989         7.58160
     2021.97946        19.74852         7.59734
     2021.98220        15.01115         7.55144
     2021.98494        19.06877         7.62226
     2021.98767        14.16140         7.52783
     2021.99041        19.16803         7.38226
     2021.99315        14.09366         7.39144
     2021.99589        21.93129         7.42029
     2021.99863        11.17092         7.42160
     2022.00136         9.23555         7.47406
     2022.00410         4.35118         7.37832
     2022.00684        -4.66519         7.43734
     2022.00958         0.06843         7.39537
     2022.01232        -6.63094         7.34029
     2022.01505         7.08369         7.29701
     2022.01779         8.21332         7.37045
     2022.02053        11.94495         7.37439
     2022.02327         4.61458         7.74816
     2022.02600        -3.72579         7.30882
     2022.02874         2.77084         7.39275
     2022.03148        -0.50153         7.39537
     2022.03422        -3.23191         7.38882
     2022.03696         2.08272         7.37045
     2022.03969        -6.09165         7.43996
     2022.04243         5.76298         7.41504
     2022.04517        -1.62939         7.36390
     2022.04791        -2.56276         7.45308
     2022.05065         3.43187         7.39668
     2022.05338         0.24450         7.41898
     2022.05612        -7.78288         7.34685
     2022.05886        -9.07325         7.40324
     2022.06160        -8.93362         7.36521
     2022.06433         3.56001         7.37570
     2022.06707        -6.75136         7.35472
     2022.06981         3.35027         7.42291
     2022.07255        -6.09610         7.21308
     2022.07529        -2.24047         7.24455
     2022.07802        -2.33384         7.19996
     2022.08076         7.78678         7.27734
     2022.08350         3.17441         7.28259
     2022.08624         7.29104         7.21832
     2022.08898         7.06567         7.19603
     2022.09171        -0.72970         7.18423
     2022.09445        -5.62007         7.20128
     2022.09719        -3.15244         7.28783
     2022.09993        -2.56081         7.39537
     2022.10266        -7.70918         7.32586
     2022.10540        -3.95056         7.35996
     2022.10814         8.02207         7.36127
     2022.11088         3.32970         7.23144
     2022.11362         8.17933         7.26554
     2022.11635         2.48796         7.20259
     2022.11909        -0.19541         7.15931
     2022.12183         5.47922         7.18947
     2022.12457         6.89385         7.42685
     2022.12731         3.11848         7.19210
     2022.13004        -1.05690         7.31275
     2022.13278         7.27073         7.19341
     2022.13552         1.78136         7.23537
     2022.13826       -11.57701         7.27341
     2022.14099         5.06762         7.16455
     2022.14373        -5.18175         7.21177
     2022.14647        -2.87512         7.16455
     2022.14921         4.14451         7.42160
     2022.15195         0.97514         7.46750
     2022.15468         3.85976         7.18291
     2022.15742         1.64639         7.20521
     2022.16016        -5.04898         7.41373
     2022.16290        -3.88635         7.29439
     2022.16564        -3.46672         7.18423
     2022.16837         0.60691         7.25111
     2022.17111         3.09954         7.19865
     2022.17385         0.43917         7.19734
     2022.17659         1.69180         7.17111
     2022.17932        -4.31558         7.22357
     2022.18206        -7.27095         7.18029
     2022.18480        -1.67232         7.22882
     2022.18754         2.58631         7.32849
     2022.19028        -0.71606         7.27209
     2022.19301        -0.58543         7.14095
     2022.19575         5.78920         7.22095
     2022.19849        -3.60617         7.16587
     2022.20123        -4.96754         7.20521
     2022.20397        14.22008         7.29570
     2022.20670         1.51371         7.31800
     2022.20944         0.06334         7.35078
     2022.21218         4.38297         7.23931
     2022.21492         1.20460         7.22882
     2022.21765         0.22523         7.22357
     2022.22039        -4.61914         7.26291
     2022.22313        -4.60851         7.25505
     2022.22587        -8.53688         7.53701
     2022.22861        -2.39826         7.41767
     2022.23134         8.82537         7.27603
     2022.23408         3.78200         7.25373
     2022.23682         1.25663         7.41242
     2022.23956         2.06626         7.22226
     2022.24230         0.36989         7.25636
     2022.24503         7.93552         7.24849
     2022.24777         7.63515         7.19734
     2022.25051         0.26678         7.30357
     2022.25325         2.25040         7.19865
     2022.25598        -0.11997         7.25767
     2022.25872        -9.76234         7.31668
     2022.26146        -2.70471         7.20521
     2022.26420         0.46692         7.22619
     2022.26694        -0.28645         7.31668
     2022.26967        -0.09882         7.35472
     2022.27241         3.03481         7.26291
     2022.27515         7.71444         7.34816
     2022.27789        10.23806         7.23144
     2022.28062         2.22269         7.19341
     2022.28336        -0.05268         7.15275
     2022.28610        -1.54205         7.26291
     2022.28884        -3.09442         7.35472
     2022.29158       -10.23879         7.25373
     2022.29431        -5.17316         7.23406
     2022.29705        -4.42253         7.18947
     2022.29979         2.28610         7.27603
     2022.30253        -2.90428         7.34291
     2022.30527        -0.56665         7.35209
     2022.30800         2.31498         7.23537
     2022.31074         1.86561         7.18947
     2022.31348        -2.06976         7.16062
     2022.31622        -7.72713         7.23800
     2022.31895       -21.84850         7.51996
     2022.32169        -4.01687         7.48849
     2022.32443         0.44576         7.29439
     2022.32717        -4.59662         7.22750
     2022.32991        -0.90299         7.21177
     2022.33264        -3.45536         7.35865
     2022.33538        -2.95973         7.57504
     2022.33812        -1.02510         7.50160
     2022.34086        -0.35847         7.27078
     2022.34360        -9.54484         7.40062
     2022.34633         2.16779         7.36390
     2022.34907        -0.57158         7.25636
     2022.35181         8.10804         7.18291
     2022.35455        -4.47233         7.24324
     2022.35728         3.29430         7.26423
     2022.36002         1.32693         7.18947
     2022.36276        -1.13544         7.30226
     2022.36550        -3.80181         7.25111
     2022.36824        -0.15118         7.19996
     2022.37097        -9.00455         7.39800
     2022.37371        -4.36692         7.26816
     2022.37645         2.79470         7.28259
     2022.37919        -5.42367         7.56849
     2022.38193        -1.17104         7.39800
     2022.38466        -3.10041         7.20390
     2022.38740       -11.89078         7.18685
     2022.39014        -4.08615         7.19603
     2022.39288         5.09948         7.29832
     2022.39561        -1.39789         7.31144
     2022.39835        -5.28226         7.21570
     2022.40109         4.74136         7.43734
     2022.40383         6.90799         7.21701
     2022.40657         0.99062         7.13308
     2022.40930        -7.10775         7.23800
     2022.41204        -4.52812         7.24849
     2022.41478       -10.82349         7.23669
     2022.41752        -4.35286         7.42423
     2022.42026         3.40477         7.44914
     2022.42299         7.81040         7.11603
     2022.42573         1.52602         7.15931
     2022.42847         0.50565         7.43078
     2022.43121       -12.87972         7.34947
     2022.43394         2.48291         7.32324
     2022.43668         4.31154         7.19472
     2022.43942        -0.30083         7.25505
     2022.44216        -4.98420         7.35341
     2022.44490         1.35243         7.35472
     2022.44763         5.41906         7.25242
     2022.45037        -0.03132         7.20521
     2022.45311        -4.82169         7.14619
     2022.45585        -6.79006         7.19210
     2022.45859        -8.27843         7.17373
     2022.46132         3.93920         7.60127
     2022.46406        -2.59217         7.37045
     2022.46680        -0.94254         7.15800
     2022.46954        -8.43591         7.19603
     2022.47227       -17.25828         7.19603
     2022.47501         1.35134         7.22750
     2022.47775         1.71197         7.52521
     2022.48049        -2.57740         7.18029
     2022.48323        -2.52277         7.32718
     2022.48596        -0.06614         7.23537
     2022.48870         0.28849         7.20783
     2022.49144         3.80512         7.26291
     2022.49418        -0.62625         7.42423
     2022.49692       -10.55363         7.18685
     2022.49965         0.61900         7.24718
     2022.50239        -5.68237         7.40718
     2022.50513        -4.24474         7.59603
     2022.50787         5.92589         7.48980
     2022.51060        -3.34648         7.40324
     2022.51334        -2.59885         7.34947
     2022.51608        -7.03422         7.34816
     2022.51882         1.34041         7.35209
     2022.52156         2.34103         7.24455
     2022.52429         2.42966         7.23669
     2022.52703         1.00329         7.14095
     2022.52977        10.70492         7.40980
     2022.53251         2.56255         7.31144
     2022.53525        -5.75582         7.51209
     2022.53798        -1.70819         7.37964
     2022.54072         4.10044         7.30750
     2022.54346         8.41307         7.27603
     2022.54620        15.95469         7.15406
     2022.54893         7.19632         7.19210
     2022.55167        11.51295         7.44914
     2022.55441         6.92458         7.19603
     2022.55715         9.29121         7.38226
     2022.55989         8.00784         7.18685
     2022.56262         0.04547         7.14357
     2022.56536        -1.11790         7.15800
     2022.56810        -1.78827         7.26816
     2022.57084        -4.59165         7.23931
     2022.57357         4.40198         7.43209
     2022.57631         6.51061         7.20128
     2022.57905         5.25724         7.11603
     2022.58179        12.82087         7.15275
     2022.58453        28.08250         7.57242
     2022.58726        15.52113         7.47537
     2022.59000        10.59876         7.32980
     2022.59274         1.65939         7.05046
     2022.59548         1.14701         7.42291
     2022.59822        -3.21736         7.07800
     2022.60095        -7.84873         7.06619
     2022.60369        11.08390         7.07144
     2022.60643         4.24953         7.17111
     2022.60917         4.26516         7.34554
     2022.61190        14.31979         7.55406
     2022.61464        18.52342         7.46488
     2022.61738         4.15405         7.14488
     2022.62012         1.91267         7.06488
     2022.62286        11.10730         7.10554
     2022.62559         4.86593         7.08062
     2022.62833         7.54656         7.14095
     2022.63107         9.60919         7.11865
     2022.63381        20.85482         7.26423
     2022.63655         9.72745         7.22750
     2022.63928         6.02208         7.33636
     2022.64202         7.16171         7.63013
     2022.64476        11.40133         7.64980
     2022.64750         8.39996         7.42685
     2022.65023        17.66959         7.39144
     2022.65297        17.70522         7.42029
     2022.65571        18.45585         7.49111
     2022.65845        15.48748         7.23013
     2022.66119        12.78111         7.11210
     2022.66392        11.48974         7.08062
     2022.66666        16.39237         7.24587
     2022.66940        13.82099         7.07669
     2022.67214        12.59362         7.05439
     2022.67488         9.46125         7.06095
     2022.67761        16.45688         6.97964
     2022.68035        18.17851         7.08587
     2022.68309        16.84514         7.18423
     2022.68583         4.93577         7.69701
     2022.68856        18.71240         7.18816
     2022.69130        14.89303         7.13439
     2022.69404        15.45765         7.17636
     2022.69678        17.95428         7.16849
     2022.69952         5.49191         7.20521
     2022.70225        19.76154         7.45045
     2022.70499        14.72117         7.39275
     2022.70773        15.15380         7.23275
     2022.71047        19.26343         7.18685
     2022.71321        21.14806         7.16980
     2022.71594        18.28669         7.15669
     2022.71868        15.80731         7.14751
     2022.72142        16.66994         7.15275
     2022.72416        25.06157         7.28652
     2022.72689        18.35420         7.28521
     2022.72963        22.83383         7.05570
     2022.73237        15.88046         7.02947
     2022.73511        12.69609         7.07800
     2022.73785        10.54072         7.04652
     2022.74058        16.07335         7.25505
     2022.74332        16.58797         7.47406
     2022.74606        16.63060         7.08980
     2022.74880        13.05923         7.06882
