# ================= DQRFIT RESULTS ================
# INPUT FILE: series/JERS.rad
# OUTPUT: LDETRENDED
# FILTER FUNCTION: f(t)
# f(t)=+line(t)+annual(t)
# line(t)=+P 1+P 2*t
# annual(t)=+P 3*sin(2*pi*t+P 4)
# heav(t)=(t<0?0:1)
# TOTAL OBSERVATIONS MTOT=  761
# INITIAL TIME INTERVAL= 2018.6938 - 2004.1369 = 14.5569
# TOTAL OBSERVATIONS AFTER PREFILTER M=  761
# TIME-SPAN= 2018.6938 - 2004.1369 = 14.5569
# OBSERVATIONS: USED M=   761 REJECTED MTOT-M=     0 %USED=  100.0000
# N=  4 PARAMETERS
# MAXSIG= 175.00000
# MAXRES=  20.92640
# SCALE FACTOR FOR LENGTHS: SCL=  10.00000
# SCALE FACTOR FOR SIGMAS: SCLSIG=   1.00000
# CHI^2=    732.075 DOF=   757 CHI^2/DOF=   0.96707
# RMS=      5.704 SDEV=      5.707 MEAN=    0.09936
#  P #       PARAMETER +-    SIGMA %error PARAMETER NAME
# P 1 =      -903.54225 +-   91.732  10.15 YZERO                              
# P 2 =         0.44963 +-    0.046  10.15 SLOPE                              
# P 3 =         4.14957 +-    0.340   8.20 ANNUAL AMPLITUDE                   
# P 4 =         1.79155 +-    0.020   1.11 ANNUAL PHASE                       
#       T            LDETRENDED       SIG_OBS
     2004.13690         5.99172         5.83746
     2004.13964         3.81248         5.65848
     2004.14237        11.70325         5.70863
     2004.14511         4.63802         5.72732
     2004.14785         2.27879         5.70667
     2004.15059         5.10856         5.77845
     2004.15332        -2.83567         5.82566
     2004.15606         4.27710         5.74305
     2004.15880         2.72887         5.72142
     2004.16154         8.27964         5.74403
     2004.16428         3.76841         5.78239
     2004.16701         5.76417         5.73027
     2004.16975        -0.49606         5.91810
     2004.17249         5.26471         5.95350
     2004.17523         5.74648         5.97513
     2004.17797        10.98525         5.83057
     2004.18070         2.53902         5.72830
     2004.18344        -2.44121         5.72338
     2004.18618         0.63056         5.95448
     2004.18892        10.92333         5.75190
     2004.19165         3.27810         5.72043
     2004.19439         8.94986         5.72437
     2004.19713         2.51163         5.73223
     2004.19987         2.29540         5.81386
     2004.20261         8.67417         5.80599
     2004.20534         1.99494         5.73715
     2004.20808         4.16271         6.05872
     2004.21082        -0.88552         6.04790
     2004.21356         2.29225         6.00464
     2004.21629         2.31402         5.97022
     2004.21903        -2.89022         5.96432
     2004.22177        -0.53445         5.94071
     2004.22451         5.75232         5.99185
     2004.22725         8.42509         6.03020
     2004.22998         1.49386         6.07937
     2004.23272        12.04763         6.08232
     2004.23546         0.09140         6.02627
     2004.23820        -1.35483         6.00660
     2004.24094        -0.38906         6.18165
     2004.24367         5.22371         5.94661
     2004.24641         7.55347         5.74993
     2004.24915        -0.07276         5.88564
     2004.25189        -3.17399         5.80796
     2004.25462        -0.36122         5.78829
     2004.25736         4.84555         5.75092
     2004.26010         6.77132         5.74502
     2004.42163         7.31069         5.62898
     2004.42437         6.70446         5.64668
     2004.42711         5.41223         5.57489
     2004.42985         0.91900         5.62996
     2004.43259         4.89576         5.69781
     2004.43532        10.70753         5.60931
     2004.43806        16.83530         5.58767
     2004.44080        12.29407         5.82664
     2004.44354        12.53884         5.76272
     2004.44627         7.00861         5.76370
     2004.44901         4.28038         5.74305
     2004.45175         2.20315         5.91416
     2004.45449         5.50492         5.85909
     2004.45723         0.50669         5.81189
     2004.45996         1.17845         5.88564
     2004.46270         3.25922         5.89744
     2004.46544         3.61899         5.73617
     2004.46818        11.95876         5.77157
     2004.47092         2.90153         5.77059
     2004.47365         5.53930         5.70765
     2004.47639         0.14007         5.83451
     2004.47913         1.43084         5.94071
     2004.48187         5.64761         5.96530
     2004.48460         2.45237         5.73518
     2004.48734         9.59214         5.80107
     2004.49008         5.84291         5.71257
     2004.49282        -0.60932         5.89056
     2004.49556         1.13545         5.81287
     2004.49829         4.05122         5.85418
     2004.50103         6.25199         5.75780
     2004.50377         6.43076         5.71257
     2004.50651        -0.55147         5.74698
     2004.50924         2.17330         5.73322
     2004.68994         4.03205         5.66831
     2004.69268        -6.11018         5.71355
     2004.69542        -1.74741         5.75584
     2004.69816        -0.76365         5.71650
     2004.70089         3.25912         5.92990
     2004.70363         1.07789         5.77649
     2004.70637         2.08266         5.72240
     2004.70911         7.87943         5.63488
     2004.71185         1.53620         5.77944
     2004.71458        -7.45603         5.87679
     2004.71732         4.46674         5.60439
     2004.72006         5.33951         5.59849
     2004.72280        -2.66273         5.57686
     2004.72554        -5.45596         5.61816
     2004.72827        -2.14019         5.59456
     2004.73101        -1.50342         5.66438
     2004.73375        -5.76465         5.63488
     2004.73649        -0.24088         5.57292
     2004.73922        -1.06011         5.62898
     2004.74196        -4.31434         5.67618
     2004.74470         2.74243         5.63586
     2004.74744        -2.29780         5.68306
     2004.75018        -4.78804         5.61128
     2004.75291        -0.97027         5.66143
     2004.75565        -0.51350         5.60242
     2004.75839         1.54627         5.63881
     2004.76113        -6.18796         5.63389
     2004.76387         1.25581         5.65946
     2004.76660         0.66958         5.57587
     2004.76934        -1.38165         5.77550
     2004.77208         4.47112         5.84729
     2004.77482         2.29389         5.72142
     2004.77755         4.62865         5.80697
     2004.78029         0.97342         5.76272
     2004.78303        -0.48781         5.80697
     2004.78577         0.19796         5.59357
     2004.78851         5.67873         5.67225
     2004.79124         0.70450         5.63586
     2004.79398         9.00527         5.61128
     2004.79672         1.59004         5.63979
     2004.79946         5.66581         5.62996
     2004.80220         7.40558         5.64176
     2004.80493         7.10834         5.64176
     2004.80767         3.24611         5.67421
     2004.81041        -0.82512         5.60242
     2004.81315        -1.73935         5.51982
     2004.81588         4.54742         5.52277
     2004.81862         5.02819         5.81976
     2004.82136         0.97796         5.67520
     2004.82410         5.96073         5.54637
     2004.82684        -4.18550         5.57784
     2004.82957         3.85126         5.70863
     2004.83231        14.22903         5.63389
     2004.83505        -2.74620         5.71945
     2004.83779         5.19357         5.57391
     2004.84052         3.41334         5.76075
     2004.84326         7.71811         5.55522
     2004.84600         4.64288         5.61816
     2004.84874         4.36565         5.62111
     2004.85148        -1.82858         5.68995
     2004.85421        -1.07281         5.92596
     2004.85695        -0.84005         5.69585
     2004.85969        -7.70628         5.64471
     2004.86243        -5.26851         5.62701
     2004.86517        -4.44874         5.56899
     2004.86790        -8.58197         5.52375
     2004.87064       -12.59420         5.52769
     2004.87338        -2.51443         5.53949
     2004.87612        -2.45266         5.57587
     2004.87885        -9.14189         5.61226
     2004.88159        -5.00612         5.65651
     2004.88433        -3.93036         5.85221
     2004.88707         2.76041         5.63586
     2004.88981         0.90418         5.62799
     2004.89254        -0.00005         5.70863
     2005.19097        -7.84923         5.69191
     2005.19371        -7.80246         5.79419
     2005.19645       -10.82369         5.74797
     2005.19918        -6.63592         5.76469
     2005.20192         2.06384         6.16100
     2005.20466         2.90461         5.79419
     2005.20740        -5.01462         5.96727
     2005.21013        -1.61585         6.01545
     2005.21287        -2.26208         5.66143
     2005.21561         5.80869         5.97317
     2005.21835        -1.16554         5.73027
     2005.22109        -0.51477         5.67716
     2005.22382        -3.62000         5.71355
     2005.22656        -0.85824         5.75879
     2005.22930         7.82753         5.96923
     2005.23204         8.34230         6.27310
     2005.23478         2.64407         6.04594
     2005.23751         1.61984         6.40685
     2005.24025         7.25261         6.00267
     2005.24299         4.92638         6.37931
     2005.24573         6.18615         6.76087
     2005.24846        -0.99208         6.36554
     2005.25120        -1.18031         6.34981
     2005.25394         8.78245         6.43340
     2005.25668         8.71322         6.79037
     2005.25942         9.03599         5.87188
     2005.26215        -0.97224         5.98792
     2005.26489         2.82053         5.93186
     2005.26763         6.19130         6.12658
     2005.27037         9.54007         6.09314
     2005.27311         5.60084         6.11379
     2005.27584        -1.25139         6.20722
     2005.27858        -0.56862         6.22098
     2005.28132         0.42114         6.08134
     2005.28406        -0.69009         6.38029
     2005.28679        -0.46532         6.11871
     2005.28953         4.09445         5.99283
     2005.29227        -1.66078         5.89744
     2005.29501         0.83099         5.75289
     2005.29775         0.77176         5.71650
     2005.30048         3.91753         5.70568
     2005.30322         3.07730         5.70765
     2005.30596         2.46906         5.67028
     2005.30870        -2.63717         5.74797
     2005.31144         4.62060         5.71552
     2005.31417         2.47337         5.67618
     2005.31691        -2.92986         5.68896
     2005.31965         0.07791         5.77747
     2005.32239        -2.75032         6.47273
     2005.32512        -1.89655         6.08429
     2005.32786        -7.04978         5.84336
     2005.33060         0.27499         6.05479
     2005.33334         3.54175         6.12264
     2005.33608         3.66652         6.41570
     2005.33881        -0.52571         5.80304
     2005.34155         8.41106         5.76665
     2005.34429         1.07583         5.72338
     2005.34703         7.03160         5.62406
     2005.34977        -2.02263         5.86991
     2005.35250         1.11614         6.02332
     2005.35524         6.18591         6.05774
     2005.62903        -5.53220         5.77944
     2005.63176        -3.00043         5.74403
     2005.63450        -3.06266         5.72043
     2005.63724        -0.72289         5.72043
     2005.63998        -7.83912         5.81287
     2005.64272        -0.42535         5.71355
     2005.64545        -9.20758         5.77550
     2005.64819        -4.32181         5.73420
     2005.65093        -4.94105         5.74010
     2005.65367        -4.38428         5.79222
     2005.65640        -7.35751         5.70273
     2005.65914        -5.12474         5.75780
     2005.66188        -4.86097         5.72732
     2005.66462        -5.55320         5.72338
     2005.66736        -4.97843         5.71552
     2005.67009        -1.99066         5.68011
     2005.67283        -1.66789         5.66831
     2005.67557         0.71788         5.74108
     2005.67831       -10.15336         5.69290
     2005.68105        -7.47859         5.72830
     2005.68378        -4.25782         5.76075
     2005.68652         0.18695         5.78042
     2005.68926        -4.17028         5.79714
     2005.69200        -3.34351         5.71650
     2005.69473        -1.74874         5.74895
     2005.69747        -4.56297         5.82074
     2005.70021         0.63680         5.87286
     2005.70295        -1.76143         5.85811
     2005.70569        -4.37767         5.91318
     2005.70842        -3.99590         5.91711
     2005.71116        -1.18713         5.80107
     2005.71390        -0.72036         5.75682
     2005.71664        -4.49759         5.83057
     2005.71938        -6.44782         5.74207
     2005.72211        -7.48105         5.80599
     2005.72485        -7.43428         5.71552
     2005.72759        -5.46451         5.79615
     2005.73033        -5.04475         5.87974
     2005.73306        -1.86298         5.80992
     2005.73580         0.34879         5.80501
     2005.73854        -1.88644         5.91220
     2005.74128        -2.39967         5.89154
     2005.74402         0.56010         5.80599
     2005.74675        -0.88513         5.66635
     2005.74949        -2.04436         5.68110
     2005.75223        -5.80559         5.86499
     2005.75497         6.22518         5.81582
     2005.75770        -4.75106         5.76567
     2005.76044         1.71671         5.66045
     2005.76318         2.28048         5.68700
     2005.76592         2.34725         5.71945
     2005.76866        11.11702         5.74207
     2005.77139        12.89479         5.68700
     2005.77413         4.08556         5.61029
     2005.77687        -0.23567         5.76862
     2005.77961        -0.36990         5.82467
     2005.78235        -2.12513         5.79025
     2005.78508         0.03463         5.66045
     2005.78782         3.43240         5.70076
     2005.79056         2.83917         5.61816
     2005.79330         1.96194         5.68798
     2005.79603        -0.36729         5.85319
     2005.79877         0.89548         5.87286
     2005.80151         7.95725         5.87384
     2005.80425        -0.14598         5.67815
     2005.80699         2.60879         5.69290
     2005.80972         3.58355         5.67225
     2005.81246        -2.05468         5.72928
     2005.81520        -3.97491         5.71748
     2005.81764         0.44800         6.64483
     2006.13005       -10.83148         5.58374
     2006.13279        -6.23971         5.50999
     2006.13553        -4.71894         5.55424
     2006.13827         0.51083         5.55817
     2006.14100        -6.01940         5.59849
     2006.14374       -11.18563         5.58571
     2006.14648        -6.56186         5.60242
     2006.14922        -9.12009         5.52572
     2006.15196       -10.65632         5.52965
     2006.15469       -10.42756         5.55424
     2006.15743       -11.56779         5.60833
     2006.16017        -6.26702         5.67323
     2006.16291        -8.28625         5.73813
     2006.16564       -10.34548         5.51195
     2006.16838        -5.03271         5.74502
     2006.17112        -4.29894         5.56014
     2006.17386        -7.68017         5.58964
     2006.17660       -12.11140         5.56112
     2006.17933        -4.37063         5.55129
     2006.18207        -3.98087         5.56309
     2006.18481        -3.18010         5.59947
     2006.18755         2.76867         5.59062
     2006.19029         0.72444         5.68896
     2006.19302        -2.48379         5.62603
     2006.19576        -6.23402         5.64569
     2006.19850         0.25275         5.70076
     2006.20124        -4.72048         5.70372
     2006.20397       -10.61471         5.80992
     2006.20671        -6.61294         5.80697
     2006.20945        -8.99918         5.60833
     2006.21219        -9.16641         5.65651
     2006.21493        -6.08764         5.69093
     2006.21766        -3.85187         5.68995
     2006.22040       -10.50510         5.83352
     2006.22314        -8.69633         5.77354
     2006.22588        -9.58356         5.80992
     2006.22862        -5.79879         5.88368
     2006.23135        -2.20402         5.92203
     2006.23409        -3.94926         5.79812
     2006.23683       -11.48149         5.67421
     2006.23957         0.55428         5.56407
     2006.24230        -4.90195         5.56309
     2006.24504       -10.15518         5.54834
     2006.24778         1.70959         5.59357
     2006.25052        -4.13864         5.58866
     2006.25326        -3.10487         5.55227
     2006.25599        -4.41910         5.68503
     2006.25873        -7.83033         5.64766
     2006.26147        -8.13157         5.82172
     2006.26421        -6.43480         5.81779
     2006.26695        -4.86803         5.69290
     2006.26968        -5.07126         5.56407
     2006.27242        -1.12849         5.58964
     2006.27516        -1.83172         5.83254
     2006.27790        -6.15895         5.82172
     2006.28063        -8.55018         5.64078
     2006.28337        -3.17641         5.56407
     2006.28611        -4.47964         5.71552
     2006.28885        -5.70788         5.64373
     2006.29159        -3.77211         5.65553
     2006.29432        -2.51034         5.68405
     2006.29706        -1.69157         5.60341
     2006.29980         0.47520         5.71650
     2006.30254        -5.73603         5.60833
     2006.30528        -3.64326         5.70765
     2006.30801        -4.89149         5.79222
     2006.31075        -1.60072         5.68601
     2006.31349        -7.98696         5.70962
     2006.31623        -7.53519         5.67126
     2006.32170        -6.42365         5.73027
     2006.32444        -5.46088         5.64471
     2006.32718        -5.07211         5.73715
     2006.32992        -6.64834         5.60734
     2006.33265        -9.34057         5.64864
     2006.33539        -4.79980         5.68208
     2006.33813        -2.42903         5.63094
     2006.34087       -12.02727         5.65258
     2006.34361        -6.84050         5.59357
     2006.34634        -7.59373         5.68306
     2006.34908        -7.94096         5.75682
     2006.35182        -7.13719         5.76764
     2006.35456        -9.91542         5.65258
     2006.35729        -9.37165         5.67716
     2006.36003        -8.02188         5.63783
     2006.36277       -11.44511         5.61619
     2006.36551       -14.43134         5.65651
     2006.36825        -8.64958         5.70470
     2006.37098        -6.69381         5.89351
     2006.37372       -10.21704         5.77255
     2006.37646        -5.18327         5.75977
     2006.37920       -10.76050         5.98005
     2006.38193        -0.68273         5.84237
     2006.38467        -6.14796         5.78239
     2006.38741         0.21281         5.99873
     2006.39015        -7.43842         5.76075
     2006.85558         2.99330         6.29867
     2006.85832        12.64007         5.97022
     2006.86106         3.20184         6.08822
     2006.86380         6.33161         6.00857
     2006.86653         4.92238         6.15805
     2006.86927         9.25515         5.91711
     2006.87201         4.16491         5.72437
     2006.87475        -3.22632         5.74797
     2006.87749         6.45745         5.72535
     2006.88022         8.15422         5.75977
     2006.88296         5.14999         5.71847
     2006.88570         3.67776         5.66733
     2006.88844         2.06453         5.74600
     2006.89118         0.94730         5.68798
     2006.89391        -4.99293         5.89843
     2006.89665         4.72183         5.83057
     2006.89939         4.85260         5.74698
     2006.90213         5.36037         5.67421
     2006.90486         5.45414         5.77845
     2006.90760         6.18891         5.72043
     2006.91034        10.65668         5.71257
     2006.91308         5.44745         5.74403
     2006.91582         1.52222         5.73813
     2006.91855         4.00799         5.65061
     2006.92129         6.04476         5.69388
     2006.92403         1.89052         5.73322
     2006.92677         6.14629         5.78632
     2006.92951         5.43206         5.83451
     2006.93224         2.54383         5.72732
     2006.93498         6.01960         5.87778
     2006.93772         9.69037         5.83746
     2006.94046         6.15914         5.83254
     2006.94319         7.44491         5.79910
     2006.94593         6.66968         5.83254
     2006.94867         1.30445         5.86106
     2006.95141        14.70621         5.95547
     2006.95415         6.42098         5.91121
     2006.95688         9.92275         5.81189
     2006.95962         7.48152         5.74010
     2006.96236         8.81429         5.79615
     2006.96510         7.65606         5.92793
     2006.96784         5.00283         5.87778
     2006.97057         2.49560         5.79320
     2006.97331         5.04037         5.76370
     2006.97605         6.74013         5.74895
     2006.97879         1.96090         5.77649
     2006.98152         5.15367         5.79714
     2006.98426        -3.93756         5.87974
     2006.98700        10.63021         6.04692
     2006.98974         1.00098         5.99677
     2006.99248        -1.66625         6.02430
     2006.99521         1.08152         6.04200
     2006.99795         3.56029         6.01054
     2007.00343         6.31582         5.97317
     2007.00616         7.66159         5.94268
     2007.00890         9.08236         5.89449
     2007.01164        -4.71487         5.81681
     2007.01438         3.14390         5.79025
     2007.01712        -2.76233         5.77255
     2007.01985         1.17844         5.73420
     2007.02259         2.16221         5.63389
     2007.02533        -0.40802         5.68896
     2007.02807         6.34375         5.82959
     2007.03081         1.15051         5.61128
     2007.03354        -0.46172         5.54244
     2007.03628        -0.81495         5.52867
     2007.03902        -1.98718         5.51785
     2007.04176        -2.16541         5.62996
     2007.85764        -0.81926         5.58079
     2007.86037         4.54651         5.62013
     2007.86311         9.31128         5.63193
     2007.86585         3.03305         5.72338
     2007.86859         1.06982         5.60242
     2007.87133         2.66459         5.66340
     2007.87406         5.48736         5.67520
     2007.87680        -3.04587         5.83352
     2007.87954         6.75889         5.67421
     2007.88228        -3.29834         5.70076
     2007.88502        -0.04057         5.62406
     2007.89049         0.24797         6.35276
     2007.93971         0.09384         6.80414
     2009.59891         5.94681         5.55227
     2009.60165       -10.37543         5.68896
     2009.60439        -7.59966         5.60734
     2009.60712        -8.95889         5.61423
     2009.60986        -4.53012         5.66536
     2009.61260        -8.81235         5.65356
     2009.61534        -9.64958         5.62111
     2009.61807        -4.00381         5.62996
     2009.62081        -9.23304         5.65061
     2009.62355        -5.60427         5.61029
     2009.62629        -3.27950         5.59062
     2009.62903        -4.73574         5.66930
     2009.63176        -5.83997         5.58866
     2009.63450        -6.09720         5.61029
     2009.63724        -8.17543         5.71847
     2009.63998        -7.42566         5.74403
     2009.64272        -1.76989         5.77747
     2011.39768        -0.77898         5.63979
     2011.40042        -6.69021         5.63684
     2011.40315        -5.39245         5.55719
     2011.40589        -3.65668         5.45295
     2011.40863         2.99709         5.57686
     2011.41137        -2.60914         5.50605
     2011.41410        -1.64537         5.50113
     2011.41684         1.91040         5.49130
     2011.41958        -1.51583         5.47753
     2011.42232        -5.50906         5.47360
     2011.42506        -2.62729         5.56014
     2011.42779        -4.22152         5.56702
     2011.43053       -10.44376         5.59849
     2011.43327        -6.41399         5.51785
     2011.43601        -8.36422         5.48933
     2011.43875        -4.47245         5.53260
     2011.44148        -5.47068         5.55424
     2011.44422        -4.05091         5.61423
     2011.44696        -4.00014         5.56112
     2011.44970        -3.44837         5.50409
     2011.45243        -3.41660         5.56801
     2011.45517        -5.54683         5.64078
     2011.45791        -5.27707         5.53850
     2011.46065        -6.25330         5.54637
     2011.46339       -16.01953         5.73715
     2011.46612        -3.58776         5.50900
     2011.46886        -0.05299         5.50704
     2011.47160        -7.44522         5.53949
     2011.47434        -6.72545         5.64176
     2011.47708         5.08632         5.62013
     2011.47981        -0.10091         5.53654
     2011.48255        -1.60814         5.55326
     2011.48507        -8.65128         6.02627
     2012.87064        -3.26928         5.51982
     2012.87338        -0.14551         5.60242
     2012.87612         1.64426         5.58079
     2012.87885        -0.45297         5.50409
     2012.88159         1.98280         5.50015
     2012.88433         3.18457         5.56112
     2012.88707         4.49234         5.65455
     2012.88981        -1.40290         5.68896
     2012.89254        -1.46613         5.56506
     2012.89528        -1.14136         5.52080
     2012.89802         0.21841         5.51982
     2012.90076         6.07918         5.59554
     2012.90350         5.01295         6.27507
     2012.90623         8.87172         6.38423
     2012.91437        -3.42094         5.74698
     2012.92540         0.62810         5.43623
     2012.93909         3.47995         5.46573
     2012.94183         0.20271         5.44508
     2012.94456        15.92448         6.35571
     2013.10062         5.71731         5.79615
     2013.10336         0.00708         5.51097
     2013.11431         4.28216         6.25835
     2013.11705        -0.69907         5.87778
     2013.12252        -2.13353         5.45492
     2013.12526        -4.82176         5.80107
     2013.12800        -2.60000         5.46868
     2013.13074        -0.19523         5.46770
     2013.13347         1.21654         5.98693
     2013.13621         4.30331         6.00562
     2013.14169         4.56085         5.78435
     2013.14443         3.62462         5.64864
     2013.14716         2.80139         5.71650
     2013.15264        -1.49007         5.45492
     2013.15538       -12.74331         5.49622
     2013.15812        -1.68454         5.46868
     2013.16085        -2.02877         5.41755
     2013.16359        -4.88500         5.51392
     2013.16633        -5.70223         5.48933
     2013.16907         0.66154         5.50015
     2013.17180         4.04031         6.32817
     2013.17454        -0.86192         5.52769
     2013.17728        -1.23415         5.65946
     2013.18276        -1.45762         6.50814
     2013.18549         5.33015         6.66843
     2013.18823        -3.38008         5.45688
     2013.19097        -0.15631         5.50704
     2013.19371        -0.25654         5.50409
     2013.19645        -7.05477         5.51392
     2013.19918         0.76000         5.45492
     2013.20192        -1.75223         5.48737
     2013.20466        -5.30146         5.49130
     2013.20740       -20.69570         5.55030
     2013.21013         2.86007         5.53949
     2013.21287         0.49884         5.43328
     2013.21561       -11.57939         5.52179
     2013.21835         0.97938         5.48933
     2013.22109         6.90715         5.46082
     2013.22382        -0.11408         5.48540
     2013.22656        -5.93031         5.50507
     2013.22930        -2.39154         5.44705
     2013.23204        -3.57277         5.43820
     2013.23478        -0.19501         5.47950
     2013.23751        -4.08424         5.57292
     2013.24025         1.34253         5.56899
     2013.24299         1.10030         5.56211
     2013.24573         8.19307         5.56014
     2013.24846         2.94884         5.51982
     2013.25120         2.73361         5.51392
     2013.25394         1.23138         5.55817
     2013.25668        -1.36585         5.72338
     2013.25942        -2.30009         5.62209
     2013.26215        10.91468         5.57096
     2013.26489        -3.24055         5.75289
     2013.26763         7.14622         5.55227
     2013.27037        -0.96201         5.58669
     2013.27311         1.86176         5.64373
     2013.27584         4.05653         5.78632
     2013.27858         4.00930         5.69093
     2013.28132         7.34507         5.69683
     2013.28406         1.44384         5.61128
     2013.28679         9.15760         5.59456
     2013.28953         4.37037         5.54145
     2013.29227         1.11214         5.51785
     2013.29501         0.24891         5.52080
     2013.29775        -5.63232         5.59947
     2013.30048         4.78845         5.69486
     2013.30322        -3.69278         5.51097
     2013.30562         0.74814         6.52977
     2014.71595         5.75701         5.71355
     2014.71869         7.17477         5.59849
     2014.72143         4.42054         5.70372
     2014.72417         8.28631         5.69290
     2014.72690         6.13708         5.58472
     2014.72964         4.18785         5.64864
     2014.73238         9.90762         5.64569
     2014.73512         2.73939         5.65455
     2014.73786        12.45216         5.70273
     2014.74059         9.49293         5.77845
     2014.74333        14.97369         5.55817
     2014.74607        12.99746         5.83352
     2014.74881         5.17423         5.62603
     2014.75154        10.20300         5.67421
     2014.75428         6.44177         5.56407
     2014.75702         2.01354         5.58964
     2014.75976         9.07431         5.59554
     2014.76250         5.01708         5.55817
     2014.76523         2.47485         5.60833
     2014.76797         9.14762         5.52375
     2014.77071         4.51838         5.54145
     2014.77345        -0.42185         5.60833
     2014.77619         7.79992         5.62504
     2014.77892        13.82969         5.70076
     2014.78166         5.69046         5.58472
     2014.78440         9.56523         5.60833
     2014.78714         9.07600         5.63783
     2014.78987         9.58577         5.68896
     2014.79261         6.82154         5.56702
     2014.79535         8.71531         5.61324
     2014.79809         6.10007         5.70273
     2014.80083         1.77384         5.59456
     2014.80356        12.53661         5.85024
     2014.80630         6.72938         5.68601
     2014.80904         8.24815         5.59062
     2014.81178         6.85192         5.54047
     2014.81452         7.87769         5.64176
     2014.81725         8.98146         5.65455
     2014.81999        12.58623         5.62799
     2014.82273        10.05600         5.77059
     2014.82547        13.12676         5.61718
     2014.82820         5.03953         5.65553
     2014.83094         6.16230         5.63979
     2014.83368         6.36107         5.64471
     2014.83642         9.33184         5.60439
     2014.83916         8.86961         5.61423
     2014.84189        12.27238         5.67618
     2014.84463         4.54815         5.63389
     2014.84737         9.99892         5.67520
     2014.85011        10.07568         5.66241
     2014.85285         9.76345         5.64569
     2014.85558        12.89122         5.70372
     2014.85832         7.79099         5.80402
     2014.86106         8.79776         5.64373
     2014.86380         6.79453         5.65455
     2014.86653         5.40530         5.71748
     2014.86927         4.31807         5.71060
     2014.87201         5.98184         5.83647
     2014.87475         8.20861         5.64569
     2014.87749         4.46637         5.67716
     2014.88022         8.61614         5.72830
     2014.88296         8.65391         5.77845
     2014.88570         8.42468         5.93580
     2014.88844        13.96645         6.03315
     2014.89118         3.96922         6.19148
     2014.89391        12.70099         6.04102
     2014.89665        19.29476         5.88958
     2014.89939         1.93853         5.96235
     2014.90213         2.41130         5.91023
     2014.90486        -0.82094         5.74010
     2014.90760         4.45283         5.73813
     2014.91034         3.25560         5.79910
     2014.91308        11.71937         5.74305
     2014.92403        12.21145         5.70765
     2014.93224         5.62675         5.63193
     2014.93498         5.70152         5.69486
     2014.95415        11.48491         5.53457
     2014.95688        18.77467         6.82577
     2014.96767         3.58383         5.95252
     2014.97879         9.88383         5.57882
     2014.98974         2.26290         5.69585
     2015.00069         8.39898         6.11674
     2015.00616         0.36252         6.55042
     2015.01438         4.51982         6.79529
     2015.02259         9.54613         6.48158
     2015.02533         9.29090         6.44520
     2015.03628         7.10397         6.22492
     2015.03902         9.59874         6.27704
     2015.04723         2.71005         5.59652
     2015.04997         6.45982         5.64078
     2015.05271         9.88559         6.81201
     2015.05545         5.28636         6.20722
     2015.05818        11.06913         5.58866
     2015.06092        10.96390         5.60144
     2015.06640         7.12443         5.58079
     2015.06914         7.63620         5.58079
     2015.07184         1.44999         5.67520
     2015.07735         1.16551         5.56112
     2015.08009        -0.84372         6.02135
     2015.08556         6.07482         5.62013
     2015.08830        10.69658         5.63193
     2015.09378         7.40712         5.66143
     2015.09651         8.34289         5.59554
     2015.09925        12.41466         6.77169
     2015.10199         8.50443         5.70175
     2015.10473        13.78220         5.55817
     2015.10747        10.42597         5.78534
     2015.10995         3.16985         6.23475
     2018.54894        -9.59444         5.58571
     2018.55168       -13.60067         5.52080
     2018.55442        -9.27990         5.64274
     2018.55716        -6.87213         5.56014
     2018.55990       -12.67336         5.63389
     2018.56263        -5.32660         5.56407
     2018.56537        -8.52583         5.59357
     2018.56811        -6.92506         5.49425
     2018.57085        -4.85729         5.47458
     2018.57358        -4.89252         5.63193
     2018.57632       -10.51675         5.71650
     2018.57906       -14.53098         5.73322
     2018.58180        -2.02821         5.70470
     2018.58454        -4.19144         5.72240
     2018.58727        -3.10068         5.43721
     2018.59001       -15.65191         5.47262
     2018.59275        -9.23914         5.45983
     2018.59549       -10.50737         5.46180
     2018.59823        -7.73660         5.45492
     2018.60096       -10.48283         5.43623
     2018.60370        -8.17706         5.47557
     2018.60644       -11.54229         5.44213
     2018.60918        -7.24652         5.50900
     2018.61191        -6.41175         5.45295
     2018.61465        -3.64099         5.45688
     2018.61739        -5.85122         5.43131
     2018.62013        -6.43845         5.48638
     2018.62287        -3.32068         5.73420
     2018.62560        -7.37491         5.65553
     2018.62834        -9.67314         5.52572
     2018.63108        -7.28237         5.44311
     2018.63382       -10.41360         5.58374
     2018.63656        -7.00583         5.52965
     2018.63929        -4.83006         5.73420
     2018.64203        -5.43730         5.75387
     2018.64477        -4.09653         5.43623
     2018.64751        -1.83476         5.46770
     2018.65024        -3.94399         5.45393
     2018.65298       -11.46622         5.48638
     2018.65572        -0.65145         5.49228
     2018.65846        -7.13068         5.52769
     2018.66120        -0.10591         5.48835
     2018.66393        -4.14314         5.46082
     2018.66667        -8.74337         5.44016
     2018.66941        -3.15661         5.49917
     2018.67215        -8.75984         5.50900
     2018.67488        -4.55307         5.48442
     2018.67762        -2.28630         5.45492
     2018.68036       -10.26553         5.63881
     2018.68310       -12.13076         5.56702
     2018.68584         4.60901         5.52474
     2018.68857        -2.12922         5.45885
     2018.69131        -4.64145         5.53555
     2018.69379        -8.07457         6.09117
