# ================= DQRFIT RESULTS ================
# INPUT FILE: series/JOBO.rad
# OUTPUT: LDETRENDED
# FILTER FUNCTION: f(t)
# f(t)=+line(t)+annual(t)+jumps(t)
# line(t)=+P 1+P 2*t
# annual(t)=+P 3*sin(2*pi*t+P 4)
# jumps(t)=+P 5*heav(t-2016.2201  )+P 6*heav(t-2018.9151  )+P 7*heav(t-2019.3312  )
# heav(t)=(t<0?0:1)
# TOTAL OBSERVATIONS MTOT= 2955
# INITIAL TIME INTERVAL= 2022.7488 - 2014.5815 =  8.1673
# TOTAL OBSERVATIONS AFTER PREFILTER M= 2899
# TIME-SPAN= 2022.7488 - 2014.5815 =  8.1673
# OBSERVATIONS: USED M=  2899 REJECTED MTOT-M=    56 %USED=   98.1049
# N=  7 PARAMETERS
# MAXSIG= 175.00000
# MAXRES=  58.86644
# SCALE FACTOR FOR LENGTHS: SCL=  10.00000
# SCALE FACTOR FOR SIGMAS: SCLSIG=   1.00000
# CHI^2=   2352.950 DOF=  2892 CHI^2/DOF=   0.81361
# RMS=      5.569 SDEV=      5.562 MEAN=    0.29770
#  P #       PARAMETER +-    SIGMA %error PARAMETER NAME
# P 1 =      2896.81116 +-  234.965   8.11 YZERO                              
# P 2 =        -1.44325 +-    0.117   8.08 SLOPE                              
# P 3 =         5.09040 +-    0.135   2.65 ANNUAL AMPLITUDE                   
# P 4 =         2.99048 +-    0.037   1.24 ANNUAL PHASE                       
# P 5 =        -2.00161 +-    0.390  19.47 OFFSET 2016.2201                   
# P 6 =       151.20551 +-    0.498   0.33 OFFSET 2018.9151                   
# P 7 =      -138.74916 +-    0.514   0.37 OFFSET 2019.3312                   
#       T            LDETRENDED       SIG_OBS
     2014.58152        -0.21050         5.45891
     2014.58556       -13.49167        12.62622
     2014.58726        -4.36121         5.08999
     2014.59000         1.92274         5.00881
     2014.59274         3.57469         5.03768
     2014.59548         4.82364         5.02956
     2014.59822         2.23860         5.09090
     2014.60095         1.27855         5.30557
     2014.60369         0.22350         5.04219
     2014.60643        -5.82555         5.03497
     2014.60917         2.11740         5.03768
     2014.61190         6.45035         5.09721
     2014.61464         8.34330         5.04129
     2014.61738        -3.59574         5.24333
     2014.62012         4.72321         5.04940
     2014.62286        11.24316         5.06654
     2014.62559         3.11811         4.92673
     2014.62833        -4.39394         5.08819
     2014.63107        16.04901         5.10082
     2014.63381         6.49296         5.13690
     2014.63655        12.06292         4.98807
     2014.63928         0.01987         4.96011
     2014.64202         0.09482         4.92403
     2014.64476        -3.33723         4.96913
     2014.64750         5.02172         4.93846
     2014.65023        -2.65433         4.97544
     2014.65297         6.65062         4.97544
     2014.65571        11.87958         4.94838
     2014.65845        13.19053         5.03678
     2014.66119         7.26048         4.98175
     2014.66392         4.75143         4.99528
     2014.66666         9.21038         4.97273
     2014.66940         5.29633         4.99168
     2014.67214         3.72128         5.01783
     2014.67488        -0.03176         4.95740
     2014.67761        -1.69281         4.97634
     2014.68035         0.86514         4.97544
     2014.68309        -2.72091         4.91591
     2014.68583        -0.62896         4.95920
     2014.68856         1.43799         4.90328
     2014.69130        -4.80806         4.95469
     2014.69404        -0.21910         4.89336
     2014.69678        -2.43415         4.96822
     2014.69952         3.15480         4.89787
     2014.70225         1.62075         5.04129
     2014.70499         2.31370         4.93395
     2014.70773         3.41565         4.90328
     2014.71047         3.58060         5.02956
     2014.71321         8.16456         4.90599
     2014.71594         8.12551         4.89697
     2014.71868         9.04046         4.95830
     2014.72142         4.54141         4.92673
     2014.72416         5.69436         5.00340
     2014.72689        -2.97569         5.02956
     2014.72963         1.51226         4.94658
     2014.73237         9.36522         5.02415
     2014.73511         4.88517         4.90508
     2014.73785         2.87412         4.99077
     2014.74058         0.28807         4.94116
     2014.74332         0.74202         5.13780
     2014.74606         9.42897         5.09270
     2014.74880         5.89092         4.94387
     2014.75154         6.17488         5.04940
     2014.75427        -0.82217         4.96462
     2014.75701         7.88378         5.17208
     2014.75927         1.26104         6.06776
     2014.76333        -1.60610         8.93342
     2014.76522         3.23063         4.97093
     2014.76793         5.37654         5.10894
     2014.77002        10.47755         6.62971
     2014.79038        10.45094         6.62340
     2014.79260         6.23915         4.93756
     2014.79534         6.03510         5.01964
     2014.79808        12.86805         5.12337
     2014.80082         7.11200         5.15313
     2014.80355         7.74095         5.05031
     2014.80629         7.37090         5.06113
     2014.80903         8.86185         5.05842
     2014.81177         6.26281         4.93756
     2014.81451        11.48176         4.95469
     2014.81724         8.63271         4.94297
     2014.81998         5.97566         4.94928
     2014.82272         7.43261         5.18110
     2014.82546         5.86956         4.98356
     2014.82820       -11.51149         4.99258
     2014.83093         2.97247         5.04038
     2014.83367         1.29942         4.99528
     2014.83641         2.44537         5.01964
     2014.83915        -0.13268         5.49680
     2014.84188         4.06027         5.09541
     2014.84462        -3.24878         5.08548
     2014.84736         8.04717         5.16757
     2014.85010        -1.01687         5.05752
     2014.85284        -4.75692         5.01242
     2014.85557        -1.19697         5.95592
     2014.85831        -0.58402         7.39371
     2014.86105         5.73293         7.28637
     2014.86379         0.92788         7.32425
     2014.86653        -0.80817         7.28547
     2014.86926         2.58979         7.21872
     2014.87200         3.41474         7.60748
     2014.87474         0.71569         7.25209
     2014.87748         4.30864         7.59124
     2014.88021         5.63459         7.55787
     2014.88295         9.73754         7.38198
     2014.88569         4.57949         5.32181
     2014.88843         5.92645         5.22349
     2014.89117        11.18240         5.16666
     2014.89390         4.31735         5.11525
     2014.89664         2.55030         5.10443
     2014.89938        -0.89975         5.12247
     2014.90212        -5.70080         5.13870
     2014.90395        -1.37415         8.80985
     2014.90800        -2.59530         6.20126
     2014.91033         6.23206         4.97544
     2014.91307         3.63001         4.84375
     2014.91581         2.42396         4.93214
     2014.91854         3.74191         4.87532
     2014.92128        -0.98914         4.95830
     2014.92402         1.04081         4.84826
     2014.92676         1.02277         5.08819
     2014.92950        -1.87128         4.96371
     2014.93223        -7.86633         4.90779
     2014.93497        -9.26238         4.97724
     2014.93771        -5.31143         4.99348
     2014.93949        -6.50886         9.51702
     2014.94353        -6.88202         6.15165
     2014.94592        -2.09657         4.90148
     2014.94866       -13.80262         4.93485
     2014.95140       -10.48467         4.90508
     2014.95414        -1.95772         4.94477
     2014.95687         5.31223         4.94748
     2014.95961         5.16118         4.94658
     2014.96235        -1.74087         4.92493
     2014.96509         2.04709         5.00972
     2014.96783        -7.34796         4.83022
     2014.97056         1.20399         5.05662
     2014.97330        -9.37206         4.97815
     2014.97604        -8.50011         4.87532
     2014.97878        -4.03816         4.95920
     2014.98151         0.30079         4.93756
     2014.98425        -1.79225         5.06293
     2014.98699        -4.31030         4.85728
     2014.98973        -3.05235         4.86991
     2014.99247        -4.27340         4.88073
     2014.99520        -9.35645         4.91591
     2014.99794        -3.13750         4.91230
     2015.00068        -4.37855         4.91050
     2015.00342        -5.04059         5.09270
     2015.00616       -11.16764         4.90148
     2015.00889        -7.68169         4.99348
     2015.01163        -4.73874         4.98356
     2015.01437        -5.00779         4.94207
     2015.01711        -7.05884         5.12066
     2015.01977        -4.66300         5.10984
     2015.05835         1.12869         5.24965
     2015.06091         2.51339         4.99077
     2015.06365         2.85334         5.10352
     2015.06639        -2.18271         4.85277
     2015.06913        -1.22276         4.97724
     2015.07186        -5.05981         4.97995
     2015.07460         0.50214         4.98807
     2015.07734       -13.66891         4.89787
     2015.08008       -13.23596         4.93034
     2015.08282        -5.28700         4.84375
     2015.08555         0.21095         4.98536
     2015.08829         2.67390         4.89967
     2015.09103         2.34385         4.97093
     2015.09375        -2.21022         4.86810
     2015.09660         0.52889         5.13149
     2015.09924         6.15170         5.13690
     2015.10198         7.68966         4.99258
     2015.10472         5.93361         4.98175
     2015.10746        -1.93444         4.88524
     2015.11019        -4.40049         5.22620
     2015.11293        -3.83254         6.00823
     2015.11567        -6.94759         5.34797
     2015.11841        -4.36264         5.16666
     2015.12115        -1.09968         5.16847
     2015.12388        -9.62673         5.02144
     2015.12662        -9.84578         5.01152
     2015.12936        -4.73583         5.25055
     2015.13210        -4.46388         4.96191
     2015.13483        -3.57693         4.86991
     2015.13757        -3.65498         4.96101
     2015.14031       -13.65602         4.83202
     2015.14305        -3.20707         4.88073
     2015.14579        -3.24312         4.86720
     2015.14825       -11.74657         5.55903
     2015.15230         0.51128        10.43796
     2015.15400        -5.15827         4.92944
     2015.15674        -0.97132         4.80226
     2015.15948         2.39364         4.88434
     2015.16221         2.74259         4.81398
     2015.16495        -0.22046         4.91320
     2015.16769        -0.21751         4.88434
     2015.17043        -1.61156         4.78782
     2015.17316        -1.76161         5.07376
     2015.17590        -9.85066         4.91410
     2015.17864        -7.82870         4.88434
     2015.18138        -3.71575         4.82841
     2015.18412        -0.73880         4.98266
     2015.18685        -2.15085         4.94748
     2015.18959        -3.02891         4.99799
     2015.19233         1.44505         5.15584
     2015.19507        -8.06100         4.95018
     2015.19780         1.96896         5.12337
     2015.20054        -3.17309         5.47334
     2015.20328        -3.92814         4.80767
     2015.20566        -9.75270         6.13090
     2015.20971       -12.76286         9.06241
     2015.21149        -6.65729         4.95920
     2015.21423       -10.25234         5.01964
     2015.21697        -6.46138         4.94567
     2015.21971       -11.22443         4.87171
     2015.22245        -1.16848         4.81488
     2015.22518        -0.83853         4.92403
     2015.22792        -6.57358         4.89697
     2015.23066        -0.85763         4.81308
     2015.23340        -4.97168         5.24875
     2015.23612        -2.77775         5.32722
     2015.23886         1.58621         5.16486
     2015.24160        -0.20084         5.13239
     2015.24432         4.97510         5.19553
     2015.24985        -7.41293         4.93846
     2015.25259        -1.15698         4.96191
     2015.25532        -7.19804         4.96371
     2015.25805        -7.93309         5.01062
     2015.26079        -3.00615         4.85277
     2015.26351        -5.23921         4.78873
     2015.26624        -4.44627         4.92403
     2015.26897        -6.38533         4.78873
     2015.27171        -4.36738         5.13960
     2015.27444         8.84956         5.07737
     2015.27721        -3.13045         5.02776
     2015.27994        -3.38850         4.90779
     2015.28268        -2.86455         4.86720
     2015.28542       -10.21560         5.04580
     2015.28815        -9.86465         5.11435
     2015.29089        -5.12570         5.03768
     2015.29292        -0.38777         7.90424
     2015.29697        -6.30193         6.37535
     2015.29911        -2.35084         4.81308
     2015.30184         0.73511         4.92403
     2015.30458        -2.75694         5.01332
     2015.30732         1.93401         4.71386
     2015.31006        -6.10204         4.85638
     2015.31279        -6.14408         4.81849
     2015.31553        -9.03113         4.74002
     2015.31827        -8.42918         4.77249
     2015.32101        -8.30523         4.74633
     2015.32375       -14.25128         4.75716
     2015.32648        -7.86133         4.78782
     2015.32922        -5.99838         4.82481
     2015.33196         1.61757         4.77159
     2015.33470        -8.70647         4.76888
     2015.33744        -9.69452         4.82932
     2015.34017        -9.80257         4.81849
     2015.34289       -18.61565         8.12072
     2015.34566        -4.80765         4.74723
     2015.34840        -6.41870         4.71386
     2015.35115        -6.59772         5.43095
     2015.35385        -5.09783         4.77610
     2015.35749        -3.37958         9.30324
     2015.35934        -7.38391         4.86449
     2015.36205        -3.60299         4.83022
     2015.36481        -8.39401         5.27220
     2015.36755        -5.01606         4.72378
     2015.37026        -3.54315         4.77700
     2015.37303        -7.38115         4.78963
     2015.37577        -8.66420         4.68951
     2015.37850       -11.54225         4.95469
     2015.38124        -8.91130         4.69492
     2015.38398        -7.08535         4.81398
     2015.38672        -9.44740         4.80406
     2015.38945        -7.39345         4.84645
     2015.39219        -3.02349         5.39848
     2015.39493        -4.67554         4.75625
     2015.39767        -9.14559         4.79775
     2015.40041        -8.67364         4.76437
     2015.40314        -9.28769         4.87802
     2015.40588        -9.93274         4.85367
     2015.40862         0.91721         5.44538
     2015.41136        -5.40683         4.80947
     2015.41410        -4.94588         4.79414
     2015.41683        -8.85293         4.75806
     2015.41940        -7.16022         4.93756
     2015.42352         0.20371        16.56977
     2015.42505        -7.54108         4.96462
     2015.42778        -7.05113         4.73190
     2015.43052        -4.42817         4.81218
     2015.43326        -3.71522         4.78873
     2015.43587        -1.41746         4.91771
     2015.43992       -11.65361        20.39245
     2015.44147         2.84263         5.03948
     2015.44421        -0.86242         4.79865
     2015.44695        -5.44647         4.73821
     2015.44969        -3.45951         4.79684
     2015.45243        -0.64456         4.93214
     2015.45516         4.07439         4.82300
     2015.45790         1.21434         4.96371
     2015.46064         0.83129         4.98085
     2015.46338        -5.24676         4.86720
     2015.46611         0.37419         5.01152
     2015.46885        -3.83785         4.76888
     2015.47159         6.27410         4.87532
     2015.47433        -1.74795         5.00791
     2015.47707        -2.21900         4.83563
     2015.47980        -5.63105         4.97995
     2015.48254        -2.38110         5.25686
     2015.48528        -2.78215         4.88073
     2015.48802         1.78581         4.83022
     2015.49076         0.38576         4.85096
     2015.49327         6.89239         5.27490
     2015.49732        -4.50877        14.28500
     2015.49897         1.73061         4.88163
     2015.50171         2.19556         4.86720
     2015.50444         4.96551         4.84014
     2015.50718        -3.24953         4.81308
     2015.50992        -1.99558         4.82751
     2015.51266         0.08137         4.89336
     2015.51540        -0.14368         4.80496
     2015.51813        -1.87173         4.97905
     2015.52087        -1.13078         4.84014
     2015.52361         3.30917         4.89967
     2015.52635         0.29913         4.76437
     2015.52908         3.99008         4.87622
     2015.53182         3.18003         4.73100
     2015.53456         4.68998         4.84555
     2015.53730         2.03593         4.92042
     2015.54004         2.32688         4.95109
     2015.54277        -1.77617         5.03678
     2015.54551         7.41279         4.91861
     2015.54825         6.11574         5.00430
     2015.55099         2.68769         5.05752
     2015.55373         9.16264         4.91861
     2015.55646         9.75659         4.95018
     2015.55920         6.71854         4.90148
     2015.56194        12.24049         4.92673
     2015.56468         7.32645         4.87171
     2015.56741         6.14140         8.51580
     2015.57015         6.00535         8.71514
     2015.57289         7.57830         8.75122
     2015.57563        13.27925         8.47521
     2015.57837        11.92220         8.65470
     2015.58110        15.35415         8.62494
     2015.58384         6.90311         8.81526
     2015.58658         4.29306         8.97221
     2015.58932        14.54201         9.21936
     2015.59206        20.60296         8.64659
     2015.59479        16.63491         8.71153
     2015.59753        11.73486         8.96048
     2015.60027        19.68981         8.74130
     2015.60301        18.81176         9.36638
     2015.60535         5.61114         9.93464
     2015.60939        23.19198        49.51627
     2015.61122        12.84662         8.49866
     2015.61396        11.80057         9.45749
     2015.61670         4.43552         8.85856
     2015.61943         9.08447         9.02543
     2015.62217         6.16442         9.00829
     2015.62491        17.23538         8.77557
     2015.62765         7.15433         9.05609
     2015.63039         4.75928         9.00739
     2015.63268        15.19759        10.15563
     2015.63661        62.17527        27.48398
     2015.63860         4.00413         8.53384
     2015.64134        11.26708         8.54646
     2015.64407        17.63704         8.40485
     2015.64681        11.49799         9.03445
     2015.64955        16.93494         8.84232
     2015.65229        10.63989         8.50768
     2015.65503        10.22984         8.76745
     2015.65776        13.79879         8.57533
     2015.66050         8.48074         8.67365
     2015.66324        14.90070         8.41748
     2015.66598        22.34165         8.78189
     2015.66872         8.19860         8.77196
     2015.67145        12.83955         8.27045
     2015.67419        12.72550         8.08374
     2015.67693        11.60045         8.43281
     2015.67967         8.89040         8.55909
     2015.68240         4.77336         8.48874
     2015.68514        15.19031         9.82189
     2015.68788         7.60626         8.35975
     2015.69062        13.70721         8.98574
     2015.69336         5.81216         8.89193
     2015.69609        10.77111         8.41026
     2015.69883        10.46906         8.48332
     2015.70157         2.35102         8.73137
     2015.70431        13.15497         8.53474
     2015.70705        11.07692         8.23076
     2015.70978        26.35587         9.54588
     2015.71252         7.19682         8.41567
     2015.71526        10.57777         8.38771
     2015.71800        16.97872         8.52391
     2015.72073        17.62168         8.69710
     2015.72347        -4.11037         8.34261
     2015.72621        -3.21042         8.44995
     2015.72895         4.93353         8.40756
     2015.73169        13.67548         8.31826
     2015.73442        -2.51257         8.28488
     2015.73713         3.88634         8.65651
     2015.73992         6.25537         8.30924
     2015.74264         6.10729         8.41567
     2015.74538        14.86824         8.26414
     2015.74811        10.03619         8.30112
     2015.75085        -4.32486         8.23076
     2015.75359        14.22909         8.41838
     2015.75633         4.25704         8.39132
     2015.75906        10.31400         8.51309
     2015.76180        -1.31305         8.52121
     2015.76454        11.59090         8.27135
     2015.76728        11.89585         8.26594
     2015.77002         9.70480         8.69439
     2015.77275        23.89875         8.62855
     2015.77549        15.09970         8.78369
     2015.77823        24.20866         8.74941
     2015.78097        14.08461         8.34802
     2015.78371        17.52256         8.35344
     2015.78644        17.65851         8.39763
     2015.78918         3.23946         8.33089
     2015.79192        13.89141         8.33449
     2015.79466         5.71936         8.59698
     2015.79739        21.94132         8.47611
     2015.80013        14.16827         9.18147
     2015.80287        21.07722         8.68267
     2015.80561        16.80417         8.45085
     2015.80835        -0.52388         8.43281
     2015.81108         7.97807         8.87209
     2015.81382         8.69302         8.59878
     2015.81656         4.45598         8.72326
     2015.81930         6.61993         8.33089
     2015.82203        13.32688         8.67906
     2015.82477        10.87183         8.49956
     2015.82751        13.79478         8.50497
     2015.83025         1.82073         8.82879
     2015.83299        14.15068         8.51670
     2015.83572        17.55864         8.73047
     2015.83846        -7.57441         9.07233
     2015.84120         1.68254         9.07504
     2015.84394         3.26749         9.08857
     2015.84668         6.73644         9.10661
     2015.84941         8.29539         9.12555
     2015.85215         7.45934         8.98664
     2015.85489         5.90030         9.01190
     2015.85763         5.49625         9.23289
     2015.86036         5.62120         9.41058
     2015.86310         1.83415         9.08496
     2015.86584        12.04410         9.38442
     2015.86858         9.39805         9.08586
     2015.87132         6.57200         9.09488
     2015.87405        11.70595         9.24912
     2015.87679         5.71691         9.39164
     2015.87953        13.80186         9.32038
     2015.88227         7.29681         9.01731
     2015.88501        -3.52024        10.27921
     2015.88774         2.72371         9.05970
     2015.89048         8.44566         9.08857
     2015.89322        14.94761         9.10570
     2015.89596         7.06357         8.94425
     2015.89869         5.88552         8.96229
     2015.90143         2.70747         9.01550
     2015.90417         6.63542         9.02452
     2015.90691         5.96737         8.98935
     2015.90965        -0.53668         9.01280
     2015.91238        -1.53273         9.26085
     2015.91512         1.51323         8.87299
     2015.91786         7.72018         8.90005
     2015.92060         8.93513         9.19681
     2015.92334        10.11608         8.94154
     2015.92607        -0.22797         8.91538
     2015.92881        -2.66202         9.55129
     2015.93155        13.39893         9.11292
     2015.93429        16.95389         9.27077
     2015.93702        30.83684         9.62887
     2015.93976        31.25379        10.30627
     2015.94250        13.12674         9.82099
     2015.94524         7.49069         8.93883
     2015.94798        12.77364         8.86126
     2015.95071        14.17659         9.05519
     2015.95345         4.20155         8.96860
     2015.95619        12.50550         9.60902
     2015.95893         5.32545        10.26117
     2015.96167         8.30440         9.59098
     2015.96440        14.62335         9.38983
     2015.96714        14.03630         9.43223
     2015.96988        17.29225         9.60090
     2015.97262        22.48221         9.42501
     2015.97535        16.88116         9.36368
     2015.97809        16.10011         9.39434
     2015.98083         6.83006         9.43764
     2015.98357        -7.49399         9.48455
     2015.98631         0.17596        10.74013
     2015.98904         3.26291         9.56392
     2015.99178        -3.88613         9.44937
     2015.99452         0.99782         9.45929
     2015.99726         0.68577         9.49357
     2016.00000         0.85472         9.39705
     2016.00273        -2.66933         9.61173
     2016.00547        -0.55738         9.48725
     2016.00821         7.65657         9.42682
     2016.01095         6.82453         9.41870
     2016.01368        13.82848        10.07445
     2016.01642         9.02143         9.52874
     2016.01916         8.26238         9.50078
     2016.02190         1.72033         9.46560
     2016.02464         4.98528         9.39254
     2016.02737        -1.83077         9.77679
     2016.03011         7.08519         9.36638
     2016.03285         8.88814         9.55400
     2016.03559         3.03909         9.44756
     2016.03833         3.58504        10.53898
     2016.04106        10.01399         9.22296
     2016.04380         9.02194        11.09101
     2016.04654        -8.06511         9.78130
     2016.04928        23.46485         9.40066
     2016.05201        -5.70020         9.40697
     2016.05475        -0.53325         9.28340
     2016.05749         2.07670         9.36819
     2016.06023         4.95065         9.31677
     2016.06297         7.48360         9.33120
     2016.06570        -2.04645         9.32669
     2016.06844        14.49451         9.49447
     2016.07118       -13.92454        10.44157
     2016.07392        11.91341        10.57416
     2016.07666        18.63136         9.42141
     2016.07939        15.44831         9.40517
     2016.08213         2.53626         9.15982
     2016.08487         4.64521         9.14088
     2016.08761         1.80217         8.96860
     2016.09034        -7.27088        10.76178
     2016.09308        -1.25593         9.90398
     2016.09582        -9.64298         4.92944
     2016.09856        -6.69503         4.92944
     2016.10130       -19.48308         4.88253
     2016.10403       -12.63613         4.85728
     2016.10677       -14.11917         4.85096
     2016.10951       -11.39622         4.97634
     2016.11225        -9.16827         5.46883
     2016.11498        -7.26732         4.88524
     2016.11772       -11.56537         4.88073
     2016.12046        -5.68142         5.26769
     2016.12320        -9.74247         4.85187
     2016.12594        -8.06352         4.93305
     2016.12867        -0.37456         4.82210
     2016.13141         3.13939         4.81037
     2016.13415         3.51234         4.79324
     2016.13689        -6.76171         5.32542
     2016.13957        -5.28184         4.92493
     2016.14239       -15.51477         4.95018
     2016.14510       -14.03986         4.79865
     2016.14784        -9.68490         4.84916
     2016.15058       -10.08695         4.78151
     2016.15331        -7.90000         4.90869
     2016.15605        -4.24205         4.79233
     2016.15879        -0.30210         4.92222
     2016.16153        -6.39115         4.90238
     2016.16427        -3.14220         4.89155
     2016.16700        -2.06624         4.87261
     2016.16974        -0.24029         4.80045
     2016.17248        -3.92234         4.96101
     2016.17522        -3.77339         4.87351
     2016.17796         4.04456         4.97003
     2016.18069        -1.70349         4.89246
     2016.18343        -5.79054         5.67449
     2016.18617        -1.84858         4.80857
     2016.18891        -1.39963         4.94658
     2016.19164        -2.76368         4.71927
     2016.19438         4.51027         4.73821
     2016.19710         1.55119         4.77880
     2016.20003        -4.63658         5.26949
     2016.20260        -8.71688         5.10352
     2016.20533        -6.32192         5.11254
     2016.20807       -10.50997         4.92403
     2016.21081        -5.67402         4.86179
     2016.21355        -3.06307         4.84285
     2016.21629        -5.77112         5.53017
     2016.21902        -1.74817         4.81218
     2016.22176        -4.68422         4.70935
     2016.22450       -10.17426         4.79053
     2016.22724       -10.49831         4.94297
     2016.22997        -2.52336         4.71025
     2016.23271        -8.51141         4.80677
     2016.23545        -7.18646         4.76527
     2016.23819       -10.83551         4.71837
     2016.24093        -1.83556         4.80767
     2016.24366        -4.40460         4.71566
     2016.24640        -5.84065         4.75716
     2016.24914        -5.79970         4.75174
     2016.25188        -6.29075         5.36240
     2016.25462        -6.57880         4.94297
     2016.25735        -6.19585         4.79414
     2016.26009       -10.94790         4.74002
     2016.26283       -11.32794         4.76888
     2016.26557        -4.38899         4.76708
     2016.26830        -7.44104         4.74814
     2016.27104        -6.65109         4.88163
     2016.27378        -5.85414         4.72468
     2016.27652        -6.69619         4.75986
     2016.27926        -8.85824         4.78241
     2016.28199       -13.61628         5.26318
     2016.28473       -11.75133         4.76527
     2016.28747       -17.15538         5.28392
     2016.29021       -15.04943         4.77520
     2016.29295       -10.70748         4.78331
     2016.29568       -11.20153         4.77790
     2016.29842        -8.18658         4.89877
     2016.30116        -8.76262         4.86720
     2016.30390        -9.64667         4.87261
     2016.30663        -7.70372         4.82300
     2016.30937       -12.69177         4.76437
     2016.31211       -12.07682         4.79053
     2016.31485        -8.58087         4.80226
     2016.31759        -4.24292         4.79684
     2016.32032       -10.83796         4.80857
     2016.32306       -10.00801         4.76257
     2016.32580        -8.56506         4.81669
     2016.32854       -12.44611         4.78602
     2016.33128       -14.72016         4.88253
     2016.33401        -8.48821         4.81849
     2016.33675        -5.73926         4.87171
     2016.33949        -7.05030         4.80857
     2016.34223        -4.97835         4.88524
     2016.34496        -4.97940         4.92763
     2016.34770        -4.69745         4.84555
     2016.35044        -5.17550         5.05662
     2016.35318        -4.82455         4.83022
     2016.35592       -13.75160         4.74002
     2016.35865       -15.08664         4.75535
     2016.36139       -10.62569         4.77700
     2016.36413        -4.17174         4.87712
     2016.36687        -4.51279         4.79775
     2016.36961         4.90016         4.78963
     2016.37234         0.86111         4.79684
     2016.37508        -5.70494         4.85908
     2016.37782       -13.83398         4.81849
     2016.38056       -10.00503         4.92854
     2016.38329        -3.44208         4.76527
     2016.38603        -4.87813         4.75806
     2016.38877        -0.47618         4.76076
     2016.39151        -4.44423         4.72108
     2016.39425       -12.79028         4.79504
     2016.39698         1.44367         4.81669
     2016.39972         3.15263         4.77790
     2016.40246        -5.33442         4.83202
     2016.40520       -12.87047         4.77339
     2016.40794       -14.21652         4.74814
     2016.41067       -12.18757         4.81759
     2016.41341        -7.34362         4.76888
     2016.41615        -9.10367         4.76888
     2016.41889       -10.99971         4.79955
     2016.42162        -2.03276         4.80586
     2016.42436        -6.04281         4.73100
     2016.42710        -1.62886         4.78422
     2016.42984        -2.11291         4.82210
     2016.43258        -4.35296         4.77971
     2016.43531         3.66099         4.79955
     2016.43805         2.60595         4.77429
     2016.44079        -4.46010         4.81849
     2016.44354        -6.29413         4.78782
     2016.44626        -9.31520         4.80316
     2016.44900        -5.52825         4.80045
     2016.45174        -8.48630         4.74994
     2016.45448        -0.58835         4.83022
     2016.45722        -2.44839         4.73821
     2016.45995        -1.66544         4.76257
     2016.46269       -10.97749         4.79053
     2016.46543        -7.83454         4.73641
     2016.46817        -3.38659         4.76167
     2016.47091         6.42536         4.78241
     2016.47364        -3.86869         4.85006
     2016.47638         2.77327         4.84194
     2016.47912        -4.60578         4.87171
     2016.48186        -2.89383         5.00701
     2016.48459        -4.65588         4.73010
     2016.48733        -3.54893         4.83743
     2016.49007        -3.50498         4.78241
     2016.49281        -1.42703         4.77429
     2016.49555        -0.50707         4.77249
     2016.49828        -1.68212         4.82571
     2016.50102         1.37283         4.77159
     2016.50376        12.29078         5.09901
     2016.50650         1.02273         4.87351
     2016.50924         2.66768         4.82120
     2016.51197        -5.51137         4.80406
     2016.51471         3.28159         4.77429
     2016.51745        11.94554         4.97634
     2016.52019        -0.11951         4.81037
     2016.52292        -1.58756         4.75535
     2016.52566         2.94139         4.75716
     2016.52840        -2.36266         4.80406
     2016.53114        -3.54371         4.82210
     2016.53388        -1.06375         4.85998
     2016.53661         1.41620         4.81579
     2016.53935         4.06515         4.73461
     2016.54209         0.57910         4.73731
     2016.54483         2.09205         4.76076
     2016.54757         1.01500         4.76888
     2016.55030         2.02595         4.82932
     2016.55304         0.95391         4.78061
     2016.55578         4.65586         4.96913
     2016.55852         2.46081         4.75806
     2016.56125        -1.30624         4.74904
     2016.56399         4.30071         4.77159
     2016.56673         9.90266         4.88885
     2016.56947        -2.85839         5.01423
     2016.57221        -0.03043         4.79414
     2016.57494         2.61952         4.83292
     2016.57768         4.72747         4.77520
     2016.58042         4.54042         4.69311
     2016.58316         0.52637         4.75355
     2016.58590         3.91132         4.78963
     2016.58863         3.00027         4.75896
     2016.59137         2.30123         4.79324
     2016.59411         6.35218         4.88073
     2016.59685         6.79713         4.78061
     2016.59958         1.97208         4.75806
     2016.60232         3.18403         4.75986
     2016.60506         6.67898         4.72288
     2016.60780         4.75293         4.71476
     2016.61054         2.68689         4.72649
     2016.61327        -0.52716         4.73010
     2016.61601         0.42879         4.78422
     2016.61875        -1.20026         4.75355
     2016.62149        -0.48331         4.72468
     2016.62423         5.00164         4.81037
     2016.62696         1.82359         4.71657
     2016.62970         1.22355         4.73100
     2016.63244        -2.33750         4.82841
     2016.63518         3.74145         4.74092
     2016.63791         9.42140         4.85547
     2016.64065        12.99735         4.86359
     2016.64339         2.73330         4.70213
     2016.64613        -1.23275         4.72017
     2016.64887         0.68721         4.76347
     2016.65183         5.99549         5.40660
     2016.65434         0.88111         4.87622
     2016.65708         4.94206         4.70574
     2016.65982         0.25501         4.77339
     2016.66256        -0.61904         4.79053
     2016.66529         1.17691         4.85006
     2016.66803        -1.64214         5.00160
     2016.67077         2.76182         4.80677
     2016.67351         7.59777         4.68590
     2016.67624         7.07672         4.71747
     2016.67898         3.26467         4.69582
     2016.68172         9.62062         4.77069
     2016.68446         6.30557         4.94387
     2016.68720         4.94052         4.98987
     2016.68993         1.74748         4.74904
     2016.69267         0.12843         4.73731
     2016.69541         8.63838         4.75716
     2016.69815         5.01333         4.72017
     2016.70089         4.15328         4.70394
     2016.70362         4.72723         4.78963
     2016.70636         0.21218         4.98987
     2016.70910         2.62514         5.10443
     2016.71184         9.60709         4.77429
     2016.71457         4.05204         4.81488
     2016.71731        15.98399         4.79143
     2016.72005         7.37494         4.70755
     2016.72279         5.91089         4.70574
     2016.72553         6.54284         4.84645
     2016.72826         5.70480         4.90508
     2016.73100         3.76875         4.75265
     2016.73374         4.55670         4.68951
     2016.73648         5.33665         4.76888
     2016.73921        11.42760         4.83202
     2016.74195         4.08455         4.70845
     2016.74469         3.12450         4.70484
     2016.74743        -1.29654         4.70123
     2016.75017         5.56241         4.72919
     2016.75290         4.92436         4.74994
     2016.75564         6.62931         4.72288
     2016.75838         8.34826         4.71296
     2016.76112         8.29221         4.68500
     2016.76386         1.65816         4.68229
     2016.76659         2.19012         4.84645
     2016.76933         4.89107         4.83473
     2016.77207         1.73002         4.76437
     2016.77481         2.48497         4.67958
     2016.77754         2.22192         4.65703
     2016.78028         1.51787         4.76076
     2016.78302        -4.87318         4.81398
     2016.78576         7.51378         4.77249
     2016.78850        15.01473         4.74723
     2016.79123        10.39868         4.71115
     2016.79397        10.78063         4.69853
     2016.79671         4.71658         4.75896
     2016.79945        -7.73947         4.74182
     2016.80219        -2.04852         4.78782
     2016.80492        -3.48256         4.68049
     2016.80766         3.38039         4.72198
     2016.81040         0.83034         4.77159
     2016.81314        -1.50871         4.79775
     2016.81587         3.22724         4.79775
     2016.81861        -4.67181         4.73551
     2016.82135         1.12114         4.75806
     2016.82409         1.23910         4.64260
     2016.82683        -4.47395         4.72559
     2016.82956        -1.31300         4.69492
     2016.83230         1.66695         4.69492
     2016.83504         1.82590         4.68770
     2016.83778        -3.57315         4.67958
     2016.84052        -5.89720         4.83653
     2016.84325        -5.64124         4.74904
     2016.84599        -2.36729         4.84375
     2016.84873         2.28866         4.87261
     2016.85147        -1.47939         4.80045
     2016.85420        -0.17544         4.69311
     2016.85694         0.21151         4.80677
     2016.85968        -4.40754         4.81579
     2016.86242         1.88642         4.82210
     2016.86516        -2.30763         5.00611
     2016.86789         2.25732         4.70574
     2016.86965        -0.66115         9.26265
     2016.87337         8.03522         4.76437
     2016.87611         0.28617         4.74272
     2016.87885         3.25912         4.73280
     2016.88158        -9.36892         4.72829
     2016.88432         2.83503         4.74814
     2016.88706         2.49598         4.71476
     2016.88980         2.78193         4.72288
     2016.89253         2.08088         4.77159
     2016.89527         1.13883         4.74543
     2016.89801         1.80978         4.76167
     2016.90075        -4.29326         4.73370
     2016.90349        -1.34331         4.81128
     2016.90622         4.37364         4.79865
     2016.90896         4.03159         4.74543
     2016.91170        -2.31846         4.73280
     2016.91444        -0.16551         4.77610
     2016.91718        -0.39356         4.81398
     2016.91991        -6.40560         4.78151
     2016.92265         1.54235         4.71115
     2016.92539        -1.50370         4.72108
     2016.92813        -5.37775         4.74363
     2016.93086        -4.67180         4.72559
     2016.93360        -3.36885         4.68139
     2016.93634        -1.97890         4.70304
     2016.93908        -9.01595         4.76888
     2016.94182         0.67001         4.82661
     2016.94455        -0.09904         4.87351
     2016.94729        -0.07109         4.75625
     2016.95003         3.41086         5.65916
     2016.95368         1.19613         7.93130
     2016.95551        -1.63624         4.68319
     2016.95824         3.80071         4.76437
     2016.96098         1.46567         4.73461
     2016.96372        -4.72638         4.80767
     2016.96646        -1.50043         4.73551
     2016.96919        -1.00548         4.84194
     2016.97193        -4.61153         4.74994
     2016.97467        -0.92258         4.80316
     2016.97741        -6.82863         4.76347
     2016.98015        -9.11267         4.71296
     2016.98288        -0.35172         4.73821
     2016.98562         1.41323         4.69672
     2016.98836         4.68418         4.74633
     2016.99218        -2.01930        10.13399
     2016.99384         4.27808         5.15313
     2016.99657        -0.31797         4.74543
     2016.99931         1.00099         4.71115
     2017.00205       -16.51206         4.73551
     2017.00479        -4.03911         4.71657
     2017.00752        -5.40916         4.69402
     2017.01217         4.02754         8.48964
     2017.01574         1.40769         4.72108
     2017.01848         0.93165         4.73461
     2017.02121         4.11760         4.69402
     2017.02395         0.15755         4.74543
     2017.02669         2.97150         4.76167
     2017.02943         7.13245         4.68590
     2017.03216        -3.15960         4.70935
     2017.03490        -5.30865         4.70664
     2017.03764        -6.48069         4.72649
     2017.04038        -6.77974         4.72739
     2017.04312        -0.76379         4.70123
     2017.04585         1.51016         4.94928
     2017.04859         7.44411         4.98175
     2017.05133         6.55906         4.72288
     2017.05407         3.71701         4.76076
     2017.05681        10.54697         4.89787
     2017.05954        -1.10408         4.75445
     2017.06228        -0.36813         4.72919
     2017.06502        -6.94118         4.73100
     2017.06776        -9.78823         4.76888
     2017.07049        -4.64528         4.77429
     2017.07323       -10.36633         4.76257
     2017.07597       -10.11337         4.73912
     2017.07871        -1.21342         4.94838
     2017.08145        -6.57347         4.75896
     2017.08418        -6.39452         4.78331
     2017.08692        -3.77057         4.72017
     2017.08966        -5.64862         4.69041
     2017.09240       -10.56467         4.78151
     2017.09514        -1.73671         4.80586
     2017.09787        -3.20476         4.75174
     2017.10061        -2.24481         4.76618
     2017.10335        -6.80486         4.76888
     2017.10609        -4.31491         4.68680
     2017.10882        -1.12196         4.77429
     2017.11156        -0.29101         5.44899
     2017.11430        -6.75705         4.77159
     2017.11704       -19.27610         4.75084
     2017.11978        -9.60615         4.68229
     2017.12251       -10.88420         4.78241
     2017.12525        -0.67125         4.82120
     2017.12799         1.62470         4.78873
     2017.13073         2.28265         4.76978
     2017.13347         4.40961         4.75174
     2017.13620         3.21156         4.71115
     2017.13894         2.81251         4.77339
     2017.14168        -6.74854         4.75716
     2017.14442        -7.67559         4.79143
     2017.14715        -8.13464         4.79775
     2017.14989        -5.63869         4.77249
     2017.15263         0.93727         4.78241
     2017.15537       -17.92778         4.77249
     2017.15811         3.56417         4.88614
     2017.16084        -0.12688         4.75896
     2017.16358        -5.49793         4.73641
     2017.16632         0.49102         4.76167
     2017.16906        -2.79503         4.76527
     2017.17180       -12.25907         4.76347
     2017.17453         1.93688         4.74453
     2017.17727        -5.62117         4.85728
     2017.18001        -3.10422         4.73370
     2017.18275        -0.96127         4.86089
     2017.18548        -6.24832         4.76347
     2017.18822        -6.92437         4.78512
     2017.19096       -12.72942         4.91050
     2017.19370        -2.12646         4.73821
     2017.19644        -6.77251         4.79143
     2017.19917         0.08444         4.78692
     2017.20191        -4.06261         4.79053
     2017.20465        -1.39966         4.91681
     2017.20739        -3.53971         4.75174
     2017.21013         2.06724         4.77069
     2017.21286        -4.36280         4.77520
     2017.21560        -4.92085         4.79504
     2017.21834        -2.02290         4.76888
     2017.22108         1.12405         4.75174
     2017.22381        -3.64700         4.85638
     2017.22655        -1.07505         4.90418
     2017.22929        -4.39610         4.77700
     2017.23203        -7.31814         4.77159
     2017.23477        -7.96719         4.74182
     2017.23750       -10.89124         4.75084
     2017.24024        -9.81129         4.74543
     2017.24298        -4.51734         4.78782
     2017.24572       -13.60639         4.76798
     2017.24846        -8.03944         4.77159
     2017.25119        -7.80348         4.82841
     2017.25393       -18.84253         4.74092
     2017.25667        -6.75358         4.78512
     2017.25941       -14.70263         4.77069
     2017.26214        -6.75568         4.86630
     2017.26488         0.02727         4.77610
     2017.26634         8.82738        20.37531
     2017.27036        -6.11682         4.74904
     2017.27310        -6.64387         4.94838
     2017.27583        -7.70692         4.76437
     2017.27857       -11.45897         4.76167
     2017.28131       -10.77802         4.75084
     2017.28405       -13.08607         4.78692
     2017.28679       -13.29212         4.79414
     2017.28952       -16.25516         4.75896
     2017.29226        -8.02021         4.79865
     2017.29500        -9.99226         4.73912
     2017.29774       -10.48931         4.80135
     2017.30047       -15.04936         4.73190
     2017.30321       -11.78941         4.75535
     2017.30595        -8.61146         4.77249
     2017.30869       -11.16350         4.71657
     2017.31143       -12.37255         4.70484
     2017.31416       -12.45460         4.74543
     2017.31690        -8.17565         4.80496
     2017.31964        -5.73070         4.85006
     2017.32238       -17.30975         4.83743
     2017.32512       -22.66980         4.72017
     2017.32785       -11.03084         4.84014
     2017.33059       -15.97189         4.76978
     2017.33333       -18.34794         4.77790
     2017.33607       -17.06599         4.79053
     2017.33880       -15.97804         4.79143
     2017.34154       -17.10709         5.04670
     2017.34428       -15.27714         4.78331
     2017.34702       -15.20118         4.75084
     2017.34976        -7.62523         4.77610
     2017.35249       -13.72628         4.73010
     2017.35523       -13.88333         4.69492
     2017.35797       -12.41138         4.78602
     2017.36071        -9.16143         4.77429
     2017.36344        -8.79448         4.78602
     2017.36618       -11.37752         4.77700
     2017.36892       -10.05057         4.73100
     2017.37166       -14.33462         4.75265
     2017.37440       -10.94867         4.74272
     2017.37713        -9.19672         4.81037
     2017.37987       -17.78777         4.85457
     2017.38261       -13.72382         4.81037
     2017.38535       -14.03186         4.72378
     2017.38809        -9.16891         4.73912
     2017.39082        -7.58596         4.79775
     2017.39356       -11.61401         5.02505
     2017.39630        -2.39706         4.96552
     2017.39904        -7.45411         4.78331
     2017.40177       -10.90516         4.73821
     2017.40451        -9.44020         4.96101
     2017.40725        -7.12025         4.83473
     2017.40999        -6.63130         4.82030
     2017.41273        -4.15035         4.82751
     2017.41546       -12.14940         4.81308
     2017.41820       -11.87645         4.84285
     2017.42094        -8.39950         4.76708
     2017.42368        -8.85254         4.76978
     2017.42642       -10.50059         4.77159
     2017.42915        -8.87664         4.76618
     2017.43189        -2.76469         4.79233
     2017.43463        -6.61574         4.77610
     2017.43737        -8.31379         4.81939
     2017.44010        -1.30484         4.82571
     2017.44284         0.96312         4.78331
     2017.44558        -2.62093         4.74092
     2017.44832        -2.57698         4.74272
     2017.45106        -1.81703         4.77700
     2017.45379        -3.70908         4.93665
     2017.45653        -3.74813         4.95199
     2017.45927        -6.37318         4.81308
     2017.46201        -6.50823         4.78782
     2017.46475        -5.03927         4.81218
     2017.46748       -10.75832         4.97634
     2017.47022        -4.74037         4.84104
     2017.47296        -3.36042         4.77249
     2017.47570        -9.22847         4.76167
     2017.47843        -8.81252         4.74092
     2017.48117        -8.17757         4.96281
     2017.48391        -2.93561         4.89787
     2017.48665        -5.29366         4.78151
     2017.48939        -4.57271         4.75174
     2017.49212        -3.88376         4.73280
     2017.49486        -7.26981         4.82210
     2017.49760         0.63614         4.86991
     2017.50034        -0.05991         4.82210
     2017.50308        -0.89195         4.78873
     2017.50581        -5.72600         4.76347
     2017.50855        -4.61205         4.75806
     2017.51129        -0.22410         4.85367
     2017.51403        -0.71915         4.86540
     2017.51676         0.53980         4.79233
     2017.51950         1.02475         4.90869
     2017.52224        -5.19129         4.85277
     2017.52498        -0.74934         4.75806
     2017.52772        -3.44539         4.96101
     2017.53045         0.01456         4.82390
     2017.53319        -7.66449         4.78873
     2017.53593         0.76746         4.86630
     2017.53867        -1.24959         4.76347
     2017.54141         3.64837         4.77159
     2017.54414        -0.56068         4.79684
     2017.54688        -0.01473         4.79053
     2017.54962        -0.28578         4.85908
     2017.55236        -0.60483         4.79233
     2017.55509         5.01012         4.79775
     2017.55783         4.22707         4.85096
     2017.56057        -1.25097         4.78241
     2017.56331         0.35198         4.78873
     2017.56605        -3.12807         4.77159
     2017.56878        -1.70912         4.81488
     2017.57152        -0.50117         4.79775
     2017.57426        -0.98822         4.78963
     2017.57700        -5.26027         4.82030
     2017.57974        -6.10231         4.75445
     2017.58521        -3.96541         7.64446
     2017.58795        -7.58346         5.27130
     2017.59069         1.27349         4.97995
     2017.59342        -3.07456         4.72919
     2017.59616        -2.18561         4.86991
     2017.59890         0.87635         4.82030
     2017.60164        -3.54570         4.86359
     2017.60438        -5.78675         4.76888
     2017.60708        -7.63885         4.90689
     2017.61258         3.50609         5.14772
     2017.61532        -3.57396         5.40028
     2017.61807        -0.89699         5.27400
     2017.62080        -2.24704         5.26408
     2017.62354         6.96091         5.29024
     2017.62628        -0.76914         5.14321
     2017.62834         6.96383         7.73196
     2017.63175        -4.04724         5.04850
     2017.63450        -4.54128         5.13780
     2017.63997         2.33062         5.26588
     2017.64271         5.34457         4.87983
     2017.64544         5.75352         4.83834
     2017.64818        -1.02553         4.84285
     2017.65092         4.32842         4.76618
     2017.65366         2.57037         4.75986
     2017.65639         1.66033         4.77429
     2017.65913         1.04128         4.82571
     2017.66187        -0.98477         4.81849
     2017.66461         7.83918         4.92132
     2017.66735         5.47313         4.93214
     2017.67008         8.40608         4.76076
     2017.67282         5.04503         4.90779
     2017.67556         2.02399         4.76798
     2017.67830        -0.40306         4.75896
     2017.68104         4.51789         4.82210
     2017.68377         5.55984         4.87171
     2017.68651         9.84479         4.97905
     2017.68925        12.77374         4.78873
     2017.69199         5.86269         4.81488
     2017.69472         4.95065         4.82300
     2017.69746         6.94660         4.93124
     2017.70020        12.87555         4.98266
     2017.70294         7.78850         4.99979
     2017.70568         4.38345         4.86089
     2017.70841         6.16740         4.75355
     2017.71115         2.15035         4.87261
     2017.71389        12.89931         4.80226
     2017.71663         8.95926         4.76527
     2017.71937         6.72721         4.73912
     2017.72210         7.20716         4.84645
     2017.72484         4.81211         4.78963
     2017.72758        10.21406         4.75174
     2017.73032         2.06401         4.77159
     2017.73305         6.92796         4.81218
     2017.73579         2.14392         4.79775
     2017.73853         4.33787         5.10803
     2017.74127         1.77482         4.74814
     2017.74401        10.45677         4.82390
     2017.74674         3.52272         4.80226
     2017.74948         2.81367         4.75896
     2017.75222         1.21862         4.80316
     2017.75496         4.06158         4.77249
     2017.75770        -2.81647         4.84555
     2017.76043        -2.05552         4.75716
     2017.76317         4.85843         4.82481
     2017.76591         3.53538         4.93485
     2017.76865         9.02633         4.75084
     2017.77138        -0.52072         4.76978
     2017.77412         1.46024         4.81579
     2017.77686         3.82019         4.74814
     2017.77960         7.25914         4.87712
     2017.78234        -0.99991         4.78963
     2017.78507        -5.25496         4.75716
     2017.78781         2.88599         4.74904
     2017.79055         1.83294         4.83653
     2017.79329         9.57590         4.91410
     2017.79603         7.56585         4.82661
     2017.79876        13.23380         4.94838
     2017.80150         9.63475         4.85638
     2017.80424         7.78870         4.78422
     2017.80698         5.50965         5.05572
     2017.80971        -1.65040         4.81037
     2017.81245        -6.78344         4.93756
     2017.81519        -0.57449         4.88344
     2017.81793       -10.14254         4.76708
     2017.82067        -8.78159         4.86359
     2017.82340        -3.36764         4.75084
     2017.82614        -4.74969         4.84194
     2017.82888        -7.33274         4.78602
     2017.83162         0.97022         4.80857
     2017.83436         4.51917         4.74543
     2017.83709         2.56312         4.86900
     2017.83983        -5.84293         4.74994
     2017.84257        -1.06798         4.75174
     2017.84531        -1.12603         4.72919
     2017.84804        -1.72108         4.70213
     2017.85078         0.14588         4.72829
     2017.85352         4.64283         4.74904
     2017.85626         3.39978         4.93305
     2017.85900         1.75373         4.83924
     2017.86173        -0.36832         4.82120
     2017.86447        -1.17837         4.72017
     2017.86721         2.87958         4.82030
     2017.86995         1.85054         5.08819
     2017.87269         3.09449         4.80045
     2017.87542        10.11944         4.71657
     2017.87816         7.32139         4.70845
     2017.88090         8.19034         4.73280
     2017.88364         7.57229         4.87532
     2017.88637         7.69624         4.77700
     2017.88911         0.10220         5.07015
     2017.89185         0.75515         5.22169
     2017.89459         8.53510         4.85547
     2017.89733         4.04505         4.78151
     2017.90006         3.28200         4.73912
     2017.90280         0.57695         5.03317
     2017.90554         7.42090         4.83563
     2017.90828         4.30186         4.75535
     2017.91102         4.17781         4.84916
     2017.91375        -0.78924         4.82751
     2017.91650         4.22672         4.83473
     2017.91923         6.16666         4.83112
     2017.92197         4.19361         4.75084
     2017.92470        -1.59944         4.73280
     2017.92744        -4.39248         4.73551
     2017.93018        -3.17653         4.78963
     2017.93292        -8.42758         4.70394
     2017.93566        -5.44763         4.88614
     2017.93839        -3.73768         4.79594
     2017.94113        -1.50173         4.78873
     2017.94387        -3.45178         4.76978
     2017.94661        -6.14082         4.82210
     2017.94935        -4.37487         4.81128
     2017.95208       -10.22092         4.90418
     2017.95482        -8.52997         4.77159
     2017.95756        -1.79602         4.85096
     2017.96030        -0.33907         4.74723
     2017.96303         2.11488         4.73821
     2017.96577         5.96784         4.88253
     2017.96851         7.39079         4.74182
     2017.97125         0.78374         4.73280
     2017.97399         1.35069         4.70574
     2017.97672         0.64164         4.67598
     2017.97946        -1.13041         4.70755
     2017.98220         0.90954         4.71747
     2017.98494        -1.03450         4.71025
     2017.98767        -3.60655         4.78331
     2017.99041        -6.15960         4.73912
     2017.99315        -0.40565         4.74363
     2017.99589         1.48230         4.79324
     2017.99863         0.38025         4.73280
     2018.00136        -8.05980         4.72378
     2018.00410        -8.83685         4.73280
     2018.00684        -5.11689         4.73912
     2018.00958       -10.28094         4.78151
     2018.01232        -8.01499         4.75716
     2018.01505         0.67296         4.76708
     2018.01779        -2.87009         4.73190
     2018.02053         3.54386         4.80857
     2018.02327        -0.84219         4.71476
     2018.02600         4.51377         4.90508
     2018.02874        -1.29728         4.74723
     2018.03148        -7.60333         4.72649
     2018.03422        -8.83538         4.76437
     2018.03696       -10.44043         4.71206
     2018.03969       -12.92448         4.76708
     2018.04243        -1.21053         4.82751
     2018.04517        -7.58257         4.78151
     2018.04791        -4.35262         4.96371
     2018.05065         0.07733         4.70574
     2018.05338         0.72328         4.70213
     2018.05612        -3.30477         4.76167
     2018.05886        -7.51982         4.75084
     2018.06160        -4.42487         4.76347
     2018.06433        -1.97591         4.87081
     2018.06707         4.13704         4.85818
     2018.06981         0.29199         4.82120
     2018.07255        -7.96006         4.91230
     2018.07529       -11.04511         4.84285
     2018.07802        -6.13016         4.86540
     2018.08076         0.21779         4.89336
     2018.08350        -5.83425         4.78331
     2018.08624        -8.07530         4.80767
     2018.08898        -6.89535         4.90238
     2018.09171        -5.71340         4.85367
     2018.09445        -8.39445         4.85277
     2018.09719        -5.01350         4.96371
     2018.09993        -4.21455         4.81398
     2018.10266       -11.66959         4.83834
     2018.10540         2.51436         5.01423
     2018.10814        -3.21669         4.85638
     2018.11088        -4.79774         4.83112
     2018.11362        -5.14979         4.84285
     2018.11635        -3.75184         4.87081
     2018.11909        -6.88889         4.91771
     2018.12183         0.21607         4.88614
     2018.12457        -5.82498         4.79504
     2018.12731        -9.34703         4.83022
     2018.13004         3.23492         5.12878
     2018.13278         1.42387         4.86720
     2018.13552         1.48582         4.80496
     2018.13826        -1.53823         4.84826
     2018.14099        -3.78127         4.85818
     2018.14373        -5.31432         4.82571
     2018.14647         2.01563         5.10262
     2018.14921         0.08458         4.90508
     2018.15195         6.56553         4.89877
     2018.15468        -3.94952         4.81218
     2018.15742         2.97143         4.86179
     2018.16016        -0.06661         4.83292
     2018.16290        -5.91566         4.93485
     2018.16564        -6.59471         4.90057
     2018.16837        -8.19976         4.81037
     2018.17111        -4.53681         4.83383
     2018.17385        -3.33186         4.84285
     2018.17659        -4.45091         4.83383
     2018.17932        -5.53495         4.83202
     2018.18206        -2.71100         4.92854
     2018.18480        -0.24005         4.93305
     2018.18754        -9.06410         4.80586
     2018.19028       -12.18815         4.82390
     2018.19301       -10.33920         4.78963
     2018.19575         1.53575         4.85367
     2018.19849        -4.44129         4.85277
     2018.20123        -1.12234         4.89697
     2018.20397         0.69461         4.78151
     2018.20670        -5.02444         4.78602
     2018.20944        -6.98049         4.77971
     2018.21218        -8.54854         4.82571
     2018.21492       -22.10359         4.84104
     2018.21765        -5.07663         4.78873
     2018.22039        -0.16268         4.75174
     2018.22313        -0.54673         4.75535
     2018.22587       -10.10578         4.72829
     2018.22861       -11.41383         4.73280
     2018.23134        -8.19388         4.71476
     2018.23408       -10.96693         4.73370
     2018.23682        -7.20497         4.71927
     2018.23956        -8.16802         4.72017
     2018.24230        -8.63307         4.75986
     2018.24503       -12.95412         4.73010
     2018.24777        -3.88917         4.81218
     2018.25051        -2.90622         4.71657
     2018.25325        -5.65727         4.74272
     2018.25598        -5.56032         4.72919
     2018.25872        -7.99136         4.87893
     2018.26146        -3.28641         4.86810
     2018.26420        -6.00146         4.76888
     2018.26694        -6.67251         4.68590
     2018.26967       -12.29356         4.72198
     2018.27241        -8.49961         4.82932
     2018.27515         3.24134         4.72288
     2018.27789        -1.68270         4.88253
     2018.28062        -4.09975         4.87171
     2018.28336        -9.96480         4.79684
     2018.28610        -6.08085         5.01062
     2018.28884        -3.69490         4.77339
     2018.29158         1.44505         4.87802
     2018.29431        -6.12200         4.76798
     2018.29705       -11.15104         4.68049
     2018.29979        -9.34609         4.72198
     2018.30253        -6.49714         4.74994
     2018.30527        -8.68219         4.73551
     2018.30800       -12.80624         4.70033
     2018.31074        -9.72329         4.69041
     2018.31348        -9.56634         4.66876
     2018.31622       -11.82838         4.67417
     2018.31895        -1.08143         4.85818
     2018.32169        -6.29548         4.72468
     2018.32443        -4.00553         4.71566
     2018.32717        -9.06258         4.71657
     2018.32991        -5.85963         4.87081
     2018.33264        -6.96568         4.72017
     2018.33538       -10.29872         5.11886
     2018.33812        -3.74777         4.92042
     2018.34086        -5.04682         4.68951
     2018.34360        -5.41587         4.75716
     2018.34633        -6.17092         4.71115
     2018.34907       -10.07097         4.72108
     2018.35181        -4.34602         4.92312
     2018.35455        -5.56006         4.72108
     2018.35728        -3.18511         4.72739
     2018.36002        -7.66116         4.73461
     2018.36276        -6.64621         4.77429
     2018.36550        -5.40426         4.70213
     2018.36824        -2.40831         4.77429
     2018.37097        -6.07336         4.86449
     2018.37371        -4.60840         4.70755
     2018.37645        -6.60245         4.87712
     2018.37919        -4.30850         4.70033
     2018.38193        -0.89955         4.74182
     2018.38466        -1.19860         4.72829
     2018.38740        -6.05765         4.71837
     2018.39014         0.36830         4.73731
     2018.39288         0.09026         4.81849
     2018.39561         1.35021         4.77159
     2018.39835         4.26616         4.88163
     2018.40109        -2.18689         4.75355
     2018.40383         4.89506         4.80496
     2018.40657        -1.80499         4.77159
     2018.40930         7.88496         4.82030
     2018.41204         3.61092         4.76978
     2018.41478        -1.07813         4.75355
     2018.42299         2.22072         4.73280
     2018.42573         1.50967         4.73731
     2018.42847         0.02662         4.71927
     2018.43121         1.60358         4.77429
     2018.43394        -1.96047         4.71747
     2018.43668        -2.97252         4.68860
     2018.43942         3.96843         4.72649
     2018.44216        -0.95362         4.70755
     2018.44490        -1.97567         4.77880
     2018.44763        -4.06472         4.84194
     2018.45037        -2.13476         4.69762
     2018.45311        -4.40081         4.68500
     2018.45585         2.56014         4.73010
     2018.45859        -2.80091         4.76347
     2018.46132        -8.58296         4.81849
     2018.46406         0.01399         4.72288
     2018.46680         3.01894         4.69943
     2018.46954        -1.37810         4.72198
     2018.47227         4.48385         4.84555
     2018.47501         6.33080         4.77429
     2018.47775         2.83675         4.73821
     2018.48049         1.27770         4.80677
     2018.48323         0.40065         4.69311
     2018.48596        -6.75340         4.74002
     2018.48870         2.45156         4.74453
     2018.49144         1.00351         4.72198
     2018.49418        -1.45254         4.83834
     2018.49692         0.02141         4.87442
     2018.49965         4.07136         4.75535
     2018.50239        -0.83169         4.74633
     2018.50513        -2.95574         4.75806
     2018.50787         2.96822         4.77159
     2018.51060         4.31017         4.86449
     2018.51334        -1.42588         4.72198
     2018.51608        -1.41193         4.72559
     2018.51882        -3.24998         4.73821
     2018.52156        -0.11803         4.78873
     2018.52429        -4.86008         4.72288
     2018.52703        -3.25413         4.73551
     2018.52977        -0.49517         4.76437
     2018.53251         0.98178         4.75265
     2018.53525         0.09273         4.70394
     2018.53798         1.87468         4.76167
     2018.54072         4.04663         4.70755
     2018.54346         1.22458         4.77700
     2018.54620         2.76953         4.74543
     2018.54893        -2.65051         4.70304
     2018.55167        -1.18556         4.81308
     2018.55441        -2.19361         4.71837
     2018.55715        -3.97466         4.86269
     2018.55989         0.83029         4.89336
     2018.56262         0.74124         4.72468
     2018.56536        -2.12181         4.74092
     2018.56810         5.28515         4.75445
     2018.57084         2.44310         4.69311
     2018.57357         2.30705         4.85187
     2018.57631        -1.70000         5.00430
     2018.57905        -3.78605         4.94748
     2018.58179         4.24390         4.81939
     2018.58453        -8.97815         4.87351
     2018.58726         3.31281         4.67417
     2018.59000         4.24176         4.65343
     2018.59274         1.27771         4.70664
     2018.59548         1.38566         4.76167
     2018.59822         5.93461         4.73280
     2018.60095        -0.45644         4.72017
     2018.60369         2.40151         4.69311
     2018.60643         3.62947         4.72017
     2018.60917        -2.91258         4.76167
     2018.61190         5.60637         4.72829
     2018.61464         0.54532         4.71566
     2018.61738         4.79827         4.67868
     2018.62012         6.69022         4.67056
     2018.62286         0.71517         4.81037
     2018.62559         3.96113         4.92673
     2018.62833        -2.19692         4.70755
     2018.63107         2.10603         4.70484
     2018.63381         2.84698         4.88524
     2018.63655         5.04993         4.70213
     2018.63928         3.83088         5.07105
     2018.64202         6.21083         5.09992
     2018.64476         5.25179         4.72468
     2018.64750         0.44374         4.69582
     2018.65023        12.65969         4.87622
     2018.65297         2.11664         4.73100
     2018.65571         4.75859         4.75535
     2018.65845         3.62454         4.76708
     2018.66119         5.01449         4.72108
     2018.66392         8.35245         4.74092
     2018.66666         6.53240         4.73821
     2018.66940        -2.54965         4.76167
     2018.67214         8.91930         4.77429
     2018.67488         0.96625         4.73641
     2018.67761         5.14520         4.70123
     2018.68035         4.85615         4.79233
     2018.68309        -3.80889         4.82120
     2018.68583         2.92806         4.74814
     2018.68856        -0.21599         4.77249
     2018.69130         8.47996         4.78873
     2018.69404         0.95791         4.84736
     2018.69678         1.63486         4.86359
     2018.69952         2.00581         4.75535
     2018.70225        -0.44523         4.86089
     2018.70499        -2.49928         4.73821
     2018.70773         5.33267         4.76076
     2018.71047        -1.79438         4.71386
     2018.71321        -1.62343         4.76167
     2018.71594         2.23752         4.75265
     2018.71868        -2.32053         4.75355
     2018.72142        -0.72157         4.75716
     2018.72416         0.78638         4.84285
     2018.72689        -0.21467         4.77790
     2018.72963         0.86928         4.73010
     2018.73237        -3.13377         4.72468
     2018.73511        -5.33082         4.72739
     2018.73785         1.02113         4.73731
     2018.74058        -1.15991         4.67417
     2018.74332         3.18404         4.70755
     2018.74606        -1.55001         4.70394
     2018.74880        -0.47306         4.85096
     2018.75154        -0.17911         4.90057
     2018.75427        -0.40016         4.71386
     2018.75701         1.01279         4.77610
     2018.75975        -3.74625         4.72108
     2018.76249        -0.70130         4.71115
     2018.76522        -4.18735         4.82210
     2018.76796         0.85760         4.73731
     2018.77070         6.94255         4.77069
     2018.77344        -2.72950         4.71837
     2018.77618        -0.18755         4.72017
     2018.77891         0.39841         4.78512
     2018.78165        -2.21064         4.79684
     2018.78439         3.95631         4.70755
     2018.78713        -1.58574         4.72288
     2018.78987       -10.29479         4.77700
     2018.79260        -3.45384         4.67778
     2018.79534         4.20911         4.69853
     2018.79808        -5.55194         4.70664
     2018.80082         0.58902         4.81669
     2018.80355        -0.29803         4.73461
     2018.80629         3.67392         4.93034
     2018.80903         0.24587         4.72378
     2018.81177         0.27782         4.99438
     2018.81451         7.41877         4.87622
     2018.81724        12.10572         4.95740
     2018.81998        -2.76632         4.79684
     2018.82272         9.91563         4.84014
     2018.82546         7.41858         4.74002
     2018.82820        -0.12947         4.71566
     2018.83093        -0.31752         4.77069
     2018.83367         1.77543         4.73641
     2018.83641        -1.26062         4.88614
     2018.83915         6.01234         4.73100
     2018.84188        -1.20671         4.82210
     2018.84462         4.40724         4.73821
     2018.84736         2.89719         4.73641
     2018.85010        -3.60886         4.66335
     2018.85284        -2.94091         4.71476
     2018.85557        -6.55096         4.80135
     2018.85831        -1.20400         4.74092
     2018.86105        -4.02705         4.72649
     2018.86379        -4.49810         4.80947
     2018.86653        -4.76515         4.74272
     2018.86926        -4.54820         4.76076
     2018.87200         0.25475         4.81308
     2018.87474         0.62370         4.75716
     2018.87748        -3.25234         4.80767
     2018.88021         1.25561         4.93485
     2018.88295         2.77456         4.76708
     2018.88569        -0.25749         4.82751
     2018.88843         5.99746         4.85277
     2018.89117         5.88841         4.81579
     2018.89390         4.16336         4.83473
     2018.89664        -2.26968         4.90418
     2018.89938        -2.12573         4.84555
     2018.90212         3.67822         5.09721
     2018.90485         6.23917         4.83112
     2018.90759         5.13012         4.79594
     2018.91033         5.05807         4.75625
     2018.94592       156.82244         4.88704
     2018.94866       154.75539         4.84104
     2018.95140       169.15234         5.26408
     2018.95414       167.77330         5.03227
     2018.95687       154.84325         5.00701
     2018.95961       156.15920         5.00160
     2018.96235       157.80715         5.77101
     2018.96509       158.75510         5.00250
     2018.96749       156.88857         5.80348
     2018.97082       150.41937         5.43726
     2018.97330       148.65496         4.98266
     2018.97604       147.95791         5.00972
     2018.97878       142.97486         4.90148
     2018.98151       138.21281         4.86540
     2018.98425       149.41776         5.05482
     2018.98699       137.16571         4.97273
     2018.98973       139.51566         4.90057
     2018.99247       145.01962         5.01152
     2018.99520       146.96957         4.97093
     2018.99794       148.43052         4.96913
     2019.00068       140.66347         4.96552
     2019.00342       147.40542         5.00701
     2019.00616       142.54437         4.86359
     2019.00889       151.80432         4.94387
     2019.01163       148.12728         4.90418
     2019.01437       151.53623         4.91681
     2019.01711       148.56618         4.90148
     2019.01984       139.11813         4.87893
     2019.02258       141.60208         4.92403
     2019.02532       147.17403         4.96913
     2019.02806       149.79598         5.07466
     2019.03080       142.81194         5.01783
     2019.03353       144.04789         4.99168
     2019.03627       136.49484         4.84916
     2019.03901       147.75079         4.82390
     2019.04175       145.72074         4.77790
     2019.04449       149.47469         4.91140
     2019.04722       143.60064         4.94116
     2019.04996       139.65260         4.99889
     2019.05270       132.17755         4.98266
     2019.05544       147.75450         5.03317
     2019.05817       145.05945         5.08458
     2019.06091       150.94340         5.14502
     2019.06365       148.45435         4.97183
     2019.06639       152.04430         5.02685
     2019.06913       141.24325         4.97003
     2019.07186       145.94921         5.03407
     2019.07460       145.82316         4.94567
     2019.07734       150.51011         4.89246
     2019.08008       146.94006         4.82571
     2019.08282       147.78901         5.08368
     2019.08555       146.47196         4.87802
     2019.08829       143.54191         4.84826
     2019.09103       160.92087         4.94026
     2019.09377       159.83682         4.85096
     2019.09924       165.39272         5.02685
     2019.10198       155.30667         4.94838
     2019.10472       151.01762         4.83112
     2019.10746       155.22257         4.87261
     2019.11019       148.71453         4.86179
     2019.11293       157.46948         4.97273
     2019.11567       143.32243         4.99528
     2019.12115       154.15633         4.91320
     2019.12388       157.30028         5.04038
     2019.12662       153.85623         5.08639
     2019.12936       151.64719         4.90689
     2019.13210       150.76214         4.93124
     2019.13483       146.14009         4.96732
     2019.13757       147.29904         4.87171
     2019.14031       155.11899         4.89787
     2019.14305       152.62394         4.94477
     2019.14579       148.76789         4.94387
     2019.14852       151.26185         4.86630
     2019.15126       153.15780         4.88524
     2019.15400       151.80375         4.89336
     2019.15674       153.53270         4.99799
     2019.15948       148.77965         4.87081
     2019.16221       143.64660         5.01603
     2019.16495       147.17155         4.86540
     2019.16769       143.16951         4.91591
     2019.17043       140.04646         4.95289
     2019.17316       145.72641         4.88073
     2019.17590       148.12736         4.85277
     2019.18138       145.86626         4.86991
     2019.18412       141.20321         4.87893
     2019.18685       144.79717         4.88434
     2019.18959       148.81112         4.91861
     2019.19233       144.11907         4.89065
     2019.19507       144.51202         4.85818
     2019.19780       140.55297         4.82390
     2019.20054       143.55292         4.92132
     2019.20328       140.67887         4.93395
     2019.20602       133.22783         5.10262
     2019.20876       133.56778         5.22078
     2019.21149       138.74073         4.87532
     2019.21423       144.12368         4.85818
     2019.21697       147.56363         4.87081
     2019.21971       141.65758         5.08368
     2019.22245       143.21453         4.82751
     2019.22518       140.00249         4.78602
     2019.22792       144.28644         4.82571
     2019.23066       135.23139         4.81939
     2019.23340       141.13834         4.87261
     2019.23613       139.32229         4.83202
     2019.23887       143.48624         4.89155
     2019.24161       140.05819         5.24063
     2019.24435       134.82515         4.83924
     2019.24709       138.26810         4.97093
     2019.24982       145.70105         4.88885
     2019.25256       142.12200         4.99438
     2019.25530       140.52395         4.87442
     2019.25804       147.55790         4.93756
     2019.26078       149.16085         4.86449
     2019.26351       145.37681         4.96552
     2019.26625       143.30776         4.85457
     2019.26899       139.08071         4.86179
     2019.27173       139.59766         5.07646
     2019.27446       135.64061         4.76167
     2019.27720       141.55756         4.93124
     2019.27994       142.70651         4.79053
     2019.28268       147.82947         4.86991
     2019.28542       146.59942         4.88163
     2019.28815       143.96737         4.82661
     2019.29089       144.42432         4.88795
     2019.29363       147.29927         4.88614
     2019.29637       144.85222         4.88704
     2019.29911       154.84917         4.98536
     2019.30184       142.44013         4.98987
     2019.30458       145.00108         4.89967
     2019.30732       145.10803         4.92403
     2019.31006       147.86898         4.90869
     2019.31279       146.19293         5.02325
     2019.31553       151.41588         4.95740
     2019.31827       150.71583         4.95289
     2019.32101       142.27778         4.87442
     2019.32375       136.00574         4.83563
     2019.32648       145.38469         4.82300
     2019.40588        12.81128         4.76437
     2019.40862         9.18623         4.76076
     2019.41136        12.64818         4.76076
     2019.41410        11.75213         4.85728
     2019.41683        12.77408         4.87802
     2019.41957        11.07404         4.96913
     2019.42231         6.31099         4.82030
     2019.42505        12.11494         4.91591
     2019.42778        17.62689         4.92854
     2019.43052         6.22484         5.04850
     2019.43326         7.09079         4.75986
     2019.43600         4.91174         4.76527
     2019.43874         5.79570         4.84465
     2019.44147         4.87165         4.94748
     2019.44421         9.50960         4.85187
     2019.44695        10.69055         4.93395
     2019.44969        11.15151         5.46613
     2019.45243         8.12446         5.24063
     2019.45516        13.42940         5.15764
     2019.45790        11.53136         5.41922
     2019.46062        11.05129         5.23882
     2019.46338        13.04826         5.44809
     2019.46612        12.06522         5.79897
     2019.47159        15.93512         5.46974
     2019.47336        19.24167        12.38177
     2019.47707        15.10702         5.13509
     2019.47980        10.49497         5.42554
     2019.48231        11.94458         5.89548
     2019.48528         8.98087         5.20004
     2019.48802         4.08083         5.53017
     2019.49074         7.60575         5.33895
     2019.49350        12.61073         5.18470
     2019.49624         5.41368         5.30738
     2019.49897        12.18463         4.87622
     2019.50171        14.69558         4.77159
     2019.50444         9.35253         4.98987
     2019.50718        10.37748         4.79865
     2019.50992        10.03643         4.74543
     2019.51266        11.10738         4.79594
     2019.51540        11.45234         4.77790
     2019.51813        12.33329         4.77880
     2019.52087         7.97624         4.83834
     2019.52361         5.10019         4.83022
     2019.52635         7.66014         4.76437
     2019.52908        14.88109         4.98446
     2019.53182         9.18904         4.89246
     2019.53456         6.76100         4.91230
     2019.53730         7.02695         4.83563
     2019.54004        10.26290         4.85457
     2019.54277        15.24185         5.02685
     2019.54551         8.16580         5.09811
     2019.54825        10.07775         4.81128
     2019.55099        10.37570         4.89155
     2019.55373        10.95666         4.88434
     2019.55646        14.05661         4.91230
     2019.55920         8.92856         5.05391
     2019.56194        10.35451         4.78331
     2019.56468         6.60346         4.86630
     2019.56741         9.82341         4.78692
     2019.57015        10.35136         4.74092
     2019.57289        10.47132         4.85457
     2019.57563         7.18127         4.81579
     2019.57837        10.45922         4.88253
     2019.58110        12.03517         4.77700
     2019.58384        13.43512         5.23973
     2019.58658        10.86807         4.76708
     2019.58932        14.42502         4.77249
     2019.59206        16.36697         4.86991
     2019.59479        12.02993         4.80135
     2019.59753        10.95288         4.96552
     2019.60027        16.44983         4.94838
     2019.60301        13.96478         4.77610
     2019.60574         9.95273         5.06654
     2019.60848        14.49068         5.02325
     2019.61122         8.93563         4.79865
     2019.61396        14.69159         4.88795
     2019.61670        11.59454         4.82661
     2019.61943        12.35849         4.78602
     2019.62217        17.32744         4.96011
     2019.62491        17.16539         4.77880
     2019.62765        16.83234         4.83834
     2019.63039        18.83829         4.83112
     2019.63312         7.24125         4.77339
     2019.63586        25.66520         5.10623
     2019.63860        13.97015         4.80496
     2019.64134        13.80410         4.94567
     2019.64407        11.95005         5.07466
     2019.64681         6.16900         4.83202
     2019.64955         7.44395         4.79143
     2019.65229        14.05491         4.83112
     2019.65503        10.10686         5.18019
     2019.65776         8.84881         4.88975
     2019.66050        11.99076         4.99077
     2019.66324        14.39271         4.92944
     2019.66598        11.91366         4.86449
     2019.66872        12.94161         4.78061
     2019.67145         8.97757         4.88344
     2019.67419        21.59052        19.80976
     2019.67695         7.05050         4.96822
     2019.67967        10.02042         4.95650
     2019.68240        10.19937         4.86359
     2019.68514        12.53332         4.86900
     2019.68788        13.54427         4.89155
     2019.69062        11.97523         4.89787
     2019.69336         5.07918         4.92222
     2019.69609         9.90513         4.84285
     2019.69883        12.72008         4.93756
     2019.70157        13.41903         4.90779
     2019.70431        17.51998         4.92944
     2019.70705         8.82593         4.82481
     2019.70978         7.72789         4.88434
     2019.71252        10.41784         4.77971
     2019.71526        11.23979         4.76978
     2019.71800        10.36674         4.97995
     2019.72073        15.91869         5.07195
     2019.72347         7.52064         4.80496
     2019.72621         4.92659         4.87712
     2019.72895        13.94655         4.88253
     2019.73169        12.95250         4.77429
     2019.73442        18.14745         4.89516
     2019.73716        17.02440         4.85367
     2019.73990        14.90835         4.94748
     2019.74264        15.74930         4.83563
     2019.74538        14.66425         4.77610
     2019.74811        14.56521         4.92403
     2019.75085        10.38816         4.89516
     2019.75359        12.95911         5.02144
     2019.75633        11.98606         4.86089
     2019.75906        11.49201         4.78963
     2019.76180         7.16896         4.80135
     2019.76454        15.15791         6.65587
     2019.76728        10.38887         6.15526
     2019.77002         9.52582         5.36871
     2019.77275        10.95177         4.99619
     2019.77549        14.17172         4.91410
     2019.77823        13.07067         4.96642
     2019.78097        18.68162         5.01513
     2019.78371         7.27857         5.24514
     2019.78644        10.07253         5.25416
     2019.78918        25.91248         5.55633
     2019.79192        21.89243         5.12066
     2019.79466        17.15238         5.23431
     2019.79739        11.84633         4.95379
     2019.80013        17.64528         4.92583
     2019.80287        11.40423         5.01874
     2019.80561         4.60719         5.47966
     2019.80835        11.51114         5.21267
     2019.81108        18.30609         5.52205
     2019.81382        16.55204         5.49409
     2019.81656        14.19399         5.04940
     2019.81930         9.75394         4.86089
     2019.82203        12.67089         4.91681
     2019.82477        12.49685         5.01242
     2019.82751        13.27380         4.95469
     2019.83025        12.42475         4.99258
     2019.83299         9.49670         4.97003
     2019.83572        11.74465         4.89246
     2019.83846        11.94560         4.92222
     2019.84120        14.65555         4.91771
     2019.84394         9.88051         5.23431
     2019.84668         7.00546         4.90418
     2019.84941        10.38541         4.89155
     2019.85215        15.75236         5.03948
     2019.85489        16.37131         4.97183
     2019.85763        10.32026         4.88163
     2019.86036        11.84321         4.88163
     2019.86310        10.14416         4.90869
     2019.86584        17.61812         4.94207
     2019.86858        13.59507         5.00250
     2019.87132        15.32602         5.07105
     2019.87405         9.21197         4.99168
     2019.87679         7.85992         4.98175
     2019.87953        20.46587         5.05031
     2019.88227        21.60282         4.96642
     2019.88501        23.91578         4.86179
     2019.88774        23.22873         5.03136
     2019.89048        20.42668         4.86269
     2019.89322        20.72263         5.01332
     2019.89596        18.08358         5.04940
     2019.89869        18.27453         4.87442
     2019.90143        14.26948         4.86269
     2019.90417        18.98944         4.88885
     2019.90691        15.25539         4.86810
     2019.90965        15.15834         4.76798
     2019.91238        17.44829         4.87712
     2019.91512        20.96024         4.89967
     2019.91786        26.06219         4.81849
     2019.92060        18.73414         4.87622
     2019.92607        19.00105         4.82841
     2019.92881        21.24700         4.86900
     2019.93155        14.82195         4.84736
     2019.93429        19.16290         4.85998
     2019.93702        11.12685         4.82120
     2019.93976         9.03980         4.91230
     2019.94250         8.91576         4.86630
     2019.94524         7.74271         4.86991
     2019.94798         7.50066         4.85187
     2019.95071        12.50761         5.07556
     2019.95345        14.00656         4.88163
     2019.95619        16.85351         4.84916
     2019.95893        13.00246         4.84826
     2019.96167        17.37742         4.87983
     2019.96440        18.38537         4.95920
     2019.96714        11.16332         5.09270
     2019.96988         7.79727         4.82751
     2019.97262        14.45322         4.92132
     2019.97535        13.44517         4.83834
     2019.97809        10.94712         4.84916
     2019.98083        15.84708         4.82210
     2019.98357         8.09703         4.95740
     2019.98631        11.70798         4.85908
     2019.98904         8.50393         4.84645
     2019.99178        13.04788         4.89155
     2019.99452        13.51283         4.85096
     2019.99726        16.85178         4.83653
     2020.00000        22.24674         4.95289
     2020.00273        13.34069         4.85277
     2020.00547        18.07864         5.06113
     2020.00821        17.24359         4.96822
     2020.01095        15.70954         5.02776
     2020.01368         5.11449         4.95920
     2020.01642        12.12144         4.95830
     2020.01916        17.44140         5.05842
     2020.02190        11.41735         5.00340
     2020.02464         6.96830         4.99168
     2020.02737         9.03425         4.82210
     2020.03011        10.48620         4.81308
     2020.03285         0.04315         4.85998
     2020.03559        12.90810         4.75355
     2020.03833        12.08806         4.75445
     2020.04106        14.61701         4.96191
     2020.04380         5.46196         4.89967
     2020.04654        13.00291         4.79414
     2020.04928         4.57386         4.82030
     2020.05201        11.12181         4.85728
     2020.05475        12.80776         4.83383
     2020.05749         7.78772         4.86720
     2020.06023         7.89867         4.78602
     2020.06297        11.73862         4.88614
     2020.06570         6.84357         4.79775
     2020.06844        13.02052         5.16486
     2020.07118        12.54347         4.80586
     2020.07392        12.59342         4.88885
     2020.07666         7.90838         4.82210
     2020.07939         8.75533         4.85187
     2020.08213        11.88028         4.78061
     2020.08487        14.11023         4.86089
     2020.08761        11.03918         4.76347
     2020.09034        10.89913         4.77971
     2020.09308         8.61908         4.79504
     2020.09582         7.17204         4.79143
     2020.09856         8.33499         4.78422
     2020.10130         4.45994         4.84375
     2020.10403         7.03189         4.77880
     2020.10677         6.06284         4.84194
     2020.10951         8.56479         4.79414
     2020.11225        11.05974         4.76527
     2020.11498         8.98070         4.81308
     2020.11772        10.51165         4.92763
     2020.12046         6.95260         4.97183
     2020.12320         8.99755         4.85728
     2020.12594         5.18150         4.82932
     2020.12867         1.77245         4.74633
     2020.13141         3.64140         4.84104
     2020.13415         7.36535         4.79865
     2020.13689        10.40531         4.83834
     2020.13963        10.44526         4.91681
     2020.14236        10.66321         4.85006
     2020.14510         9.80016         4.83924
     2020.14784         7.59611         4.77700
     2020.15058         8.07706         4.80586
     2020.15331         8.19501         4.80135
     2020.15605         8.78297         4.82300
     2020.15879         4.59592         4.84285
     2020.16153        14.10687         4.80857
     2020.16427         9.55582         4.86540
     2020.16700         8.77177         4.79324
     2020.16974        10.41372         5.17117
     2020.17127        17.33393        18.70751
     2020.17522        11.28863         5.44268
     2020.17796         6.24658         5.06654
     2020.18069         6.76453         5.12878
     2020.18343        -0.08652         5.22800
     2020.18891         8.80739         5.23702
     2020.19165         6.28834         5.48958
     2020.19439         4.25729         5.40118
     2020.19713         5.93424         5.27941
     2020.19986         2.99419         5.42915
     2020.20260         4.84615         5.42644
     2020.20534         7.45410         5.23522
     2020.20808         6.63605         5.23522
     2020.21081         1.04399         5.38585
     2020.21355        -0.61005         5.36240
     2020.21629         5.58290         5.09992
     2020.21901         4.39483         4.98175
     2020.23391        27.22333        15.12115
     2020.23545         3.39756         4.88073
     2020.23819         5.74151         4.87171
     2020.24093         1.59246         4.86810
     2020.24366         2.67941         4.91771
     2020.24640         5.66236         4.85277
     2020.24914        -1.03069         4.84916
     2020.25188         5.50127         4.84916
     2020.25462         2.56222         4.86449
     2020.25735         8.50317         4.92583
     2020.26009        16.30312         4.88975
     2020.26283         9.36907         4.89516
     2020.26557         6.46202         4.86359
     2020.26830         7.00397         4.83834
     2020.27104         5.92993         4.83653
     2020.27378         8.64088         4.84736
     2020.27652        12.13283         4.95920
     2020.27929         7.49383         5.06654
     2020.28199        10.14873         4.93756
     2020.28473         3.91768         4.88073
     2020.28747         2.62163         4.92673
     2020.29021         7.12159         4.88524
     2020.29295         9.66454         4.91050
     2020.29568        14.29849         4.87983
     2020.29842        12.12944         4.81669
     2020.30116        10.01139         4.84916
     2020.30390        14.37834         4.85277
     2020.30663         8.03629         4.88614
     2020.30937         7.11225         4.94748
     2020.31211         6.04020         4.98175
     2020.31485        11.48415         4.95109
     2020.31759         6.94010         4.81037
     2020.32032         9.53905         5.09721
     2020.32306         4.28800         4.83563
     2020.32580         4.03095         4.95830
     2020.32854         5.19591         4.81218
     2020.33128         3.40386         4.87532
     2020.33401         7.27181         4.87442
     2020.33675         1.35976         4.85638
     2020.33949         5.15171         4.85277
     2020.34223         4.60766         4.97634
     2020.34496         4.39661         5.02505
     2020.34770         4.27757         4.78602
     2020.35044        10.16352         4.94928
     2020.35318         2.74547         4.96822
     2020.35592         2.81842         4.88704
     2020.35865        11.91837         4.83022
     2020.36139         0.89732         4.90959
     2020.36413        14.30427         4.97454
     2020.36687         4.32723         4.89516
     2020.36961         7.47418         4.83743
     2020.37234        12.63613         4.84285
     2020.37508         7.99508         4.94838
     2020.37782         8.81303         4.84736
     2020.38056         6.93298         4.81669
     2020.38329         5.59493         4.79865
     2020.38603        10.04088         4.78331
     2020.38877        10.47384         4.88073
     2020.39151         8.79279         4.86540
     2020.39425         8.44374         4.88344
     2020.39698         2.71169         4.94838
     2020.39972         3.22164         4.83383
     2020.40246        10.64359         4.81218
     2020.40520         6.25354         5.18831
     2020.40794         6.07750         4.87351
     2020.41067         6.94645         4.87442
     2020.41341         5.31740         4.89246
     2020.41615         9.40635         4.79504
     2020.41889         6.47230         4.82932
     2020.42162         3.55025         4.97815
     2020.42436        11.47820         5.09811
     2020.42710         8.82216         5.10894
     2020.42984         4.92011         4.95199
     2020.43258         9.62506         4.92944
     2020.43531        15.13401         5.10352
     2020.43805         9.95496         4.93575
     2020.44079         1.93591         4.94477
     2020.44353        14.79486         4.94658
     2020.44626         4.06382         4.83563
     2020.44900        10.84177         4.87171
     2020.45174        14.34072         4.85006
     2020.45448         9.68767         4.92132
     2020.45722         0.97862         4.82481
     2020.45995         9.44757         4.74272
     2020.46269         4.51052         4.80677
     2020.46543        13.17248         4.79143
     2020.46817        12.68843         4.90689
     2020.47091         8.21038         4.84916
     2020.47364         5.84933         4.82661
     2020.47638        13.15128         4.83473
     2020.47912         8.60323         5.00340
     2020.48186         6.67318         4.90057
     2020.48459        12.00714         5.05933
     2020.48733        -2.13791         5.04219
     2020.49007        14.01004         4.96191
     2020.49281         9.56599         4.89065
     2020.49555        12.30694         4.95650
     2020.49828         8.04589         4.80947
     2020.50102         4.57984         4.87442
     2020.50376         1.67180         4.84826
     2020.50650         1.74575         4.85096
     2020.50924        -1.71430         4.79955
     2020.51197         5.74565         4.78963
     2020.51471         6.53960         4.92673
     2020.51745         6.58355         4.86540
     2020.52019        13.89650         5.00521
     2020.52292        13.74146         4.96462
     2020.52566         7.42441         4.92403
     2020.52840         8.54336         4.98897
     2020.53114         8.55431         4.95560
     2020.53388         0.88926         4.99348
     2020.53661         9.40421         5.00881
     2020.53935        10.18116         4.93846
     2020.54209         6.19712         4.98987
     2020.54483        10.61107         4.99258
     2020.54757         6.60302         4.95740
     2020.55030        12.18497         4.96913
     2020.55304        12.21392         5.09721
     2020.55578        10.01787         4.97544
     2020.55852        17.57982         4.99979
     2020.56125        11.83778         5.00972
     2020.56399        14.61973         4.96371
     2020.56673        11.13468         4.91591
     2020.56947        10.81163         4.89246
     2020.57221        14.27158         5.20816
     2020.57494        13.99853         5.16396
     2020.57768        16.12548         5.04219
     2020.58042        12.44944         5.03678
     2020.58316         1.63239         5.02595
     2020.58590        13.57634         5.04399
     2020.58863        10.55629         4.90959
     2020.59137         6.24924         4.95560
     2020.59411        18.04719         4.91050
     2020.59685        19.12114         5.33624
     2020.59958        17.23610         5.07917
     2020.60232         8.19805         4.89697
     2020.60506        12.28900         4.91952
     2020.60780        12.55595         4.98897
     2020.61054        10.16090         5.10533
     2020.61327        12.70185         5.29745
     2020.61601        10.52180         4.94026
     2020.61875         7.70076         4.94928
     2020.62149         8.53771         4.95379
     2020.62423        10.01766         4.97273
     2020.62696        13.31761         5.10082
     2020.62970         9.48356         5.03227
     2020.63244        13.03351         5.09180
     2020.63518        20.17046         5.11796
     2020.63791        13.29142         5.25867
     2020.64065        13.33837         4.98356
     2020.64339        11.06432         4.94748
     2020.64613        19.33827         5.12156
     2020.64887        11.54822         4.93846
     2020.65160        16.17917         4.93395
     2020.65434        11.92812         4.95289
     2020.65708        12.57507         5.08007
     2020.65982        18.86603         5.06654
     2020.66256        12.47998         4.98897
     2020.66529        15.12693         5.02595
     2020.66803        21.67388         4.98626
     2020.67077        15.40783         5.02054
     2020.67351        17.12178         5.00881
     2020.67624        15.78673         5.01242
     2020.67898        15.13469         4.93756
     2020.68172         7.40364         5.07827
     2020.68446        11.86059         5.14862
     2020.68720        11.81954         4.99258
     2020.68993        10.61649         5.00340
     2020.69267        13.08544         5.06835
     2020.69541        17.57139         5.22529
     2020.69815        13.01335         5.05842
     2020.70089        15.39830         4.93395
     2020.70362         7.26825         5.01062
     2020.70636         5.22620         5.45621
     2020.70910         7.52915         5.50672
     2020.71184        18.37310         5.03678
     2020.71457        12.59805         5.08458
     2020.71731        12.22701         5.02956
     2020.72008         9.72901         5.14862
     2020.72279        12.55291         4.95289
     2020.72553        13.72286         5.07827
     2020.72826        17.95481         5.30196
     2020.73100        11.88576         5.07376
     2020.73374        23.14971         5.09721
     2020.73648        11.25067         5.01062
     2020.73921         7.19862         5.02505
     2020.74195        13.14957         4.92673
     2020.74469        12.41752         4.92132
     2020.74743        11.85747         4.99528
     2020.75017        14.12542         4.99709
     2020.75290        14.67437         5.01423
     2020.75564        12.99533         4.93846
     2020.75838        17.87428         4.90328
     2020.76112        18.99923         4.93846
     2020.76386        15.75718         4.91230
     2020.76659        19.61413         4.89246
     2020.76933        25.91108         5.08909
     2020.77207        19.01003         4.92042
     2020.77481        21.18699         4.93756
     2020.77754        18.92694         4.95920
     2020.78028        26.85589         5.08548
     2020.78302        25.73684         5.08368
     2020.78576        22.36879         4.93665
     2020.78850        11.20374         4.88614
     2020.79123        12.95269         5.02866
     2020.79397        17.72265         4.92673
     2020.79671        11.74860         5.04309
     2020.79945        22.75355         5.02415
     2020.80219        13.41950         5.08097
     2020.80492        21.94245         4.92763
     2020.80766        13.52240         4.95018
     2020.81040         9.61135         4.97364
     2020.81314        16.07531         4.90959
     2020.81587        16.37326         4.91952
     2020.81861        23.21321         5.02234
     2020.82135        14.88516         4.96011
     2020.82409        13.23911         4.97815
     2020.82683        15.56406         4.92403
     2020.82956        18.62301         5.10623
     2020.83230        18.59897         5.01332
     2020.83504        13.65692         4.99077
     2020.83778        17.62187         4.88975
     2020.84052        18.62882         4.91320
     2020.84325        22.40277         5.02325
     2020.84599        20.36072         5.12156
     2020.84873        20.75767         4.84826
     2020.85147        12.28563         4.92854
     2020.85420        21.94158         4.79594
     2020.85694        22.34653         4.86269
     2020.85968        19.12148         4.88253
     2020.86242        23.06643         4.88073
     2020.86516        23.67838         4.99258
     2020.86789        28.48233         5.06925
     2020.87063        30.52229         4.89246
     2020.87337        27.57324         4.99528
     2020.87611        21.33619         5.04760
     2020.87885        17.31914         5.25867
     2020.88158        18.63909         5.05301
     2020.88432        16.80604         4.92493
     2020.88706        16.12299         5.21898
     2020.88980        13.49095         4.99258
     2020.89253        18.28090         5.01874
     2020.89527        17.78785         5.11074
     2020.89801        18.94780         5.06654
     2020.90075        20.85775         4.93846
     2020.90349        18.26170         4.89606
     2020.90622        17.70665         4.93034
     2020.90896        16.25561         5.08278
     2020.91170        14.97156         5.26949
     2020.91444        22.27351         5.05121
     2020.91718        12.95046         4.92763
     2020.91991        11.61541         4.91591
     2020.92265         6.06536         4.97273
     2020.92539         8.90131         4.88704
     2020.92813         7.63326         4.90418
     2020.93086        15.85422         4.99979
     2020.93360        12.81417         4.95289
     2020.93634        14.41012         4.92222
     2020.93908         4.03507         4.86900
     2020.94182         7.24102         4.90148
     2020.94455        11.31697         4.92403
     2020.94729         7.67392         4.87442
     2020.95003         7.89288         4.93846
     2020.95277        -1.82817         4.86179
     2020.95551        11.43178         4.90238
     2020.95824         8.23673         4.97364
     2020.96087        11.70752         5.37142
     2020.96372         9.44563         4.94026
     2020.96646        10.16058         4.97364
     2020.96919        16.02554         5.03136
     2020.97193         5.08849         4.83473
     2020.97467        11.14944         4.97724
     2020.97741        10.93239         4.97454
     2020.98015         7.53734         5.11435
     2020.98288        11.42029         5.07737
     2020.98562        16.83424         4.90599
     2020.98836        21.37520         4.93124
     2020.99110        17.54715         4.87532
     2020.99384        11.43710         4.90057
     2020.99657         7.28705         4.92944
     2020.99931        11.08000         4.79324
     2021.00205        12.44595         4.84826
     2021.00479        24.54390         4.84104
     2021.00752        18.42786         4.84194
     2021.01026        15.09581         4.92042
     2021.01300        16.33976         4.84375
     2021.01574         8.27071         5.04129
     2021.01848        10.39566         4.82661
     2021.02121        11.59561         4.88704
     2021.02395         7.53056         4.87802
     2021.02669         8.41952         5.01874
     2021.02943         7.87047         4.99348
     2021.03216        16.24342         4.91410
     2021.03490        18.15537         5.04940
     2021.03764         9.34832         4.87171
     2021.04038        11.89927         4.99619
     2021.04312         5.41222         4.88975
     2021.04585        14.41418         4.91320
     2021.04855        13.40307         4.94297
     2021.05179         9.24474         5.89999
     2021.05407        18.48003         5.22800
     2021.05681        15.31698         5.00521
     2021.05954         9.29493         4.87893
     2021.06228        10.59788         4.86900
     2021.06502         8.87284         4.93575
     2021.06776        11.63079         4.85728
     2021.07049        13.56874         4.84104
     2021.07323        11.61269         4.88073
     2021.07597         6.52764         4.89336
     2021.07871        11.69159         4.87893
     2021.08145        10.44754         4.86089
     2021.08418         5.64650         4.86449
     2021.08692         2.42845         4.89426
     2021.08966         8.08840         4.87351
     2021.09240         2.73835         4.81759
     2021.09514         6.94930         4.95560
     2021.09787         8.65725         4.98266
     2021.10061         7.69220         4.93034
     2021.10335         5.45916         4.93756
     2021.10609         7.20011         4.85187
     2021.10882         6.60006         4.85367
     2021.11156         7.53901         4.80857
     2021.11430         6.07396         4.84285
     2021.11704         6.12591         4.86810
     2021.11978        11.84886         4.84465
     2021.12251        22.10382         4.90328
     2021.12525        15.76377         4.90328
     2021.12799        12.63372         4.88434
     2021.13073        14.70467         4.87081
     2021.13347         8.49662         4.94838
     2021.13620         3.54757         4.91861
     2021.13894         7.34952         4.86359
     2021.14168         6.21748         4.93665
     2021.14442         0.13243         4.92222
     2021.14715        10.61538         4.85096
     2021.14989         1.74133         4.80316
     2021.15263         7.66028         5.00340
     2021.15537        13.26523         5.01062
     2021.15811        15.20218         5.05301
     2021.16084         8.74714         4.93485
     2021.16358         8.96609         4.95920
     2021.16632        17.57704         4.99168
     2021.16906        14.86999         5.05842
     2021.17180         6.94094         4.91050
     2021.17453         1.98489         4.99709
     2021.17727         8.08984         4.98536
     2021.18001        -1.57620         5.01152
     2021.18275        -2.03225         5.08188
     2021.18548         2.18370         4.88344
     2021.18822         1.66965         4.82661
     2021.19096         5.84260         4.80857
     2021.19370         5.05655         4.95018
     2021.19644         0.56050         4.84916
     2021.19917         2.87645         4.91320
     2021.20191         5.87141         4.83292
     2021.20465         7.83536         4.82120
     2021.20739         2.95931         4.86269
     2021.21013         5.53026         5.04670
     2021.21286         4.01021         5.05391
     2021.21560         8.28416         4.85908
     2021.21834         2.43611         4.90508
     2021.22108        -1.21593         4.80857
     2021.22381         0.72702         4.85367
     2021.22655         1.98497         4.86630
     2021.22929        14.47592         4.82571
     2021.23203        10.91287         4.85277
     2021.23477         0.13082         4.87893
     2021.23750         2.31177         4.84375
     2021.24024         7.89373         4.89065
     2021.24298         6.27868         4.84375
     2021.24572         3.19463         4.81759
     2021.24846         4.64958         4.95830
     2021.25119         5.99053         4.87893
     2021.25393         9.86148         5.49680
     2021.25667         3.88743         4.90148
     2021.25941         4.48539         4.78782
     2021.26214         6.12234         4.91050
     2021.26488         8.98229         4.84465
     2021.26762         9.89524         4.97273
     2021.27036         5.02819         5.00701
     2021.27310        11.31714         4.88885
     2021.27583         8.34609         4.85367
     2021.27857         6.21905         4.96732
     2021.28131         5.85800         4.92132
     2021.28405         4.66095         4.90599
     2021.28679         9.64490         4.95379
     2021.28952         8.29785         4.99619
     2021.29226         6.29880         4.96281
     2021.29500        10.30475         4.94116
     2021.29774         5.80371         5.10262
     2021.30047         7.13666         5.01693
     2021.30321        10.92361         4.98356
     2021.30595         9.54856         5.11796
     2021.30869        16.94351         5.08368
     2021.31143         6.66646         4.87171
     2021.31416         6.64441         4.89967
     2021.31690        10.38837         4.87712
     2021.32021         7.01414         6.77493
     2021.32295        10.79409         6.72893
     2021.32569         1.84504         6.53680
     2021.32842         7.63599         6.54041
     2021.33116        13.52495         6.49531
     2021.33390        12.56690         6.41323
     2021.33664         4.03685         6.36362
     2021.33937         2.44080         6.33927
     2021.34211         4.69575         6.43668
     2021.34485         9.25570         6.91745
     2021.34759         5.67665         6.64234
     2021.35033         6.67761         6.70458
     2021.35306         4.30556         6.51516
     2021.35580         2.51251         6.48900
     2021.35854         2.36746         6.43307
     2021.36128         2.30441         6.54943
     2021.36402         2.87936         6.46645
     2021.36653        -1.51801         5.79897
     2021.36892         0.31744         4.90057
     2021.37166         4.30939         4.92493
     2021.37440         9.65335         5.10443
     2021.37770        12.36912         6.45202
     2021.38044         8.04907         6.72081
     2021.38318         5.78802         7.14475
     2021.38592         3.93497         6.84709
     2021.38866         0.63093         6.58371
     2021.39214       -32.32705        83.37019
     2021.39413         0.11983         6.55935
     2021.39687         6.94178         6.47457
     2021.39938        11.45640         5.88015
     2021.40177         1.57286         4.99619
     2021.40451         9.86881         5.04850
     2021.40782         2.02359         6.45653
     2021.41056        13.92054         6.57379
     2021.41330        10.91149         6.72442
     2021.41603        10.46944         6.59453
     2021.41877         4.33539         6.70097
     2021.42151        15.14834         6.65497
     2021.42425        16.27029         6.73705
     2021.42699        13.32725         6.45833
     2021.42972        13.19820         6.45292
     2021.43246        17.34315         6.59002
     2021.43520        10.01610         6.49892
     2021.43794        12.39405         6.68383
     2021.44068         6.49900         6.49531
     2021.44341         5.88595         6.62340
     2021.44615        10.02091         6.58551
     2021.44889         7.91486         6.57469
     2021.45163         2.18681         6.66308
     2021.45436         9.88276         6.58822
     2021.45710        12.19671         6.77313
     2021.45984         7.80866         6.37625
     2021.46258        10.66861         6.50614
     2021.46527         6.66750         6.68654
     2021.46805         6.65752         6.33476
     2021.47079         6.92547         6.48449
     2021.47353         9.96142         6.56567
     2021.47627         3.78837         6.58371
     2021.47901         9.89032         6.43758
     2021.48174         8.45927         6.39970
     2021.48448         4.70523         6.58641
     2021.48722         9.21018         6.48990
     2021.49000        10.92319         6.72081
     2021.49269         8.81608         6.55124
     2021.49520        10.95770         5.88917
     2021.49817         6.92098         6.61618
     2021.50091        14.42793         6.63963
     2021.50365         0.54989         6.46464
     2021.50638        -0.80816         6.42586
     2021.50912         6.78079         6.58010
     2021.51186         4.54674         6.84619
     2021.51459        13.07568         6.81642
     2021.51733        11.84864         6.53410
     2021.52007         8.80759         6.67571
     2021.52281         9.11554         6.63061
     2021.52555        14.31350         6.47186
     2021.52829         8.60445         6.45472
     2021.53102        13.02240         6.50433
     2021.53376        15.10935         6.54853
     2021.53650         1.82330         7.00224
     2021.53924        18.96725         6.95533
     2021.54198        12.87820         6.48629
     2021.54471         5.61316         6.58641
     2021.54745         7.96211         6.57830
     2021.55019        11.79006         6.57198
     2021.55293         7.77901         6.63512
     2021.55566         8.52296         6.68203
     2021.55840         5.70091         6.53500
     2021.56114        11.42386         6.39609
     2021.56388        17.03982         6.68744
     2021.56605        13.89294         5.03407
     2021.56878         4.94890         4.95018
     2021.57152         7.77885         5.01423
     2021.57426         5.33280         4.94116
     2021.57700        16.65575         5.31459
     2021.57974        14.11970         5.07376
     2021.58247         5.83165         5.00791
     2021.58521         4.79760         5.00340
     2021.58795        13.20556         5.05391
     2021.59069         3.56551         5.06023
     2021.59342         4.20746         5.02234
     2021.59616         6.06641         5.24514
     2021.59890        17.69736         5.13690
     2021.60164        11.53431         5.10984
     2021.60438        14.34226         4.97544
     2021.60711        22.08422         5.09090
     2021.60985        12.66217         4.91681
     2021.61259        14.44012         5.02505
     2021.61533         8.07207         4.94928
     2021.61807        14.46402         5.01062
     2021.62080        13.36297         5.09901
     2021.62354         9.20992         5.05031
     2021.62628         7.83088         5.10894
     2021.62902        14.30383         4.96371
     2021.63175        12.84378         5.03587
     2021.63449         8.82573         5.23071
     2021.63723        22.09268         5.23612
     2021.63997        17.85863         5.15855
     2021.64271        12.24958         5.03768
     2021.64544         9.98154         4.96732
     2021.64818        12.31149         4.97364
     2021.65092        13.11144         5.15404
     2021.65366         8.82539         4.97905
     2021.65639         8.52634         4.93214
     2021.65913        10.52829         4.95199
     2021.66187        17.66424         5.03858
     2021.66461        13.55020         5.06564
     2021.66735        11.87615         5.21267
     2021.67008        11.70310         5.02234
     2021.67282        13.98105         5.19372
     2021.67556        18.09900         5.28663
     2021.67830        16.02195         5.17027
     2021.68104        17.38790         5.00250
     2021.68377        14.33486         4.97183
     2021.68651        16.97981         5.01964
     2021.68925        14.67376         4.97183
     2021.69199        10.78271         5.00972
     2021.69472        16.49266         4.99528
     2021.69746         7.31161         5.10443
     2021.70020        16.85856         5.02415
     2021.70294         4.70052         5.06203
     2021.70568        13.98947         5.23341
     2021.70841        16.11442         5.04670
     2021.71115        18.62937         5.08188
     2021.71389        18.37332         5.20274
     2021.71663        14.69927         5.07737
     2021.71937        13.91622         5.06744
     2021.72210        11.19417         5.05842
     2021.72484        10.84613         5.07737
     2021.72758        15.63508         5.06654
     2021.73032        12.67103         5.37142
     2021.73305        17.29698         5.10803
     2021.73579        26.93893         5.27490
     2021.73853        20.45088         5.16035
     2021.74127        19.04983         5.12968
     2021.74401        12.09079         5.19553
     2021.74674        17.64374         5.11525
     2021.74948         9.73469         5.08097
     2021.75222        13.14164         5.24153
     2021.75496        18.48959         5.10894
     2021.75706        23.39062         6.96977
     2021.76043        22.12649         5.56445
     2021.76317        16.66745         5.06384
     2021.76591        13.55940         5.06564
     2021.76865        14.31635         5.04940
     2021.77138        16.57130         5.12427
     2021.77412        21.41425         5.07105
     2021.77686        17.94020         5.07917
     2021.77960        17.84815         5.11525
     2021.78234        13.40711         5.05482
     2021.78507        18.65506         5.02054
     2021.78781        16.97401         5.04309
     2021.79055        21.67396         5.13600
     2021.79329        10.42391         5.13870
     2021.79603        14.95186         5.04760
     2021.79876        15.29081         5.03227
     2021.80150        21.90577         5.16576
     2021.80424        17.67772         5.16847
     2021.80698        14.24667         5.08007
     2021.80971        15.44862         5.19823
     2021.81245        22.80457         5.31820
     2021.81519        24.64252         5.01783
     2021.81793        19.56147         5.06564
     2021.82067        17.55943         5.19102
     2021.82340        15.90438         5.25326
     2021.82614        14.71233         5.11525
     2021.82888        18.42628         5.06384
     2021.83162        21.65923         5.07195
     2021.83436        18.22818         5.16125
     2021.83709        19.98813         5.12968
     2021.83983         4.24409         5.37773
     2021.84257         7.39404         5.21176
     2021.84531        13.83299         5.20635
     2021.84804        16.22094         5.10262
     2021.85078        19.37589         5.12878
     2021.85352        14.53684         5.09631
     2021.85626        14.86179         5.06023
     2021.85900        11.74175         5.01513
     2021.86447        12.97765         5.34706
     2021.86721        10.32460         5.42644
     2021.86995        17.71155         5.25596
     2021.87269        19.05050         5.22800
     2021.87542        17.13645         5.14592
     2021.87816         9.66441         4.97995
     2021.88090        10.91536         5.08458
     2021.88364         9.72631         5.02685
     2021.88637         7.50126         5.04940
     2021.88911         6.76421         5.03948
     2021.89185         8.58316         5.08458
     2021.89459        12.19511         5.01693
     2021.89733        10.90207         5.02685
     2021.90006        -1.08098         5.03046
     2021.90280         3.25697         5.00250
     2021.90554        12.34092         5.06113
     2021.90828        11.93687         5.07737
     2021.91102         9.30882         5.02595
     2021.91375        10.91977         5.04940
     2021.91649        16.35473         5.09541
     2021.91923        13.77468         5.09180
     2021.92197         1.62763         5.26408
     2021.92470         6.05958         5.12878
     2021.92744         7.65053         5.09631
     2021.93018         4.53748         5.10082
     2021.93292        11.80043         5.25055
     2021.93566        23.32539         5.30647
     2021.93839        15.19034         5.22169
     2021.94113        17.69429         5.29204
     2021.94387        25.47624         5.18110
     2021.94661         7.90219         5.22078
     2021.94935        15.17714         5.14592
     2021.95208        17.42809         5.12156
     2021.95482        11.92005         5.12878
     2021.95756        13.56400         5.08368
     2021.96030         7.10895         5.13239
     2021.96303         6.71290         5.18380
     2021.96577        13.94485         5.16035
     2021.96851        14.41880         5.21176
     2021.97125        16.30675         5.09450
     2021.97399        18.91371         5.15223
     2021.97672        19.25466         5.15764
     2021.97946        18.65761         5.17749
     2021.98220        19.46856         5.19553
     2021.99315        26.80836         5.15945
     2021.99589        25.78832         5.13960
     2021.99863         9.99427         5.13509
     2022.00136         9.56122         5.10352
     2022.00410        16.25217         5.15404
     2022.00684         8.25312         5.20184
     2022.00958         7.02807         5.16486
     2022.01232        -3.84098         5.16847
     2022.01505        31.43398         5.25326
     2022.01779        12.74293         5.16666
     2022.01937        14.27121        14.92452
     2022.02345         5.44609         5.86752
     2022.02600         0.92078         5.29024
     2022.02874         9.38473         5.21988
     2022.03148         2.49968         5.21808
     2022.03422         2.89764         5.15404
     2022.03696         3.31559         5.09270
     2022.03969         4.77054         5.52746
     2022.04243        11.43749         5.14411
     2022.04517        10.20444         5.19643
     2022.04791         3.01039         5.12156
     2022.05065         4.42634         5.08097
     2022.05338        -8.10070         5.25686
     2022.05612         0.69325         5.14862
     2022.05886        -0.60980         5.15674
     2022.06160         3.99715         5.15855
     2022.06433         5.17910         5.10894
     2022.06707         6.42905         5.11615
     2022.06981        11.70600         5.14772
     2022.07255        -2.54004         5.02415
     2022.07529         8.54891         4.98897
     2022.07802        11.22686         5.08458
     2022.08076        10.43381         5.04580
     2022.08350         5.96276         5.10623
     2022.08624        12.91471         5.02866
     2022.08898        11.57466         5.08097
     2022.09171         4.29962         5.04580
     2022.09445         2.03557         5.04309
     2022.09719         7.91252         5.01062
     2022.09993         7.68247         5.23702
     2022.10266         4.50742         5.23882
     2022.10540         8.56337         5.03317
     2022.10814         7.93532         5.01242
     2022.11088        10.66228         5.06384
     2022.11362        14.47323         4.98626
     2022.11635        13.57618         4.98536
     2022.11909        10.79413         5.07917
     2022.12183         8.41708         5.04038
     2022.12457        10.06303         5.12607
     2022.12731         9.35498         5.06744
     2022.13004         3.51394         5.01062
     2022.13278         5.82189         5.02776
     2022.13552        13.12084         5.00070
     2022.13826        13.72579         5.05842
     2022.14373         1.15369         4.98085
     2022.14647        14.67964         4.93846
     2022.14921        11.07960         5.22800
     2022.15195         8.35755         5.21627
     2022.15468         7.70650         5.03046
     2022.15742        12.28845         5.05842
     2022.16016        11.99040         5.04580
     2022.16290         8.79335         5.05482
     2022.16564        10.03830         5.10082
     2022.16837         4.60126         5.06023
     2022.17111         9.19621         4.99528
     2022.17385        12.64216         5.00611
     2022.17659        11.72111         5.03587
     2022.17932         3.06206         5.02325
     2022.18206         3.25401         5.07737
     2022.18480         6.95696         4.95650
     2022.18754        11.67392         5.05572
     2022.19028         6.54287         5.09901
     2022.19301        18.86182         5.08548
     2022.19575        15.87577         5.03858
     2022.19849         6.52172         5.04940
     2022.20123         9.61567         5.11615
     2022.20397        17.29362         5.04489
     2022.20670         9.26058         5.15494
     2022.20944        12.92353         5.14772
     2022.21218        13.30448         5.09541
     2022.21492         8.20143         5.04489
     2022.21765         4.81138         5.02054
     2022.22039         2.27833         5.02144
     2022.22313         7.77528         5.15404
     2022.22587         0.18824         5.21357
     2022.22861         9.74819         5.12878
     2022.23134        14.75514         5.02234
     2022.23408        10.02709         5.09721
     2022.23682        11.05004         5.23431
     2022.23956        13.28599         5.07917
     2022.24230         8.36395         5.44538
     2022.24451        11.50913         9.12374
     2022.24775        14.49381         6.55484
     2022.25325         7.65875         6.04431
     2022.25598        12.81270         5.13419
     2022.25872         9.47465         5.05842
     2022.26146         6.21160         5.09450
     2022.26420         8.40855         5.06564
     2022.26694         4.78651         5.34165
     2022.26967         9.16446         5.07466
     2022.27241        11.44941         5.03768
     2022.27515        10.61836         5.44809
     2022.27789        10.61231         5.03227
     2022.28062         5.99726         5.05482
     2022.28336        15.39221         5.15494
     2022.28610         7.15017         5.12337
     2022.28884        -0.20088         5.18741
     2022.29158         4.41607         5.04940
     2022.29431         4.94902         5.01513
     2022.29705         5.43997         4.99799
     2022.29979         9.37192         5.06564
     2022.30253         9.30687         5.20365
     2022.30527         8.26883         5.13329
     2022.30800         0.03978         5.03407
     2022.31074         2.23473         5.01783
     2022.31348         5.39968         5.06925
     2022.31622         1.25463         5.02685
     2022.31895        -9.99942         5.20816
     2022.32169         8.12253         5.19192
     2022.32443         6.65349         4.98897
     2022.32717        -3.96556         5.00701
     2022.32991         6.51739         5.03407
     2022.33264        -1.40366         5.23341
     2022.33538         3.11329         5.24514
     2022.33812         0.27624         5.18110
     2022.34086         0.29019         5.06113
     2022.34360         1.10715         5.09180
     2022.34633        12.33310         5.08007
     2022.34907         5.79505         5.02054
     2022.35181        12.29500         5.01332
     2022.35455         7.26095         5.03407
     2022.35728         3.16090         5.07917
     2022.36002         5.30785         5.05572
     2022.36276         8.54581         5.05662
     2022.36550         3.03476         5.04850
     2022.36824         5.39971         5.04038
     2022.37097         0.08066         5.04580
     2022.37371        -0.43039         5.07105
     2022.37645         8.74856         5.09721
     2022.37919         6.25251         5.28392
     2022.38193        -4.57253         5.43546
     2022.38466         2.15642         5.06384
     2022.38740        -9.33163         5.08639
     2022.39014         7.85432         5.07466
     2022.39288         2.72127         5.02776
     2022.39561        -1.42278         5.09901
     2022.39835         4.67817         5.10984
     2022.40109         6.72713         5.16757
     2022.40383         4.58908         5.02505
     2022.40657         6.70303         4.96371
     2022.40930        -4.60802         5.09992
     2022.41204         4.23593         5.09360
     2022.41478         5.58188         4.98085
     2022.41752         0.95283         5.16576
     2022.42026         2.89679         5.23792
     2022.42299         6.47874         5.07466
     2022.42573         2.71869         5.16847
     2022.42847         3.78064         4.95469
     2022.43121         4.68259         5.11074
     2022.43394        14.23354         5.28573
     2022.43668        -4.75151         5.03948
     2022.43942        -0.51255         5.14411
     2022.44216         7.74140         5.13058
     2022.44490        15.70935         5.09721
     2022.44763        12.72830         4.99168
     2022.45037         9.22925         4.98987
     2022.45311        -0.82380         5.02234
     2022.45585         4.32315         4.98446
     2022.45859        -1.28389         5.01693
     2022.46132         1.24706         4.99709
     2022.46406         5.08801         4.97003
     2022.46680         4.77996         5.05121
     2022.46954        -0.43309         5.03317
     2022.47227        -4.56214         5.02234
     2022.47501         5.76581         5.03497
     2022.47775         6.68977         5.13419
     2022.48049         1.88872         5.05662
     2022.48323         8.43667         4.97454
     2022.48596        15.45362         5.06744
     2022.48870         1.48657         5.14321
     2022.49144         2.15952         4.97815
     2022.49418         7.23047         5.10262
     2022.49692         5.35843         5.05391
     2022.49965        -0.75762         5.00521
     2022.50513         6.34328         5.23882
     2022.50787        20.40523         5.32542
     2022.51060         5.85218         5.16847
     2022.51334        -2.87387         5.05752
     2022.51608        -4.26292         4.99258
     2022.51882        -2.40396         4.98175
     2022.52156        -0.19701         5.00521
     2022.52429         2.89194         4.99979
     2022.52703         8.56989         5.02325
     2022.52977        11.72084         4.98175
     2022.53251         5.37179         5.03768
     2022.53525         1.11574         5.27581
     2022.53798         3.01570         5.00340
     2022.54072         2.23965         4.97544
     2022.54347         9.31361         4.95830
     2022.54620        -1.56045         5.15674
     2022.54893         9.27950         5.02685
     2022.55167        10.49045         5.08368
     2022.55441         7.45540         5.00521
     2022.55715        16.92536         5.03858
     2022.55989         6.25031         4.97093
     2022.56262         8.11826         4.98626
     2022.56536        -5.25279         5.07015
     2022.56810         8.32216         5.05031
     2022.57084         7.30011         4.95379
     2022.57357         9.26606         5.14411
     2022.57631        -0.72498         4.99258
     2022.57905         1.81397         5.17929
     2022.58179        12.33692         5.15674
     2022.58453        14.57387         5.21357
     2022.58726         4.19782         5.00430
     2022.59000        10.81877         5.00791
     2022.59274         4.27672         4.98536
     2022.59548         6.65168         5.00521
     2022.59822        -2.91437         4.94928
     2022.60369         4.66553         5.02144
     2022.60643        13.79148         5.07015
     2022.60917         4.03143         5.15043
     2022.61190        12.33038         5.21267
     2022.61464        15.58734         5.03768
     2022.61738        15.65629         4.95199
     2022.62012         8.81124         4.93034
     2022.62286        17.47419         5.02415
     2022.62559         9.28314         4.92312
     2022.62833        12.50209         5.00070
     2022.63107        13.71404         5.03587
     2022.63381        17.74700         4.94297
     2022.63655        13.78795         4.95740
     2022.63928        13.64290         5.04129
     2022.64202         8.92885         5.27761
     2022.64476        18.14180         5.30196
     2022.64750        15.91575         5.04580
     2022.65023        13.09770         5.18470
     2022.65297        19.12666         5.15133
     2022.65571        18.09961         5.10713
     2022.65845        18.96856         5.13870
     2022.66119        17.23251         4.88163
     2022.66392        20.19646         4.96913
     2022.66666        21.78241         4.92763
     2022.66940        17.39336         4.94928
     2022.67214        14.25032         4.98626
     2022.67488        16.63827         4.98717
     2022.67761        18.57822         5.01964
     2022.68035        20.61117         4.92042
     2022.68309        25.19212         5.13780
     2022.68583        22.40607         5.22169
     2022.68856        15.96002         4.93124
     2022.69130        19.98698         4.99077
     2022.69404        16.47093         5.31910
     2022.69678        19.46288         5.22890
     2022.69952        11.56583         5.05752
     2022.70225        20.15578         5.09180
     2022.70499        16.53873         5.08368
     2022.70773        17.29668         5.01693
     2022.71047        18.45364         4.92673
     2022.71321        25.33259         4.88975
     2022.71868        19.36649         4.89065
     2022.72142        27.48444         4.89155
     2022.72416        13.96939         5.03768
     2022.72689        23.41534         4.99799
     2022.72963        27.81930         4.97724
     2022.73238        16.20027         4.92403
     2022.73511        18.43420         4.96281
     2022.73785        16.35115         4.98536
     2022.74058        21.29310         5.18019
     2022.74332        18.59205         5.28212
     2022.74606        20.79500         4.95199
     2022.74880        20.77896         4.95289
