# ================= DQRFIT RESULTS ================
# INPUT FILE: series/KELS.rad
# OUTPUT: LDETRENDED
# FILTER FUNCTION: f(t)
# f(t)=+line(t)+annual(t)
# line(t)=+P 1+P 2*t
# annual(t)=+P 3*sin(2*pi*t+P 4)
# heav(t)=(t<0?0:1)
# TOTAL OBSERVATIONS MTOT= 3567
# INITIAL TIME INTERVAL= 2007.6906 - 1997.7741 =  9.9165
# TOTAL OBSERVATIONS AFTER PREFILTER M= 3560
# TIME-SPAN= 2007.6906 - 1997.7741 =  9.9165
# OBSERVATIONS: USED M=  3560 REJECTED MTOT-M=     7 %USED=   99.8038
# N=  4 PARAMETERS
# MAXSIG= 175.00000
# MAXRES=  30.41969
# SCALE FACTOR FOR LENGTHS: SCL=  10.00000
# SCALE FACTOR FOR SIGMAS: SCLSIG=   1.00000
# CHI^2=   3073.482 DOF=  3556 CHI^2/DOF=   0.86431
# RMS=      7.124 SDEV=      7.125 MEAN=    0.00752
#  P #       PARAMETER +-    SIGMA %error PARAMETER NAME
# P 1 =      2892.27158 +-   77.661   2.69 YZERO                              
# P 2 =        -1.43660 +-    0.039   2.70 SLOPE                              
# P 3 =         4.27699 +-    0.155   3.62 ANNUAL AMPLITUDE                   
# P 4 =        -2.81148 +-    0.049   1.73 ANNUAL PHASE                       
#       T            LDETRENDED       SIG_OBS
     1997.77413        -1.90257         7.86232
     1997.77687        -4.89864         7.82328
     1997.77960        -1.47771         8.49079
     1997.78234        -6.04677         8.65813
     1997.78508       -12.72284         8.59584
     1997.78782        -6.09691         8.96121
     1997.79055        -8.82798         8.03710
     1997.79329        -5.34504         8.62745
     1997.79603         3.57089         8.05941
     1997.79877        -5.28118         8.59119
     1997.80151         7.79376         8.09753
     1997.80424         9.65969         8.67951
     1997.80698         1.63362         7.99062
     1997.80972        11.31456         8.81432
     1997.81246         8.71349         8.63582
     1997.81520         1.33142         8.47033
     1997.81793         2.66136         8.23048
     1997.82067        -7.86571         7.57505
     1997.82341         1.96422         7.97016
     1997.82615        -5.16684         8.44337
     1997.82888        -8.18591         8.48149
     1997.83162        13.51302         8.44058
     1997.83436        -1.51104         8.14123
     1997.83710        15.00389         8.30299
     1997.83984         5.60782         8.23512
     1997.84257        -5.02024         8.65813
     1997.84531        -9.81631         8.10125
     1997.84805        -2.49238        11.23242
     1997.85079        -2.22745         8.32995
     1997.85352         5.01149         8.23326
     1997.85626         4.39842         8.08080
     1997.85900        11.11835         8.60700
     1997.86174         6.47229         8.97515
     1997.86448         6.30522         9.70309
     1997.86721         1.16915         8.15238
     1997.86995        11.43009         7.78144
     1997.87269         6.96602         9.54133
     1997.87543        10.41295         7.95436
     1997.87817        16.66889         8.42943
     1997.88090         3.40382         9.75144
     1997.88364        11.33275         8.08545
     1997.88638        11.10869         9.36748
     1997.88912         1.26862        10.03778
     1997.89185         2.38855         8.47405
     1997.89459         8.74449         9.06347
     1997.89733        15.65142         8.97143
     1997.90007         3.47235         8.20259
     1997.90281        -2.99671         9.29868
     1997.90554        15.56822         8.19887
     1997.90828        13.39415         8.88125
     1997.91102        -4.83591         8.19050
     1997.91376        15.71902         8.69253
     1997.91650        -5.04505         8.27975
     1997.91923        -0.10812         7.94413
     1997.92197         7.95882         9.32378
     1997.92471         2.47175         8.17469
     1997.92745         5.05068         8.84035
     1997.93018        -3.49438         8.92123
     1997.93292        -2.40345         8.85057
     1997.93566         6.65448         9.04860
     1997.93840        -1.40758         8.15610
     1997.94114         8.30635         9.00583
     1997.94387        -5.49972         8.17284
     1997.94661        -9.40778         8.01944
     1997.94935        -0.79185         7.91810
     1997.95209        -1.69292         8.23698
     1997.95483         6.92602         8.69067
     1997.95756        -0.66905         7.43932
     1997.96030       -19.36212         8.69439
     1997.96304        -1.44618         9.68264
     1997.96578         2.87875         8.29648
     1997.96851         9.02368         7.89579
     1997.97125       -14.81638         8.80409
     1997.97399        -9.29045         7.75355
     1997.97673         1.83948         8.33460
     1997.97947         0.75241         7.39376
     1997.98220        -5.84765         8.30950
     1997.98494         8.05528         8.63582
     1997.98768        -4.51679         8.36342
     1997.99042         4.82915         7.36680
     1997.99316         9.37308         7.54065
     1997.99589        -0.55099         7.89486
     1997.99863        -0.10405         7.40957
     1998.00411        15.50881         7.93019
     1998.00684         8.21475         8.02502
     1998.00958         4.78368         8.02409
     1998.01232        -2.12439         9.12669
     1998.01506        -2.55545         8.15331
     1998.01780         4.59148         8.25372
     1998.02053         1.35241         8.41548
     1998.02327         2.94935         9.48834
     1998.02601         1.53828         7.72566
     1998.02875       -20.74479         8.91565
     1998.03149       -26.82385         8.52054
     1998.03422        24.47008         7.71078
     1998.03696        -5.70899         8.41083
     1998.03970         2.83194         8.62559
     1998.04244         6.06888        10.00431
     1998.04517        11.20481         8.49451
     1998.04791         6.59974         9.03186
     1998.05065        11.76068         7.90230
     1998.05886        17.55348         8.09939
     1998.06160         9.80541         8.25186
     1998.06434        -1.78366         8.32809
     1998.06708        -1.91072         7.89114
     1998.06982        -3.52679         8.78550
     1998.07255        -8.99286         8.53820
     1998.07529        -2.24992         8.41548
     1998.07803       -11.05599         8.40247
     1998.08077         1.02994         8.54657
     1998.08350         2.63588         8.15517
     1998.08624        -0.05619         8.01293
     1998.08898        -0.65526         7.88185
     1998.09172        -3.59632         7.72659
     1998.09446         2.10061         7.69219
     1998.09719        -0.72946         8.41083
     1998.09993         3.04448         8.19701
     1998.10267       -10.25959         8.31136
     1998.10541         2.59234         7.71450
     1998.10815        -7.74673         7.85302
     1998.11088        -5.03479         7.84094
     1998.11362       -14.58286         8.08916
     1998.11636        16.34307         8.68881
     1998.11910        -9.88299         7.31660
     1998.12183        -0.11906         7.77493
     1998.12457         9.32487         7.90044
     1998.12731         3.73981         7.17250
     1998.13005         2.19374         7.83629
     1998.13279         0.81167         8.54378
     1998.13552        -4.56239         7.88185
     1998.13826        -7.54946         7.57970
     1998.14100        -3.94453         7.96180
     1998.14374       -18.89459         7.26547
     1998.14648        -0.03266         7.98039
     1998.14921        -4.13973         7.10928
     1998.15195        -5.92579         8.43315
     1998.15469        -9.94586         7.06930
     1998.15743       -13.57493         7.46814
     1998.16016        -5.49699         7.10370
     1998.16290        -6.90306         7.12137
     1998.16564       -10.24313         7.10835
     1998.16838        -2.85120         7.28220
     1998.17112        -1.63026         7.11858
     1998.17385        -2.85033         6.68348
     1998.17659        -1.27840         6.50499
     1998.17933        -5.48546         7.84652
     1998.18207        -9.20853         7.15111
     1998.18480       -12.14260         6.78947
     1998.18754       -21.96766         8.80037
     1998.19028        -0.52773         7.13996
     1998.19302        -0.35980         7.14461
     1998.19576       -13.63086         6.99493
     1998.19849        -6.07593         7.10091
     1998.20123        -5.45200         7.57691
     1998.20397        -9.99206         7.21154
     1998.20671        -4.66713         6.63421
     1998.20945        -0.78520         6.42131
     1998.21218        -6.64626         5.85886
     1998.21492        -5.73933         6.61097
     1998.21766        -6.07040         7.26825
     1998.22040        -1.08046         7.07581
     1998.22313         3.21147         7.57970
     1998.22587        -6.24460         7.41329
     1998.22861        -9.33266         7.37145
     1998.23135       -15.01373         7.06001
     1998.23409        -7.04480         7.16785
     1998.23682        -3.10687         6.64630
     1998.23956         3.79407         6.80155
     1998.24230        -9.39600         6.10894
     1998.24504        -9.63607         6.11452
     1998.24778        -2.61613         6.06525
     1998.25051         1.34680         5.92486
     1998.25325        -7.00927         5.91557
     1998.25599        -3.86633         5.93881
     1998.25873        -2.70040         6.18518
     1998.26146        -2.84547         6.34136
     1998.26420        -5.07153         6.33021
     1998.26694        -7.61460         6.58773
     1998.26968        -6.68367         6.70952
     1998.27242        -5.77373         5.93509
     1998.27515        -3.87580         6.30696
     1998.27789        -2.86987         6.26606
     1998.28063        12.50107         5.85142
     1998.28337        -6.02600         5.79936
     1998.28611        -0.78607         6.18425
     1998.28884        -2.15813         5.99924
     1998.29158        -5.70920         5.92393
     1998.29432        -4.38627         6.42224
     1998.29706       -15.18834         6.17588
     1998.29979        -6.22340         6.81922
     1998.30253         2.02653         6.98098
     1998.30527        -1.67054         6.99121
     1998.30801        -1.58160         6.63886
     1998.31075        -9.87867         7.44304
     1998.31348         0.80526         6.45292
     1998.31622        -5.12980         6.04944
     1998.31896        -6.59287         7.00237
     1998.32170       -14.17294         7.13531
     1998.32444        -4.74900         6.63886
     1998.32717        -3.94207         6.61748
     1998.32991         2.35086         7.60666
     1998.33265        18.23480         7.48766
     1998.33539         4.24873         7.81119
     1998.33812         2.75366         7.58714
     1998.34086         9.73660         7.60573
     1998.34360         1.14453         7.91624
     1998.34634         1.52146         7.74797
     1998.34908         9.29740         7.39934
     1998.35181        -0.04367         7.17064
     1998.35455         0.50626         6.15636
     1998.35729         8.71019         5.87931
     1998.36003         5.13513         6.25397
     1998.36277         3.12406         6.24096
     1998.36550         1.66899         6.71323
     1998.36824         1.43693         7.58621
     1998.37098         1.12586         6.95495
     1998.37372        -0.92121         7.21712
     1998.37645        -3.23727         7.05908
     1998.37919         0.33966         6.01876
     1998.38193        -0.61241         5.86258
     1998.38467        -4.75947         6.48081
     1998.38741         6.63246         7.34542
     1998.39014        -5.78261         7.30916
     1998.39288        -6.32167         7.51276
     1998.39562       -12.45974         7.29800
     1998.39836        -0.49581         7.79074
     1998.40110        -0.88587         6.94194
     1998.40383         1.15906         6.79412
     1998.40657        -3.10201         6.04851
     1998.40931        -4.49107         5.98436
     1998.41205        -3.28214         6.17123
     1998.41478         2.54579         5.84491
     1998.41752        -0.76227         6.05130
     1998.42026         1.72066         6.94287
     1998.42300         5.47859         7.13717
     1998.42574         5.92152         7.28220
     1998.42847         6.24346         6.46687
     1998.43121        -4.97461         6.67512
     1998.43395         2.00332         6.12010
     1998.43669        -1.52174         5.94904
     1998.43943         0.33819         6.34322
     1998.44216         5.54112         6.21492
     1998.44490        13.79406         5.97414
     1998.44764         1.69499         6.22422
     1998.45038        -2.40908         5.96763
     1998.45311         3.65986         6.82759
     1998.45585         4.13579         6.78389
     1998.45859         3.76772         6.59609
     1998.46133         3.11866         6.78668
     1998.46407         3.29359         6.78296
     1998.46680        -1.73148         6.74391
     1998.46954         1.88746         6.98656
     1998.47228         1.97439         6.97912
     1998.47502         8.39632         6.77087
     1998.47775        17.66026         6.97819
     1998.48049         1.86619         6.93264
     1998.48323         0.10812         6.83595
     1998.48597         1.25505         6.74298
     1998.48871        -4.35301         6.86942
     1998.49144        -1.04808         6.18332
     1998.49418        -2.10215         5.98065
     1998.49692        -0.99621         6.39156
     1998.49966        -2.73328         6.04200
     1998.50240         3.74765         5.96670
     1998.50513         5.18859         5.91185
     1998.50787        -2.72948         6.14520
     1998.51061        -1.76455         6.11545
     1998.51335        -2.89061         5.99273
     1998.51608         3.16632         6.03364
     1998.51882         5.11325         6.24839
     1998.52156        -0.15381         6.44920
     1998.52430        -3.14788         6.29395
     1998.52704        -7.27295         6.36274
     1998.52977        -5.68901         6.06618
     1998.53251        -2.49408         5.96112
     1998.53525         9.39685         6.05781
     1998.53799         0.45879         6.15450
     1998.54073         3.73672         6.24653
     1998.54346         3.05965         6.17960
     1998.54620         3.20958         6.08198
     1998.54894        -2.43748         6.57378
     1998.55168         3.72645         6.69371
     1998.55441         9.07338         6.71788
     1998.55715        -1.37868         7.56947
     1998.55989         8.51725         6.60539
     1998.56263         0.90918         6.94380
     1998.56537        -7.83088         7.50346
     1998.56810        -3.88095         6.38227
     1998.57084        -0.17102         6.99307
     1998.57358        -6.87008         7.82513
     1998.57632        -5.44515         8.13844
     1998.57906        -5.47722         7.80003
     1998.58179         3.84372         7.96459
     1998.58453        -2.57635         7.83908
     1998.58727        -8.53942         7.23943
     1998.59001         0.43052         7.51555
     1998.59274         6.94345         7.31195
     1998.59548        -2.55662         8.42664
     1998.59822        -7.27868         8.05291
     1998.60096         2.28625         8.41176
     1998.60370         1.55718         7.83071
     1998.60643        -7.04288         7.30916
     1998.60917        -5.43195         7.66616
     1998.61191        -8.82502         8.64790
     1998.61465        -1.69209         8.03710
     1998.61739        -1.07215         8.65627
     1998.62012         7.57778         7.55274
     1998.62286       -10.30529         8.14959
     1998.62560        -6.02135         7.47186
     1998.62834        -1.73642         8.06778
     1998.63107         2.16851         7.74797
     1998.63381        -2.47055         7.94785
     1998.63655        -6.66962         8.13937
     1998.63929       -13.89269         8.73715
     1998.64203         2.24525         8.26023
     1998.64476        -6.49782         7.85302
     1998.64750        -6.49389         7.89393
     1998.65024         1.52305         8.38294
     1998.65298         2.70198         7.87348
     1998.65572         5.22091         8.72507
     1998.65845        -2.08115         8.13100
     1998.66119         6.52778         7.64199
     1998.66393         3.45671         7.63269
     1998.66667         2.86365         8.78736
     1998.66940         3.63458         7.68847
     1998.67214         0.25151         8.61908
     1998.67488         7.12044         8.47870
     1998.67762         8.94438         7.63269
     1998.68036         6.68231         7.60108
     1998.68309        13.91824         8.95098
     1998.68583        12.09518         8.65906
     1998.68857        11.40611         8.68509
     1998.69131         6.73604         8.58004
     1998.69405         3.72798         8.07801
     1998.69678         0.36091         8.08359
     1998.69952        -2.08216         7.93577
     1998.70226         9.55378         8.34018
     1998.70500         7.31571         8.56702
     1998.70773        16.10464         8.14309
     1998.71047        10.90458         8.28719
     1998.71321        15.52051         9.32099
     1998.71595        -1.50956         8.84778
     1998.71869         7.32238         8.74738
     1998.72142        -8.55769         8.53076
     1998.72416         7.90424         9.20013
     1998.72690         3.67418         8.77062
     1998.72964         3.95611         8.90171
     1998.73238         7.70004         8.97980
     1998.73511        -2.03402         7.79631
     1998.73785         6.81291         9.12669
     1998.74059        -2.13115         7.99620
     1998.74333        -3.69223         8.72879
     1998.74606        15.34771         8.85894
     1998.74880       -11.32936         7.93205
     1998.75154         0.53757         8.30671
     1998.75428        -8.71849         8.28068
     1998.75702        -3.80456         8.22769
     1998.75975        -3.40163         9.16574
     1998.76249        -0.15569         8.44523
     1998.76523        10.80524         8.16168
     1998.76797        12.22017         8.43872
     1998.77070        -9.58489         8.25186
     1998.77344         0.69104         8.11055
     1998.77618         3.72697         9.34052
     1998.77892         9.04191         8.47684
     1998.78166         1.42484         8.35784
     1998.78439       -10.31023         8.98073
     1998.78713        12.17471         8.12821
     1998.78987        -6.92336         9.04953
     1998.79261       -21.16843         7.93298
     1998.79535        -1.37549         8.62094
     1998.79808        -8.47056         8.02316
     1998.80082       -11.46663         8.58190
     1998.80356         7.69630         8.02502
     1998.80630        -1.46576         8.09195
     1998.80903        -1.37183         9.20850
     1998.81177        -1.23690         7.95343
     1998.81451        -1.28496         7.49045
     1998.81725        10.62897         7.98783
     1998.81999         0.82090         9.17131
     1998.82272       -11.70816         7.52485
     1998.82546        -4.17823         7.85302
     1998.82820        -8.44030         8.43594
     1998.83094        -5.15636         7.58435
     1998.83368        -9.03843         7.71078
     1998.83641        -8.92350         8.65534
     1998.83915       -12.25956         8.57074
     1998.84189         6.36937         8.76969
     1998.84463        14.43130         9.17689
     1998.84736         2.08724         7.32961
     1998.85010        -4.52483         8.46476
     1998.85284        -1.87590         9.24755
     1998.85558         2.30004         8.01014
     1998.85832         5.78597         7.90230
     1998.86105         8.89790         8.40061
     1998.86379         9.21483         7.41143
     1998.86653         8.22377         8.66371
     1998.86927        -0.96430         8.88962
     1998.87201         2.63363         8.59956
     1998.87474        13.89557         8.28905
     1998.87748         5.69750         8.28812
     1998.88022        -7.48357         8.07336
     1998.88296        -2.59863         7.93949
     1998.88569        13.21030         7.81305
     1998.88843        17.26323         8.21746
     1998.89117        16.61617         7.96924
     1998.89391         3.16610         7.77400
     1998.89665        -5.17597         7.52020
     1998.89938         1.12697         7.16134
     1998.90212         1.91690         8.46383
     1998.90486        22.24983         7.57877
     1998.90760        16.25377         7.48022
     1998.91034         9.01170         7.83071
     1998.91307         1.02863         8.23884
     1998.91581        12.05057         8.25651
     1998.91855        21.31950         8.02502
     1998.92129        14.65443         8.06499
     1998.92402        17.03837         7.75076
     1998.92676        13.99330         8.80409
     1998.92950        16.94723         7.22828
     1998.93224        13.95016         7.41143
     1998.93498         3.75610         8.31136
     1998.93771        -6.44997         7.73960
     1998.94045         1.81596         8.19608
     1998.94319        -1.77410         7.82792
     1998.94593         7.59783         7.40213
     1998.94867         4.45576         7.79631
     1998.95140         3.97770         8.98073
     1998.95414        -6.45137         8.74831
     1998.95688         6.59656         8.38852
     1998.95962        -2.64450         7.95715
     1998.96235         2.49343         8.70089
     1998.96509        -4.70264         8.36993
     1998.96783         6.97030         8.35877
     1998.97057        12.12723         8.34204
     1998.97331         5.38916         8.28254
     1998.97604         8.81210         8.19515
     1998.97878        18.91803         8.69253
     1998.98152        11.15196         8.32251
     1998.98426        -1.20210         7.99806
     1998.98700        18.92783         8.87753
     1998.98973         8.79176         8.64233
     1998.99247         5.45369         7.97481
     1998.99521        -2.23437         8.19236
     1998.99795        13.05156         7.98690
     1999.00342        -9.25657         8.78085
     1999.00616       -11.83764         9.40280
     1999.00890        -8.06371         8.87010
     1999.01164        -4.60477         8.80502
     1999.01437       -21.85184         8.32809
     1999.01711       -12.05791         8.06406
     1999.01985        -3.21597         8.48056
     1999.02259       -11.61704         9.52180
     1999.02533        -8.54811         8.91472
     1999.02806       -14.13317         8.75017
     1999.03080        -8.02624         9.35632
     1999.03354        -7.84531         8.03431
     1999.03628         6.44463         9.37770
     1999.03901        -9.77144         8.80781
     1999.04175         2.71449         8.99560
     1999.04449         5.21743         8.05198
     1999.04723        -1.83964         8.44802
     1999.04997       -10.91871         7.87627
     1999.05270         3.22922         8.60142
     1999.05544        -3.02784         8.38294
     1999.05818         3.80509         7.80375
     1999.06092        -3.52898         9.14342
     1999.06366       -13.53904         9.10996
     1999.06639       -12.32111         8.41176
     1999.06913        -4.60218         8.31415
     1999.07187       -13.78024         8.28068
     1999.07461        -9.06531         8.11891
     1999.07734        -6.80538         7.89114
     1999.08008        -4.39844         7.93856
     1999.08282        14.46149         9.16667
     1999.08556        10.54742         7.67081
     1999.08830       -10.21164         8.52797
     1999.09103         9.41929         8.97701
     1999.09377        -5.20678         8.71577
     1999.09651        -6.03784         8.17377
     1999.09925       -25.91991         9.16760
     1999.10198         9.70802         8.48242
     1999.10472        -0.67504         7.96273
     1999.10746        -3.78311         8.73994
     1999.11020       -13.11318         8.32902
     1999.11294       -12.12024         9.28752
     1999.11567        -6.69331         8.11520
     1999.11841       -23.83338         8.73901
     1999.12115       -29.90045         8.75296
     1999.12389        -2.23651         8.36342
     1999.12663       -34.18958         8.84964
     1999.12936        -3.31965         8.33274
     1999.13210       -15.26871         8.73808
     1999.13484         3.43122         8.47684
     1999.13758         0.06115         8.72600
     1999.14031       -18.83091         8.78271
     1999.14305        -4.36298         8.14495
     1999.14579       -10.11205         8.56423
     1999.14853       -17.45811         8.08823
     1999.15127       -11.74618         8.23605
     1999.15400        -9.27425         8.52704
     1999.15674       -11.84631         9.02349
     1999.15948        -9.86738         8.53262
     1999.16222       -18.60645         8.22025
     1999.16769       -27.63658         7.96273
     1999.17043       -28.00765         7.76563
     1999.17317       -14.88671         7.71543
     1999.17591       -27.68678         7.53414
     1999.17864        -3.99185         7.47464
     1999.18138       -20.56492         7.42909
     1999.18412       -14.76198         7.88835
     1999.18686       -25.69505         7.51183
     1999.18960       -17.10812         7.12322
     1999.19233        -9.95818         7.85860
     1999.19507        -8.12725         7.49789
     1999.19781       -14.71032         7.98504
     1999.20055       -23.48638         7.46442
     1999.20329       -18.30745         7.47743
     1999.20602       -15.80052         7.33333
     1999.20876        -0.57258         6.41295
     1999.21150       -17.24665         6.74949
     1999.21424       -17.81672         7.69405
     1999.21697        -9.91878         8.82826
     1999.21971       -21.22485         8.37830
     1999.22245       -11.23492         7.62060
     1999.22519       -13.12498         7.15669
     1999.22793       -16.83905         6.61097
     1999.23066       -16.64612         6.88151
     1999.23340       -21.11818         7.12694
     1999.23614       -27.21125         6.91126
     1999.23888       -28.81932         6.53567
     1999.24162       -10.68438         6.63328
     1999.24435       -18.93345         6.91591
     1999.24709       -12.83252         7.14926
     1999.24983       -20.74659         7.52392
     1999.25257       -14.47665         7.54344
     1999.25530       -22.49072         7.64849
     1999.25804       -12.60679         7.59922
     1999.26078       -27.67185         8.21002
     1999.26352       -24.33392         7.45047
     1999.26626       -17.30099         7.28313
     1999.26899       -12.35905         8.02502
     1999.27173       -27.33112         7.11951
     1999.27447       -23.15119         7.95436
     1999.27721       -23.04525         7.91717
     1999.27995       -21.03532         7.66058
     1999.28268       -19.55239         7.84652
     1999.28542       -17.63145         7.87999
     1999.28816       -12.69052         7.91810
     1999.29090        -6.05159         8.93517
     1999.29363        -2.48965         8.09753
     1999.29637       -19.54272         7.08139
     1999.29911        -3.16579         7.29986
     1999.30185        -7.95585         7.43374
     1999.30459       -23.65892         7.61967
     1999.30732       -13.64199         8.23326
     1999.31006       -16.43006         8.35133
     1999.31280        -9.00912         8.98259
     1999.31554       -10.29319         8.65255
     1999.31828        -4.16026         7.09254
     1999.32101       -16.91232         7.86418
     1999.32375       -16.81239         7.73217
     1999.32649       -11.76146         7.85953
     1999.32923       -12.14652         8.30020
     1999.33196         2.40541         7.24594
     1999.33470        -8.75366         7.57133
     1999.33744        -2.71772         7.25152
     1999.34018       -10.84079         8.17655
     1999.34292         4.98614         7.37610
     1999.34565        -8.61892         7.74053
     1999.34839        -3.14699         7.68382
     1999.35113        -9.16706         7.48394
     1999.35387       -19.69912         7.47929
     1999.35661       -23.91719         7.49417
     1999.35934        -8.20226         7.26733
     1999.36208        -8.13732         7.96273
     1999.36482       -21.16739         7.86232
     1999.36756       -19.46746         8.31694
     1999.37029       -14.12853         7.65035
     1999.37303       -13.12759         7.08325
     1999.37577       -28.77466         7.31474
     1999.37851        -9.33073         7.46256
     1999.38125       -22.66779         8.12635
     1999.38398       -13.30186         7.58249
     1999.38672       -18.99993         7.70799
     1999.38946       -12.25499         7.50997
     1999.39220       -15.38706         7.49138
     1999.39493        -4.47113         7.62990
     1999.39767       -14.54619         8.25186
     1999.40041         2.19874         7.82978
     1999.40315        -2.48833         7.46907
     1999.40589        -3.96339         7.10091
     1999.40862        -8.64446         7.71450
     1999.41136       -24.61853         8.04919
     1999.41410         8.15141         7.44118
     1999.41684        12.13734         7.48859
     1999.41958        20.28027         7.90137
     1999.42231        -2.08079         8.24163
     1999.42505        23.29114         8.41362
     1999.42779         1.10407         7.94227
     1999.43053         4.46901         7.95250
     1999.43326         2.55694         8.00921
     1999.43600        -4.86213         8.07987
     1999.43874        -6.42320         8.32344
     1999.44148        -6.43626         8.63117
     1999.44422         6.34567         8.23141
     1999.44695        -3.97940         7.87069
     1999.44969       -12.77246         8.96864
     1999.45243       -10.62953         8.91286
     1999.45517        11.27740         8.56609
     1999.45791         4.17834         8.75575
     1999.46064         2.20827         8.21560
     1999.46338        -1.92780         8.71856
     1999.46612        -3.28386         8.83384
     1999.46886         4.07507         7.89951
     1999.47159         7.07200         8.37830
     1999.47433         8.74594         8.06964
     1999.47707        -0.87613         8.44244
     1999.47981         8.97380         8.32251
     1999.48255         0.43874         7.52950
     1999.48528         7.67267         8.87753
     1999.48802         0.15660         8.15052
     1999.49076         7.45254         8.77248
     1999.49350        -5.73453         9.04116
     1999.49624        25.55940         9.80257
     1999.49897         0.43133         8.38852
     1999.50171         6.14527         8.67858
     1999.50445         6.58820         8.41734
     1999.50719        -4.46487         8.74087
     1999.50992         8.71207         8.40433
     1999.51266         4.17500         8.30578
     1999.51540        -0.45707         8.40712
     1999.51814        13.50387         8.44058
     1999.52088         2.37680         9.38235
     1999.52361        -4.69627         9.74121
     1999.52635       -13.84633         9.34331
     1999.52909         3.61960         9.23918
     1999.53183         4.05853         8.46290
     1999.53457        -2.02653         9.21222
     1999.53730         4.65140         8.67765
     1999.54004        -3.59967         9.21408
     1999.54278        -8.82773         8.58283
     1999.54552       -15.93380         9.20664
     1999.54825         6.47713         8.56609
     1999.55099         2.22707         8.78736
     1999.55373        -2.82400         8.63954
     1999.55647        13.69293         8.64790
     1999.55921        10.01886         8.37272
     1999.56194        -4.71420         8.72228
     1999.56468         3.90573         8.50752
     1999.56742        -3.16034         9.18991
     1999.57016        -7.32440         9.27823
     1999.57290         6.24653         8.93239
     1999.57563         6.71146         8.72507
     1999.57837         9.90540         8.08638
     1999.58111        -5.11867         8.27231
     1999.58385        -4.82774         8.59026
     1999.58658        -1.66580         8.62745
     1999.58932        -0.02287         9.92715
     1999.59206         5.52806         9.45859
     1999.59480        12.54300         8.86452
     1999.59754         9.93793         8.37644
     1999.60027        -0.39414         8.32809
     1999.60301        11.59980         8.92867
     1999.60575        16.42873         9.88624
     1999.60862        13.12385        10.01825
     1999.61123       -12.68940         9.03372
     1999.61396         0.41453         8.57353
     1999.61670         5.88546         8.41455
     1999.61944         2.50240         8.65627
     1999.62218        14.55833         8.57446
     1999.62491         3.78326         9.29868
     1999.62765         1.24219         9.58874
     1999.63039        -0.09787         8.50659
     1999.63313        -5.44894         8.81153
     1999.63587        -6.05601         8.45081
     1999.63860         3.63993         8.96864
     1999.64134       -16.01514         8.79107
     1999.64408         5.96179         9.24197
     1999.64682        -3.64327        10.71552
     1999.64956         4.86166         8.98724
     1999.65229         9.41559         8.88776
     1999.65503         2.23653         9.17782
     1999.65777         1.36246         9.85835
     1999.66051         5.60939        10.24696
     1999.66324         9.24933        10.16328
     1999.66598         1.83126         9.88159
     1999.66872         3.79119         9.46045
     1999.67146         1.25513         9.53203
     1999.67420         8.46106        10.24603
     1999.67693        12.80499         9.17224
     1999.67967         5.36893         8.69160
     1999.68241        18.60186         9.17317
     1999.68515         1.26379        10.69785
     1999.68789         7.13372         8.22490
     1999.69062        -2.48034         9.45022
     1999.69336         8.22759         8.20723
     1999.69610        -5.19048         8.02037
     1999.69884        -1.88654         8.26580
     1999.70157        -5.51461         9.23639
     1999.70431         6.87532         8.46754
     1999.70705        12.10026         8.54471
     1999.70979         4.36119         9.02349
     1999.71253        16.70712         8.90821
     1999.71526        -4.65894         9.20106
     1999.71800         9.07099         8.30764
     1999.72074         4.35092         8.40526
     1999.72348        14.10286         9.10996
     1999.72621        -8.44021         9.35260
     1999.72895        -4.60528         9.34331
     1999.73169        18.89766         9.34981
     1999.73443        -8.93441        10.02011
     1999.73717        -0.03948         8.50938
     1999.73990         2.93646         9.11832
     1999.74264        -2.01361         9.04395
     1999.74538        -2.45268         9.21129
     1999.74812        -3.24174         9.97735
     1999.75086         0.41919         9.57666
     1999.75359         0.51912         8.67951
     1999.75633         0.18105         9.18061
     1999.75907        -1.73401         9.23639
     1999.76181         4.96292         8.83291
     1999.76454         1.49985         9.08206
     1999.76728         7.51379         8.77992
     1999.77002        -6.83828         9.73377
     1999.77276        -4.25335         8.78178
     1999.77550         6.07959         8.65441
     1999.77823         3.88952         8.18306
     1999.78097       -26.23355        10.38269
     1999.78371        -7.99461         9.03930
     1999.78645         3.98432         8.56981
     1999.78919        10.35725         8.90264
     1999.79192        -8.07881         9.17782
     1999.79466        -1.49188         8.85708
     1999.79740         3.61105         9.59153
     1999.80014        -0.92001         8.57725
     1999.80287         2.91892         9.73656
     1999.80561         9.12485         9.07091
     1999.80835         1.14979         9.29775
     1999.81109         9.71772         9.04953
     1999.81383        -5.10135         8.92402
     1999.81656        13.43758         8.63210
     1999.81930        17.56452         8.67486
     1999.82204         9.70645         8.74552
     1999.82478         3.50438        10.19675
     1999.82752         8.72632         8.69625
     1999.83025        33.29125        10.44405
     1999.83299         1.55918         8.77806
     1999.83573        13.63812         9.47439
     1999.83847        10.00505         8.85057
     1999.84120        19.69198         9.01513
     1999.84394        21.60592         9.27172
     1999.84668        13.85485         8.62280
     1999.84942        13.71078        10.01268
     1999.85216        20.35472         8.80502
     1999.85489        15.52665         9.74121
     1999.85763        14.84358         8.06592
     1999.86037        21.07552         9.04860
     1999.86311         6.78545         8.48614
     1999.86585         3.70438        10.77037
     1999.86858        -2.91368         8.88962
     1999.87132        -4.43875         8.56795
     1999.87406        -1.81582         9.33401
     1999.87680         6.81911         8.13472
     1999.87953         8.96505         8.19980
     1999.88227        10.38098         8.65999
     1999.88501        16.30191         8.89334
     1999.88775         1.52785         8.90821
     1999.89049         5.43678         8.05012
     1999.89322        -7.84329         8.62187
     1999.89596        -3.30635         9.19177
     1999.89870         9.75558         8.83384
     1999.90144         3.12951         9.56643
     1999.90418        -2.45655         8.44430
     1999.90691       -14.95062         9.34052
     1999.90965        -8.04769         8.63117
     1999.91239        18.04725         8.79851
     1999.91513        18.52618         8.42199
     1999.91786         4.66711         8.67300
     1999.92060        13.36705         8.44616
     1999.92334         7.96498         8.82268
     1999.92608         6.80791         8.93796
     1999.92882         8.31985         9.46323
     1999.93155         2.77378         8.57818
     1999.93429        12.13971         9.49763
     1999.93703         3.77765         8.74273
     1999.93977         3.42658         8.54006
     1999.94251         3.81351         8.37086
     1999.94524        12.75044         8.72972
     1999.94798        -4.01362         9.15551
     1999.95072         5.15631         8.70554
     1999.95346       -16.40476         8.46011
     1999.95619         0.97718         8.63117
     1999.95893         0.27011         9.41303
     1999.96167        28.52004         9.85556
     1999.96441        12.35098         9.40095
     1999.96715        21.67091         8.56702
     1999.96988        10.94684         9.59060
     1999.97262        -5.38822         7.87627
     1999.97536         8.77271         7.39562
     1999.97810        -2.02836         7.27941
     1999.98084         0.26558         7.12880
     1999.98357       -11.52149         7.37052
     1999.98905        -7.47662         8.99560
     1999.99179         1.50031         8.86638
     1999.99452       -14.11576         8.86452
     1999.99726         6.69818         9.15179
     2000.00274         2.89604         8.30764
     2000.00548        -6.50203         8.37272
     2000.00821        -4.30709         8.27882
     2000.01095        11.05284         8.39596
     2000.01369       -15.52323         8.49822
     2000.01643       -11.57029         8.73157
     2000.01916        -2.09036         8.67951
     2000.02190         8.03857         8.75296
     2000.02464        -9.65149         8.02316
     2000.02738         5.52944         8.11798
     2000.03012         7.67037         8.29927
     2000.03285        -3.12369         8.21374
     2000.03559       -14.73776         8.45453
     2000.03833        -8.36783         8.49079
     2000.04107       -13.26289         8.25093
     2000.04381       -19.53596         8.81246
     2000.04654        -5.58603         8.51403
     2000.04928        -6.22909         8.74366
     2000.05202        -5.91016         8.15610
     2000.05476        -6.96223         8.03896
     2000.05749         5.10471         9.03093
     2000.06023        -6.64136         8.90543
     2000.06297       -10.72243         7.87534
     2000.06571        -7.41550         8.18120
     2000.06845         2.29344         9.16481
     2000.07118        -4.02963         8.73436
     2000.07392        -8.18270         8.87939
     2000.07666         0.90024         9.24011
     2000.07940         8.15717         8.41641
     2000.08214        -4.13590         8.94075
     2000.08487        -0.91496         8.87010
     2000.08761       -10.96003         8.77806
     2000.09035        10.88390         8.97887
     2000.09309        -1.77016         8.39131
     2000.09582       -12.02323         8.75761
     2000.09856         0.88170         8.61908
     2000.10130        -2.51236         8.95377
     2000.10404       -23.38143         9.16667
     2000.10678       -16.23450         8.66278
     2000.10951        -5.71856         8.33553
     2000.11225        -6.74563         8.31694
     2000.11499       -14.61770         8.27882
     2000.11773         5.98424         9.54133
     2000.12047         0.47317         8.07987
     2000.12320         4.43410         8.45639
     2000.12594        -5.04996         9.00397
     2000.12868        -6.40603         8.50845
     2000.13142       -10.30210         8.57632
     2000.13415        -5.77617         8.37086
     2000.13689        -7.59423         9.21873
     2000.13963        -9.41630         9.30519
     2000.14237        -4.28137         8.37365
     2000.14511        -4.24443         8.36156
     2000.14784       -17.40250         8.27882
     2000.15058       -14.32757         8.90543
     2000.15332        20.27737         8.52611
     2000.15606         6.37330         8.11705
     2000.15880        -7.00477         8.20444
     2000.16153       -15.68183         8.63954
     2000.16427       -17.31590         9.57666
     2000.16701        -5.32597         8.23048
     2000.16975         1.83597         8.61815
     2000.17248        -7.94310         8.64047
     2000.17522         5.95583         8.90357
     2000.17796         3.79177         8.61536
     2000.18070         3.45770         8.81711
     2000.18344         3.52963         8.71577
     2000.18617         0.19357         8.14495
     2000.18891        -6.06850         9.37120
     2000.19165       -13.89257         8.62838
     2000.19439        -6.90164         8.24349
     2000.19713       -10.63870         9.21780
     2000.19986       -13.42577         9.05510
     2000.20260       -11.83084         8.36993
     2000.20534        -8.38290         8.75296
     2000.20808       -12.28897         9.03372
     2000.21081       -12.85804         8.28347
     2000.21355         5.50090         9.37677
     2000.21629        -8.85917         8.48056
     2000.21903        -9.88124         8.41176
     2000.22177        -6.58430         9.14156
     2000.22450         5.24563         8.93610
     2000.22724         4.18056         9.30612
     2000.22998        -4.97950         8.39689
     2000.23272         0.82243         8.77434
     2000.23546        -1.59164         9.94574
     2000.23819        -0.81170         8.83384
     2000.24093        -1.89377         9.38049
     2000.24367       -14.11684         9.02814
     2000.24641        -5.95490         9.38886
     2000.24914        -7.62797         8.41641
     2000.25188       -13.74104         9.37213
     2000.25462        -4.67210         9.15644
     2000.25736         5.90483         8.95191
     2000.26010       -15.30924         8.73436
     2000.26283         0.11969         9.52366
     2000.26558        -6.61137         8.46383
     2000.26831       -12.14844         9.39351
     2000.27105         1.47549         8.92867
     2000.27379       -12.33657         9.75422
     2000.27652       -18.46664         8.25837
     2000.27926       -22.01371         9.80815
     2000.28200       -15.87277         9.32657
     2000.28474        -0.25884         8.12170
     2000.28747        -6.51891         7.66523
     2000.29021        -7.04597         9.08485
     2000.29295       -13.63904         8.95935
     2000.29569        -0.51911         8.08638
     2000.29843        -9.87517        10.55375
     2000.30116        -0.46524         9.17782
     2000.30390       -18.17731         9.61105
     2000.30664       -33.08337         9.89740
     2000.30938         7.23556         8.94819
     2000.31211         4.14849        10.19118
     2000.31485        -8.35657         8.61536
     2000.31759       -15.95364         8.13007
     2000.32033        -3.01671         9.08299
     2000.32307       -17.85178         9.01513
     2000.32580       -12.14184         9.78862
     2000.32854       -17.10091         8.34669
     2000.33128        -6.14898         9.03000
     2000.33402        -8.51104         8.53262
     2000.33676       -10.70111         9.66776
     2000.33949        -8.70118         9.48927
     2000.34223        -3.28024         8.82268
     2000.34497        -2.41031         8.67486
     2000.34771        -0.18738         8.50287
     2000.35044         8.17556         8.79293
     2000.35318        -6.56251         8.82361
     2000.35592        -5.31058         8.31043
     2000.35866         3.51836         9.36655
     2000.36140         1.22929         9.45487
     2000.36413        -2.31978         9.40002
     2000.36687       -11.81084         8.50845
     2000.36961        -5.93091         9.00676
     2000.37235       -12.35398         9.21966
     2000.37509       -18.98504         9.27079
     2000.37782       -18.16911         8.69811
     2000.38056        -1.68118         8.85987
     2000.38330         2.60275         8.82268
     2000.38604         1.83369         9.06533
     2000.38877        -1.37338         9.28102
     2000.39151        10.91855         9.35074
     2000.39425        16.79549         9.44092
     2000.39621         0.07031        11.75955
     2000.41433       -21.67367        15.20774
     2000.41615       -18.25005         9.89275
     2000.41889        -1.47811         8.75389
     2000.42163        -1.49418         8.50008
     2000.42437        -1.22525         8.48800
     2000.42710        -3.86531         8.49265
     2000.42984         2.23262         8.16168
     2000.43258         2.95155         8.87568
     2000.43532         8.52049         9.46881
     2000.43806         8.16342         9.22617
     2000.44079         2.84435         8.96864
     2000.44353        -7.64971         9.29496
     2000.44627       -10.43078         9.09973
     2000.44901        -2.02985         8.51496
     2000.45175         5.40108         8.48893
     2000.45448        -4.80898         9.03465
     2000.45722         4.48295         8.82826
     2000.45996         0.26988         8.73622
     2000.46270         6.96582         8.09195
     2000.46543        -4.51225         8.70089
     2000.46817        -7.35932         8.69067
     2000.47091         3.83662         8.91565
     2000.47365        -1.99445         8.20352
     2000.47639        -6.40452         8.63675
     2000.47912       -12.07158         8.54099
     2000.48186        -0.43965         9.19642
     2000.48460         1.94828         8.50008
     2000.48734        -2.31878         8.80595
     2000.49008        -3.12085         8.34111
     2000.49281         3.10108         8.10590
     2000.49555        -6.25198         7.99062
     2000.49829        -4.50205         9.38328
     2000.50103        -1.60912         8.30299
     2000.50376         0.68382         8.45453
     2000.50650         7.91275         8.34576
     2000.50924        -5.57232         8.11891
     2000.51198        -5.53039         8.23419
     2000.51472        -9.50845         9.18154
     2000.51745         0.93948         9.98665
     2000.52019         6.51341        10.28693
     2000.52293        -3.94265         9.07370
     2000.52567         3.67328         9.18247
     2000.52841        -5.86379         9.22710
     2000.53114         8.54215         8.79293
     2000.53388        11.51908         9.33680
     2000.53662       -10.88399         8.60514
     2000.53936        -7.61905         8.32158
     2000.54209         0.52088         8.64511
     2000.54483         6.29081         9.05231
     2000.54757        16.66375         9.34981
     2000.55031         3.83468         9.43813
     2000.55305         7.73761        10.02848
     2000.55578       -11.37245         9.30891
     2000.55852        -3.28752         9.78676
     2000.56126         2.47641         8.60793
     2000.56400        -0.91265         8.34576
     2000.56674        11.31728         9.02349
     2000.56947         6.16921         9.74772
     2000.57221         5.88514         9.82767
     2000.57495         7.65508         9.20850
     2000.57769        -2.74699         8.78085
     2000.58042        -5.44706         9.75701
     2000.58316        10.69388         9.83511
     2000.58590         3.42481         8.71112
     2000.58864         7.64474         9.13506
     2000.59138         3.46168         8.89148
     2000.59411         4.59361        10.10379
     2000.59685        10.09654         8.56051
     2000.59959         4.83448         8.57167
     2000.60233         8.05241         7.89579
     2000.60507         8.45034         9.10531
     2000.60780        -5.54372         8.83942
     2000.61054       -13.25279         8.30206
     2000.61328         1.82414         8.51589
     2000.61602         8.11308         8.19329
     2000.61875         9.43101         8.41362
     2000.62149        12.74094         8.29276
     2000.62423         6.67288         7.92182
     2000.62697         9.65381         8.38108
     2000.62971        15.28574         8.89706
     2000.63244        11.86868         8.29555
     2000.63518         0.29061         8.47312
     2000.63792         1.98154         7.82885
     2000.64066         4.54847         7.53414
     2000.64339         5.39741         7.41979
     2000.64613         8.53934         8.64790
     2000.64887         0.72027         8.38852
     2000.65161        24.26421         8.02223
     2000.65435        14.29514         7.60015
     2000.65708        -3.81593         8.51403
     2000.65982        -1.66699         8.35505
     2000.66256         5.99594         8.44523
     2000.66530        -4.04713         8.25930
     2000.66804         4.82581         7.73496
     2000.67077        10.17674         7.89858
     2000.67351         4.51267         7.84466
     2000.67625        11.89761         7.64199
     2000.67899        -7.54646         7.54716
     2000.68172        11.99847         8.00456
     2000.68446         0.74441         7.72659
     2000.68720         8.48034         7.90881
     2000.68994         1.88927         7.78330
     2000.69268         8.05021         8.10962
     2000.69541        -7.68686         8.60235
     2000.69815        -9.28493         7.82978
     2000.70089        -8.91100         7.43188
     2000.70363        16.21494         8.42385
     2000.70637         8.00787         7.84187
     2000.70910         2.51680         7.78702
     2000.71184         2.34474         8.01479
     2000.71458        -2.00033         7.50346
     2000.71732        -0.23940         7.91252
     2000.72005        -7.03946         8.04733
     2000.72279         8.45947         7.25245
     2000.72553        -6.30660         7.34356
     2000.72827         5.45034         8.50845
     2000.73101         1.55727         9.41954
     2000.73374        -9.40980         8.42478
     2000.73648        -2.26286         9.02628
     2000.73922        -0.85693         9.84719
     2000.74196        -4.26000         9.31541
     2000.74470        16.83094         8.74459
     2000.74743        19.56987         8.93796
     2000.75017         9.74580         8.85336
     2000.75291         5.00174         8.71856
     2000.75565        -7.31033         8.68044
     2000.75838         8.40760         9.24104
     2000.76112        -4.30646         9.81465
     2000.76386        -2.58153         9.13041
     2000.76660         9.93440         8.93703
     2000.76934        10.79533         8.29648
     2000.77207         6.13127         8.23512
     2000.77481        14.41820         8.35040
     2000.77755        -1.34187         8.90171
     2000.78029        -7.20293         8.48614
     2000.78303        -3.35700         8.76876
     2000.78576        16.45593         8.90264
     2000.78850         0.63187         9.57666
     2000.79124        18.77680         8.74924
     2000.79398         5.33673         9.43163
     2000.79671        12.29267         9.42326
     2000.79945         8.97560         8.96585
     2000.80219        13.06753        10.05823
     2000.80493        12.75247         8.69904
     2000.80767        13.70840         8.20352
     2000.81040         1.68333         9.23267
     2000.81314        -4.30373         8.85801
     2000.81588        10.47520         8.31043
     2000.81862         5.31913         8.57074
     2000.82136         5.02307         9.04116
     2000.82409        12.80300         8.51124
     2000.82683        14.16593         8.61536
     2000.82957         9.25386         9.00118
     2000.83231       -12.07220         8.72321
     2000.83504        11.28473         8.49358
     2000.83778         5.64166         9.28195
     2000.84052        -5.54540         8.58654
     2000.84326         4.66153         9.58595
     2000.84600         3.17146         8.74552
     2000.84873        -6.10260         8.35970
     2000.85147        -3.12167         8.48986
     2000.85421        -0.67274         8.01851
     2000.85695        10.92820         6.98470
     2000.85969        -0.48887         8.27417
     2000.86242         7.50806         8.05941
     2000.86516        16.16300         8.89799
     2000.86790         1.57393         8.86824
     2000.87064        14.74286         9.10066
     2000.87337         8.00880         9.57480
     2000.87611        17.19873         9.02814
     2000.87885        -8.07234         8.70368
     2000.88159        13.89660         8.77713
     2000.88433         2.73953         9.21501
     2000.88706        12.69446         9.32192
     2000.88980        11.93539         8.92495
     2000.89254        18.42933         9.21873
     2000.89528         5.10826         8.07057
     2000.89802         0.95619         8.89241
     2000.90075        -3.00187         8.89892
     2000.90349        10.12406         8.37551
     2000.90623         4.34899         8.53913
     2000.90897        -7.66507         8.97422
     2000.91170        13.81786         8.75482
     2000.91444         5.37779         7.70335
     2000.91718         5.84273         8.41734
     2000.91992         1.14166         8.10311
     2000.92266         2.75659         8.14587
     2000.92539         8.62653         9.41024
     2000.92813        19.40846         8.83198
     2000.93087         7.98739         8.55029
     2000.93361         2.06933         7.43653
     2000.93634        13.48326         8.33739
     2000.93908         8.94019         7.64478
     2000.94182       -10.90487         7.87999
     2000.94456        -7.11794         7.70985
     2000.94730         6.73599         7.56761
     2000.95003       -11.85507         7.69777
     2000.95277         0.86786         7.16134
     2000.95551        -2.98821         7.32682
     2000.95825         8.60672         7.59457
     2000.96099       -17.52734         7.93577
     2000.96372        -3.36041         7.23479
     2000.96646        -6.45948         8.43501
     2000.96920         6.40746         7.54902
     2000.97194        -1.96661         7.94971
     2000.97467         6.63932         7.35193
     2000.97741        -3.90374         7.49231
     2000.98015        -0.93681         7.86697
     2000.98289        -4.10088         6.96053
     2000.98563        -0.92894         7.45512
     2000.98836        -5.99401         7.96831
     2000.99110        -5.83808         7.52578
     2000.99384        -9.03914         7.12694
     2000.99658        -6.04921         7.36494
     2000.99932        -5.78528         7.24966
     2001.00479        -9.75741         8.51682
     2001.00753       -14.66548         7.69405
     2001.01027        -0.29954         7.76842
     2001.01300        17.28539         8.22583
     2001.01574        -8.15268         7.50068
     2001.01848       -11.43075         7.40585
     2001.02122        11.51219         7.45698
     2001.02396        -7.44488         7.70335
     2001.02669        22.05705         7.33984
     2001.02943       -13.37801         7.45884
     2001.03217        -8.98408         7.41886
     2001.03491        -1.56215         7.59829
     2001.03765        -1.32021         7.48766
     2001.04038       -18.66628         7.20876
     2001.04312       -11.25535         7.29615
     2001.04586       -13.62741         7.60666
     2001.04860        -8.16048         7.39190
     2001.05133        10.62845         7.81584
     2001.05407         5.88939         7.47929
     2001.05681         5.22432         8.13937
     2001.05955        -5.52975         7.50253
     2001.06229       -16.56481         8.28533
     2001.06502         6.22812         7.66709
     2001.06776        -0.51295         7.71543
     2001.07050        -2.55301         8.33274
     2001.07324         1.49092         8.06406
     2001.07598         5.49685         7.82513
     2001.07871        -2.82822         7.42630
     2001.08145        -3.66528         7.46907
     2001.08419        -6.61635         8.15424
     2001.08693        -2.48642         7.73496
     2001.08966       -17.68748         8.26580
     2001.09240       -11.27555         7.68940
     2001.09514         6.80538         7.85581
     2001.09788        -4.29168         7.55925
     2001.10062        -6.77275         7.68754
     2001.10335       -11.81182         8.26116
     2001.10609       -10.40388         7.93298
     2001.10883        -0.07895         7.67081
     2001.11157         0.65198         8.35226
     2001.11431         9.25492         8.45174
     2001.11704       -13.71315         8.43129
     2001.11978        -5.70622         8.79479
     2001.12252        -6.20028         8.26301
     2001.12526        -9.35835         9.05417
     2001.12799        -9.88042         7.82792
     2001.13073        -3.00348         7.90416
     2001.13347        -5.15555         7.84466
     2001.13621        -3.71662         8.03431
     2001.13895         0.87232         8.25186
     2001.14168         0.31925         8.64418
     2001.14442       -12.17882         7.98783
     2001.14716       -11.78389         8.56144
     2001.14990        -4.10495         7.99527
     2001.15264        -5.18002         8.31043
     2001.15537         2.66391         8.48707
     2001.15811       -10.31215         8.47405
     2001.16085        -3.24722         8.30113
     2001.16359         1.32371         8.53355
     2001.16632       -14.88035         9.06440
     2001.16906       -18.76342         8.21932
     2001.17180         2.00351         9.33959
     2001.17454       -27.94755         8.89520
     2001.17728       -17.26362         8.41920
     2001.18001        -1.81969         9.18619
     2001.18275        -5.41275         8.34762
     2001.18549       -11.21682         8.72786
     2001.18823       -14.32889         9.03651
     2001.19097         7.92905         8.66836
     2001.19370       -10.50802         8.76690
     2001.19644        -6.48009         9.10252
     2001.19918         5.14085         8.86452
     2001.20192         0.61078         8.34855
     2001.20465         1.53271         8.57167
     2001.20739        -7.40136         8.77713
     2001.21013        -4.05542         9.16945
     2001.21287        -7.37849         9.67520
     2001.21561        -5.77856         9.17689
     2001.21834        -1.49362         8.62931
     2001.22108        -3.44469         8.95191
     2001.22382        -7.00876         8.71019
     2001.22656         9.24718         8.48428
     2001.22930         7.04711         8.56888
     2001.23203        -3.86796         9.15365
     2001.23477         1.38898         9.03744
     2001.23751       -12.07009         8.92030
     2001.24025       -18.57216         8.39782
     2001.24298         4.80978         8.66836
     2001.24572         7.29971        10.08147
     2001.24846         3.95064         8.94354
     2001.25120         3.34458         8.74087
     2001.25394         2.97451         8.98259
     2001.25667        -3.29956         8.99839
     2001.25941         6.14138         9.08857
     2001.26215        -5.62669         9.10531
     2001.26489         2.55124         8.91007
     2001.26762         9.00618         9.03186
     2001.27036        -9.83589         8.55865
     2001.27310         6.59804         8.42478
     2001.27584         4.33397         9.47811
     2001.27858        -3.81709         9.02814
     2001.28131        -2.98216         9.58781
     2001.28405        -3.27223         9.14156
     2001.28679         6.19871         9.61570
     2001.28953         2.58864         9.48090
     2001.29227        -6.59643         9.92529
     2001.29500        -4.24649         9.18247
     2001.29774        -9.82656         8.84871
     2001.30048         3.88037         8.84686
     2001.30322         6.27331         9.46230
     2001.30595         0.05424         9.09694
     2001.30869        -3.42183         8.61258
     2001.31143        -3.79989         9.52366
     2001.31417         0.81004         9.16945
     2001.31691         3.93997         9.42605
     2001.31964         8.82391         9.57480
     2001.32238        -7.70316         9.42512
     2001.32512       -18.69223         8.86173
     2001.32786        -2.15429         9.71704
     2001.33060         1.11764         9.64638
     2001.33333         7.22957         8.98817
     2001.33607        -5.17450         9.09973
     2001.33881       -10.43556         9.29961
     2001.34155         2.74837         9.15737
     2001.34428        -8.23770         8.95749
     2001.34702         1.77424         9.07184
     2001.34976         3.30417         9.80350
     2001.35250       -15.37190         9.16016
     2001.35524        -8.39596         9.04860
     2001.35797         2.40097         8.56237
     2001.36071        11.09590         9.62128
     2001.36345        14.97384         8.82733
     2001.36619        12.31877         8.74924
     2001.36893         1.92070         8.46290
     2001.37166         8.48764         8.77527
     2001.37440        -3.34543         9.41303
     2001.37714         5.01450         8.79014
     2001.37988       -13.88456         9.57944
     2001.38261        -5.85763         8.93146
     2001.38535        -5.18470         9.49856
     2001.38809         4.32624         8.61629
     2001.39083         3.78817         8.34948
     2001.39357         6.06210         8.43222
     2001.39630         4.25603         8.36807
     2001.39904        10.18297         8.65069
     2001.40178         7.07790         8.62466
     2001.40452        10.50483         9.77468
     2001.40726        -5.08223         8.85150
     2001.40999        -9.03030         9.67055
     2001.41273         5.28763         9.28567
     2001.41547         0.53857         8.85150
     2001.41821        -3.82150         8.18585
     2001.42094         7.20543         8.32344
     2001.42368        13.59937         8.77527
     2001.42642         0.55330         8.25279
     2001.42916        -1.21577         8.25651
     2001.43190         1.66617         8.91937
     2001.43463         7.54610         9.22245
     2001.43737        -4.41397         9.72169
     2001.44011         1.66097         8.38108
     2001.44285       -14.55810         8.78178
     2001.44559         5.97783         8.70275
     2001.44832         5.11277         7.92275
     2001.45106        -2.07030         8.75761
     2001.45380        -4.98437         8.73064
     2001.45654        -2.46343         8.02223
     2001.45927         0.27250         8.78271
     2001.46201        12.46043         8.66092
     2001.46475        -5.15664         8.83198
     2001.46749         6.44030         9.58595
     2001.47023        -7.96977        10.01732
     2001.47296         1.83616         9.13506
     2001.47570       -16.12890         9.33959
     2001.47844        16.60403         8.82919
     2001.48118         6.12696         8.34948
     2001.48392        10.36090         8.46754
     2001.48665         3.42183         9.63058
     2001.48941         6.99980         8.55679
     2001.49213         6.03470         8.57725
     2001.49487        -0.24437         8.29276
     2001.49760         6.83556         9.18433
     2001.50034        15.75350         9.52087
     2001.50308        -6.25657         9.22988
     2001.50582        -6.70064         8.40805
     2001.50856        14.61230         8.72042
     2001.51129        19.14123         8.58654
     2001.51403         6.26316         8.02037
     2001.51677        -2.47990         8.22397
     2001.51951       -13.31597         9.43999
     2001.52225        12.52696         9.29217
     2001.52498        -3.73411         8.84221
     2001.52772        -4.72317         8.54471
     2001.53046        -9.64924         8.70647
     2001.53320        -1.83131         8.51775
     2001.53593        -4.18737         8.14216
     2001.53867        -7.29344         8.21467
     2001.54141        -4.35351         7.54065
     2001.54415        -2.34957         7.86325
     2001.54689       -16.91764         8.72507
     2001.54962         3.55329         8.01479
     2001.55236        -6.68477         7.38818
     2001.55510        -6.73484         7.21340
     2001.55784         9.08309         7.64292
     2001.56057        16.25503         9.54040
     2001.56331        16.68596         8.69625
     2001.56605        -0.79311         8.86824
     2001.56879        13.88583         8.95377
     2001.57153       -11.66824         8.86266
     2001.57426        -6.35531         9.17503
     2001.57700        -1.24037         9.33959
     2001.57974        -0.16344         8.88776
     2001.58248         1.81749         8.74552
     2001.58522        -0.42758         8.61908
     2001.58795        11.27936         9.54598
     2001.59069         9.47229         9.42512
     2001.59343        -5.60478         9.94574
     2001.59617        -4.24784        10.09542
     2001.59890         8.58909        10.01082
     2001.60164       -11.11698        10.28228
     2001.60438        14.99696         8.93889
     2001.60712         2.58989         9.80536
     2001.60986         7.27482         9.19642
     2001.61259         6.64376         8.90171
     2001.61533         2.35169         8.89055
     2001.61807        11.96862         9.18154
     2001.62081       -13.08244         9.27637
     2001.62355        -1.14451         8.94075
     2001.62628        -4.61558         9.29589
     2001.62902        -6.89064         9.64266
     2001.63176       -10.59671         8.73715
     2001.63450        10.58222         8.79944
     2001.63723         3.24616         9.45115
     2001.63997        -7.30291         9.08764
     2001.64271        -5.62298         9.79141
     2001.64545        10.88296         8.88869
     2001.64819        11.07189         9.53575
     2001.65092         3.66482         9.35632
     2001.65366         4.09675         8.62280
     2001.65640         0.19369         8.99282
     2001.65914         3.90762         8.70926
     2001.66188         1.95155         9.01792
     2001.66461       -10.76451        10.80384
     2001.66735        14.71342         9.09787
     2001.67009        12.25535         8.98538
     2001.67283        14.56629         9.65010
     2001.67556        19.26522         9.44278
     2001.67830        10.49315         9.97642
     2001.68104        18.88309         8.41548
     2001.68378        -6.35898         8.33553
     2001.68652         2.05695         9.60641
     2001.68925         5.37189         9.08578
     2001.69199        -3.81818         9.23732
     2001.69473         4.27475         9.41303
     2001.69747         4.36969         9.61477
     2001.70021         1.71362         9.36655
     2001.70294        11.32055         8.53076
     2001.70568         5.28049         8.98166
     2001.70842         5.81242         9.69937
     2001.71116         5.29035         8.93332
     2001.71389         8.08028         9.38049
     2001.71663        11.46422         8.56888
     2001.71937        18.48915         9.21501
     2001.72211        -0.92592         8.78921
     2001.72485        14.08102         9.14900
     2001.72758        10.83695        10.34922
     2001.73032        11.87388         8.70647
     2001.73306        16.07582         8.62094
     2001.73580         9.72675         9.30426
     2001.73854        15.06268         9.51809
     2001.74127         9.38262         8.68416
     2001.74401        12.89955         8.74645
     2001.74675        -0.35552         8.64790
     2001.74949        28.76942         9.21594
     2001.75222        13.64835         9.09043
     2001.75496        15.19228         9.92343
     2001.75770        14.68922         8.79758
     2001.76044         7.76415         8.07801
     2001.76318        15.02308         8.88497
     2001.76591        10.94502         8.73343
     2001.76865        14.07295         8.61908
     2001.77139        11.41588         8.10962
     2001.77413        -1.87218         8.54378
     2001.77687        -0.35225         9.03000
     2001.77960        11.70568         9.37584
     2001.78234         2.53861         8.72786
     2001.78508         7.62755         8.88404
     2001.78782         9.18948         9.14156
     2001.79055        -4.50659         9.13970
     2001.79329         1.45335         8.93332
     2001.79603         0.12628         9.24476
     2001.79877        -0.72779         9.07091
     2001.80151        12.56115         9.00955
     2001.80424        -0.06992         9.37306
     2001.80698        25.07001        10.76572
     2001.80972        14.55995         8.30578
     2001.81246         6.88088         6.38599
     2001.81520         0.40181         6.46780
     2001.81793         8.03375         6.51335
     2001.82067         5.50168         6.48267
     2001.82341         5.11961         7.15855
     2001.82615        12.22755         6.47988
     2001.82888        14.22148         6.39063
     2001.83162         9.24941         6.55147
     2001.83436        21.32035         6.80155
     2001.83710        13.07428         6.32649
     2001.83984         7.71821         6.32556
     2001.84257        -9.88886         6.33206
     2001.84531         3.86108         6.51242
     2001.84805        26.48601         8.26952
     2001.85079        -0.77206         6.06804
     2001.85352        -3.50012         6.58494
     2001.85626         1.56281         6.20842
     2001.85900         4.12574         6.37018
     2001.86174         4.45368         6.38413
     2001.86448         5.93661         6.19912
     2001.86721        19.10254         6.73090
     2001.86995        10.23148         6.25769
     2001.87269         7.74041         6.24467
     2001.87543        -1.38666         6.63607
     2001.87817         3.81228         6.17867
     2001.88090         1.42321         6.40644
     2001.88364         8.23914         6.68627
     2001.88638        -0.32792         6.62306
     2001.88912         0.36901         6.46408
     2001.89185         7.15194         6.57471
     2001.89459        10.51488         6.45664
     2001.89733         2.33681         7.73960
     2001.90007         4.47374         6.30232
     2001.90281        -0.93033         6.18610
     2001.90554         1.87461         6.19633
     2001.90828        12.07454         6.06153
     2001.91102        17.75047         6.17960
     2001.91376         5.71541         6.18425
     2001.91650         0.73434         6.07361
     2001.91923         6.80127         6.41667
     2001.92197        -2.81079         6.21678
     2001.92471        -3.23686         6.29209
     2001.92745        13.68807         6.20656
     2001.93018         7.50401         6.12846
     2001.93292        -4.63706         6.08384
     2001.93566        -3.28513         6.23631
     2001.93840         9.14581         5.99087
     2001.94114        17.35774         6.29116
     2001.94387         2.51667         6.04386
     2001.94661        -2.02839         6.03829
     2001.94935        12.79354         5.91464
     2001.95209        14.42247         6.08477
     2001.95483         8.78441         6.13497
     2001.95756        -3.09066         5.95926
     2001.96030         6.92327         6.50777
     2001.96304         2.83021         5.98622
     2001.96578        -0.88786         6.05502
     2001.96851         0.17507         6.18610
     2001.97125        -6.11500         5.80586
     2001.97399       -10.80006         6.10243
     2001.97673        -2.70313         6.14334
     2001.97947       -14.15720         5.94625
     2001.98220        -0.28726         5.97879
     2001.98494       -11.49733         5.95926
     2001.98768         2.67260         6.19912
     2001.99042         0.34054         5.99273
     2001.99316        -2.15853         6.00389
     2001.99589         2.31740         6.05130
     2001.99863        -1.84966         6.39714
     2002.00411        15.56620         6.33299
     2002.00684         6.67014         6.22980
     2002.00958         2.95207         6.10615
     2002.01232         5.38500         6.19912
     2002.01506        10.08294         6.19540
     2002.01780        -4.79213         6.21771
     2002.02053         2.04180         6.49476
     2002.02327         4.98174         6.13125
     2002.02601       -11.29433         6.80713
     2002.02875         9.57560         6.45571
     2002.03149         0.28453         6.49941
     2002.03422        -1.63253         6.26327
     2002.03696        -6.79060         6.27535
     2002.03970        -8.42867         6.33857
     2002.04244        -4.39773         6.52916
     2002.04517         0.99020         6.20284
     2002.04791        -8.66587         6.19912
     2002.05065         3.51507         5.99087
     2002.05339        -0.98100         6.34043
     2002.05613         0.33093         6.09964
     2002.05886        -4.06913         6.12939
     2002.06160        -5.07120         5.94346
     2002.06434        -9.67927         6.21585
     2002.06708        -4.17233         6.07826
     2002.06982        -1.12840         6.08384
     2002.07255        -1.41347         6.03085
     2002.07529        -5.37153         6.11545
     2002.07803       -10.89260         5.90813
     2002.08077       -10.74067         6.15636
     2002.08350       -10.77673         6.00296
     2002.08624       -13.71680         6.21957
     2002.08898        -5.54187         6.23538
     2002.09172       -12.25094         5.97786
     2002.09446        -9.21200         6.06989
     2002.09719       -13.66807         6.13869
     2002.09993         8.39986         6.24467
     2002.10267         6.52980         6.43061
     2002.10541        -4.53127         6.13869
     2002.10815        -9.98334         6.22422
     2002.11088        -8.03240         6.24653
     2002.11362       -14.15247         6.44456
     2002.11636       -10.25854         6.26606
     2002.11910        -0.39960         6.15636
     2002.12183        -4.01667         6.53752
     2002.12457        -9.36674         6.54775
     2002.12731        -4.57980         6.67419
     2002.13005        -2.09687         6.43433
     2002.13279        -2.28094         6.31068
     2002.13552        -8.77400         6.47245
     2002.13826        -4.59607         6.29953
     2002.14100        -9.13714         6.39249
     2002.14374         0.65380         6.76716
     2002.14648       -10.55327         6.34973
     2002.14921        -6.36134         6.30882
     2002.15195       -15.39240         6.41667
     2002.15469       -11.09747         6.65466
     2002.15743        -1.06454         6.68070
     2002.16016       -10.72861         6.58308
     2002.16290        -5.56467         6.62399
     2002.16564       -15.85474         6.42503
     2002.16838        -9.45781         6.58866
     2002.17112       -16.91687         6.29302
     2002.17385        -1.01394         6.55147
     2002.17659        -8.94901         6.24467
     2002.17933        -3.05907         6.35345
     2002.18207        -7.16214         6.31161
     2002.18480       -12.83821         6.30417
     2002.18754        -5.80227         6.15357
     2002.19028         0.61366         6.41016
     2002.19302         0.71859         6.50406
     2002.19576         6.23553         6.22608
     2002.19849        -3.11854         6.13032
     2002.20123         0.65939         6.23166
     2002.20397        -8.54667         6.18425
     2002.20671        -9.57674         6.29674
     2002.20945         1.40419         6.26606
     2002.21218        10.00313         6.29488
     2002.21492        -5.87994         6.30232
     2002.21766        -7.42701         6.13869
     2002.22040        -2.16708         6.26234
     2002.22313        -0.11814         6.19633
     2002.22587        -6.14621         6.55984
     2002.22861        -9.48628         6.12382
     2002.23135        -6.82834         6.34508
     2002.23409        -9.83241         6.39621
     2002.23682         4.96752         6.42968
     2002.23956       -15.39554         6.27535
     2002.24230       -12.67361         6.28930
     2002.24504        -3.90768         6.40923
     2002.24778        -4.18374         6.56263
     2002.25051        -6.55381         6.24096
     2002.25325        -6.18288         6.31998
     2002.25599        -4.56894         6.29116
     2002.25873         1.50799         6.82201
     2002.26146        -7.99008         6.40272
     2002.26420        -0.17414         6.18982
     2002.26694        -3.51821         6.56542
     2002.26968        10.10072         7.00887
     2002.27242        -2.72534         6.64072
     2002.27515        -3.42641         6.43898
     2002.27789        -0.82348         6.33950
     2002.28063        -9.68654         6.71509
     2002.28337        -5.26161         6.60074
     2002.28611        -1.71768         6.50592
     2002.28884         0.88125         6.42782
     2002.29158        -2.29481         6.67512
     2002.29432        -0.16688         6.71416
     2002.29706        -8.30595         6.40458
     2002.29979        -5.46101         6.42782
     2002.30253         2.31892         6.31347
     2002.30527        -2.91415         6.41295
     2002.30801         1.55279         6.40365
     2002.31075        -0.98428         6.26141
     2002.31348        -2.53135         6.42317
     2002.31622         0.14859         6.35066
     2002.31896        -0.76148         6.08012
     2002.32170         1.72645         6.27721
     2002.32444        -0.58161         6.32370
     2002.32717        -1.78468         6.24282
     2002.32991         1.47925         6.20749
     2002.33265         2.61819         5.94904
     2002.33539        -3.11188         6.20563
     2002.33812        -2.00695         6.13869
     2002.34086         1.09299         6.08105
     2002.34360        -2.23408         6.43898
     2002.34634       -11.02915         6.28000
     2002.34908        -1.98522         6.11080
     2002.35181        -2.18428         6.22422
     2002.35455        -4.47735         6.15171
     2002.35729        -9.82442         6.11917
     2002.36003        -8.99748         6.26513
     2002.36277       -15.20555         6.25025
     2002.36550         4.38238         6.29581
     2002.36824        -3.17668         6.34508
     2002.37098         2.60125         6.03178
     2002.37372        -4.91982         6.13590
     2002.37645        -7.82788         6.18703
     2002.37919         1.38705         5.98622
     2002.38193         9.28698         6.04014
     2002.38467         0.67492         6.16286
     2002.38741        -1.03815         6.10057
     2002.39014        -2.07722         5.87187
     2002.39288         1.68472         6.28093
     2002.39562         4.42265         6.02155
     2002.39836         1.66158         5.99273
     2002.40110         8.19952         5.99831
     2002.40383         3.06545         6.16193
     2002.40657         3.84738         6.35624
     2002.40931         6.40231         6.14055
     2002.41205         5.73825         6.33950
     2002.41478         2.85318         6.32184
     2002.41752         5.14511         6.08663
     2002.42026        -1.45395         6.16007
     2002.42300        -1.48502         6.15914
     2002.42574         8.96291         6.37390
     2002.42847        -0.35915         6.10522
     2002.43121         6.41978         6.40179
     2002.43395         6.41971         6.15728
     2002.43669         2.54665         6.31161
     2002.43943         4.07058         6.31626
     2002.44216         5.78351         6.33857
     2002.44490         7.65845         6.27349
     2002.44764         5.41638         6.40272
     2002.45038         1.36931         6.63514
     2002.45311         4.80125         6.17216
     2002.45585         3.95718         6.33764
     2002.45859         2.48411         6.38041
     2002.46133         0.56405         6.40737
     2002.46407        -1.71102         6.34973
     2002.46680         5.69791         6.41202
     2002.46954         7.28585         6.36460
     2002.47228         6.66278         6.22608
     2002.47502         2.86171         5.96205
     2002.47775         8.35364         5.90069
     2002.48049         4.91058         6.07268
     2002.48323         2.20451         6.63049
     2002.48597         5.16144         6.99493
     2002.48871        12.97238         6.58959
     2002.49144        18.39531         6.49662
     2002.49418         9.82724         6.37669
     2002.49692         3.65218         6.29953
     2002.49966         8.04711         6.21585
     2002.50240         5.01804         6.41481
     2002.50513        -1.61402         6.55333
     2002.50787         7.73491         6.43061
     2002.51061         1.36784         6.10708
     2002.51335         9.08778         6.29023
     2002.51608         5.65571         6.41946
     2002.51882         0.85564         6.63049
     2002.52156         2.41458         6.39714
     2002.52430         3.77551         6.10894
     2002.52704         2.57144         6.31998
     2002.52977         1.20538         6.31068
     2002.53251         6.76831         6.40551
     2002.53525        10.45424         6.49941
     2002.53799         1.35317         6.20191
     2002.54073        -6.65289         6.56449
     2002.54346        -5.48296         6.66117
     2002.54620         3.13697         6.30417
     2002.54894         0.15391         6.36832
     2002.55168         5.00384         6.52451
     2002.55441        -4.57623         6.22980
     2002.55715         0.80371         6.51521
     2002.55989        -3.05336         6.41016
     2002.56263        -4.48543         6.31068
     2002.56537        -1.74249         6.52730
     2002.56810         1.36544         6.29209
     2002.57084        -0.62963         6.30603
     2002.57358        -2.46169         6.36832
     2002.57632         1.49124         6.24746
     2002.57906        -1.45783         6.26606
     2002.58179        -0.88589         6.12289
     2002.58453        -1.53396         6.47988
     2002.58727        -1.07903         6.22050
     2002.59001         6.32991         6.61190
     2002.59274        -1.17616         6.10987
     2002.59548         0.96577         6.35159
     2002.59822        -3.07430         6.26885
     2002.60096         0.37764         6.25025
     2002.60370        -7.01343         6.27257
     2002.60643        -8.69250         6.33764
     2002.60917         0.25044         6.28744
     2002.61191        -1.17863         6.40086
     2002.61465        -2.98670         6.58215
     2002.61739        14.49524         6.52265
     2002.62012        -3.60783         6.22236
     2002.62286         0.16410         6.20563
     2002.62560         6.58804         6.54868
     2002.62834         0.34897         6.69278
     2002.63107         4.19490         6.34043
     2002.63381         2.59284         6.07454
     2002.63655        -2.71223         6.10336
     2002.63929         0.54170         6.20842
     2002.64203        -2.96436         6.18053
     2002.64476        -3.97843         6.22143
     2002.64750        -0.49150         6.33578
     2002.65024        -6.76456         6.26885
     2002.65298       -10.04063         6.32742
     2002.65572         1.05630         6.38413
     2002.65845        -0.96976         6.41295
     2002.66119         0.26017         6.28837
     2002.66393        -2.50790         6.59888
     2002.66667        -7.55097         6.38692
     2002.66940         1.12297         6.19354
     2002.67214         1.71790         6.66675
     2002.67488         6.21083         6.35345
     2002.67762         7.42677         6.01132
     2002.68036        -2.04330         6.33206
     2002.68309        -1.13537         6.47245
     2002.68583         9.50057         6.46222
     2002.68857         2.91750         6.47524
     2002.69131         7.53543         6.12568
     2002.69405         7.50037         6.06339
     2002.69678         5.36730         6.17681
     2002.69952         3.37623         6.39528
     2002.70226         9.40617         6.06246
     2002.70500        12.05610         6.73462
     2002.70773        11.58003         6.33114
     2002.71047         4.66997         6.18518
     2002.71321         8.75790         6.31161
     2002.71595         3.17183         6.07175
     2002.71869        19.19077         6.72811
     2002.72142         5.59870         6.70115
     2002.72416         5.47963         6.34043
     2002.72690         8.78556         6.08570
     2002.72964         7.46750         6.55519
     2002.73238        -3.60057         6.32370
     2002.73511         9.90036         6.53195
     2002.73785         5.51030         6.78761
     2002.74059         8.62323         6.40737
     2002.74333        15.26616         7.04513
     2002.74606        15.97210         6.86105
     2002.74880         3.93403         6.84618
     2002.75154         6.23196         6.68813
     2002.75428        10.12890         6.58773
     2002.75702        12.57683         6.67140
     2002.75975        10.27076         6.52544
     2002.76249         2.70170         6.65095
     2002.76523         5.48663         6.83874
     2002.76797        -0.21244         6.68720
     2002.77070         8.44750         6.64723
     2002.77344        13.27743         6.79133
     2002.77618         5.57636         7.02561
     2002.77892         0.37430         6.75693
     2002.78166        -0.64677         6.75786
     2002.78439        -6.39284         6.93078
     2002.78713         6.70309         6.97819
     2002.78987         8.60503         6.68163
     2002.79261         3.84496         6.65652
     2002.79535        16.07089         6.74298
     2002.79808        -4.77817         6.92706
     2002.80082        16.06176         6.90289
     2002.80356         6.75569         6.34973
     2002.80630         4.95163         6.32184
     2002.80903         8.25256         6.37576
     2002.81177        16.62149         6.46966
     2002.81451         5.11543         6.63886
     2002.81725        -0.00664         6.77738
     2002.81999         0.53029         6.57750
     2002.82272         6.43923         6.54031
     2002.82546        10.93716         6.37948
     2002.82820         7.73809         6.36925
     2002.83094         8.02403         6.26048
     2002.83368        10.93496         6.16844
     2002.83641         8.23189         6.41481
     2002.83915        15.65283         6.12475
     2002.84189        13.67276         5.98715
     2002.84463        16.11569         6.40086
     2002.84736        16.86063         6.28651
     2002.85010        21.91456         6.26699
     2002.85558        17.58542         6.38971
     2002.85832        20.64436         6.16379
     2002.86105        21.35029         6.15636
     2002.86379        -2.02178         6.44177
     2002.86653        12.07016         6.18518
     2002.86927        11.95009         6.20470
     2002.87201         7.99502         6.33671
     2002.87474         4.93596         6.55612
     2002.87748        12.53389         6.32835
     2002.88022         9.15382         6.08291
     2002.88296         5.07876         6.00761
     2002.88569         3.34669         5.99366
     2002.88843        11.04462         6.30417
     2002.89117        -0.03244         6.08849
     2002.89391        -1.05451         5.97321
     2002.89665        -1.33758         6.02992
     2002.89938        -3.59164         6.03271
     2002.90212        -1.61571         6.31626
     2002.90486         3.53922         5.94160
     2002.90760         4.36316         6.38413
     2002.91034        -0.14591         5.95926
     2002.91307        -0.20498         6.07826
     2002.91581         5.30995         6.02899
     2002.91855         4.59589         6.16286
     2002.92129         0.63082         6.16565
     2002.92402         7.37575         6.35810
     2002.92676         5.12269         6.26699
     2002.92950         8.33462         6.28093
     2002.93224         5.12055         6.07268
     2002.93498         1.59749         6.26606
     2002.93771         5.37142         6.37483
     2002.94045         0.90735         6.31068
     2002.94319        10.10229         6.21214
     2002.94593         6.78022         6.07361
     2002.94867        14.55315         6.20098
     2002.95140        11.96909         6.37948
     2002.95414         4.77802         6.45292
     2002.95688        13.93895         6.60260
     2002.95962         5.08889         6.53009
     2002.96235         5.42682         6.60260
     2002.96509        -7.49925         6.64165
     2002.96783         6.70469         6.43340
     2002.97057        -1.08338         6.12196
     2002.97331         2.91155         6.17216
     2002.97604        -1.98951         6.24375
     2002.97878         5.55442         6.43061
     2002.98152         1.59235         6.41667
     2002.98426         1.31628         6.37669
     2002.98700        12.71422         6.80062
     2002.98973         3.06415         6.30046
     2002.99247         2.14108         6.46594
     2002.99521         3.47902         6.39063
     2002.99795        -1.86305         6.32835
     2003.00342         3.93182         6.28000
     2003.00616        -4.48225         6.74113
     2003.00890       -12.09232         6.66303
     2003.01164        -0.39538         6.38878
     2003.01437        -4.05945         6.19354
     2003.01711        -1.62952         6.33206
     2003.01985        -0.67358         6.11545
     2003.02259         1.74735         6.20284
     2003.02533         2.67728         6.19540
     2003.02806        -4.80978         6.37948
     2003.03080        -2.18285         6.13404
     2003.03354        -8.45792         6.01132
     2003.03628       -11.21898         6.15450
     2003.03901       -10.55505         6.21957
     2003.04175        -9.46512         6.12289
     2003.04449       -11.11019         6.16565
     2003.04723        -4.30425         5.98436
     2003.04997       -11.89932         6.42131
     2003.05270        -8.66339         6.32277
     2003.05544        -0.38145         6.21121
     2003.05818        -7.69752         6.37018
     2003.06092         0.38941         6.33299
     2003.06366        -3.55365         6.29860
     2003.06639        -5.50872         6.32649
     2003.06913        -4.74179         6.54682
     2003.07187       -11.23985         6.46687
     2003.07461        -6.66392         6.46501
     2003.07734        -0.68899         6.48174
     2003.08008        -7.47405         6.23166
     2003.08282        -9.46512         6.25397
     2003.08556         2.99481         6.30975
     2003.08830         1.37475         6.54031
     2003.09103        -2.01832         6.44735
     2003.09377         4.16961         6.47895
     2003.09651        -1.90745         6.08570
     2003.09925        -4.02652         6.63142
     2003.10198         0.17041         6.30232
     2003.10472        -0.89366         6.29023
     2003.10746         2.76228         6.29488
     2003.11020         6.14321         6.28744
     2003.11294       -12.15486         6.67698
     2003.11567         7.43008         6.40644
     2003.11841        -4.14899         6.46408
     2003.12115        -3.94906         6.38971
     2003.12389        -3.27612         6.21492
     2003.12663         6.88581         6.34415
     2003.12936         4.53674         6.53288
     2003.13210        -6.91832         6.53938
     2003.13484        -1.25139         6.34694
     2003.13758        -6.49146         6.09221
     2003.14031        14.77348         6.17030
     2003.14305        -3.53659         6.13962
     2003.14579        -0.87466         5.99831
     2003.14853         2.12628         5.97879
     2003.15127        -1.53579         6.12661
     2003.15400         9.43914         5.99924
     2003.15674         6.30808         6.41109
     2003.15948        -5.09999         6.01690
     2003.16222        -1.58806         6.33671
     2003.16496         2.85488         6.26885
     2003.16769         7.29081         6.04758
     2003.17043        14.09874         6.03736
     2003.17317         8.09267         6.05223
     2003.17591        -1.08539         6.09871
     2003.17864         1.16054         6.17123
     2003.18138         9.28047         6.43433
     2003.18412         3.59841         6.09314
     2003.18686         6.76434         6.04944
     2003.18960         8.68127         6.00110
     2003.19233        -6.49879         6.37018
     2003.19507         4.45914         6.41853
     2003.19781         0.10507         6.46036
     2003.20055         8.73001         6.32091
     2003.20329         1.16594         6.49848
     2003.20602        -2.06113         6.20656
     2003.20876        -3.49019         6.35159
     2003.21150        -9.18926         6.13683
     2003.21424         1.35667         6.46780
     2003.21697         3.73361         6.17030
     2003.21971         0.80354         6.44920
     2003.22245        -2.53853         5.98529
     2003.22519        -1.13159         6.17681
     2003.22793        -0.95166         6.49569
     2003.23066         0.97427         6.45385
     2003.23340        -1.11480         6.51800
     2003.23614        -6.31786         6.12382
     2003.23888        -4.96793         6.25211
     2003.24162        -4.57000         5.94718
     2003.24435        -1.81606         6.09779
     2003.24709         1.79187         6.12196
     2003.24983         3.31180         6.01690
     2003.25257        14.12474         6.08012
     2003.25530        -8.34133         6.18796
     2003.25804        -4.16540         6.00482
     2003.26078         2.72654         5.97879
     2003.26352         2.60247         6.01504
     2003.26626        -0.73660         6.13962
     2003.26899         3.37334         6.25304
     2003.27173        -5.14773         6.34694
     2003.27447         1.75420         6.31068
     2003.27593         0.62231        30.49636
     2003.27995         6.74407         6.17681
     2003.28268        -5.76200         6.66024
     2003.28542        -4.22106         6.77552
     2003.28816         1.45987         6.67047
     2003.29090        12.19380         6.90010
     2003.29363        -0.97227         6.84711
     2003.29637         0.39067         7.71543
     2003.32484        10.72757        12.36012
     2003.33744        -6.10233         5.81144
     2003.34018         2.31260         5.99087
     2003.34292         6.20653         5.77147
     2003.34565         1.83547         5.84119
     2003.34839        12.66740         5.85793
     2003.35113        -4.39567         5.92486
     2003.35387         1.94727         6.02992
     2003.35661         3.88520         5.73242
     2003.35934         5.95113         5.69616
     2003.36208        10.47006         5.87280
     2003.36482         4.91200         5.92300
     2003.36756         0.27093         5.92486
     2003.37029         0.46086         5.80122
     2003.37303        -7.55320         5.82725
     2003.37577        -3.68427         5.77147
     2003.37851        -1.31234         5.74822
     2003.38125         4.19760         5.85607
     2003.38398         6.48353         5.77147
     2003.38672         1.85646         5.81423
     2003.38946         3.95540         5.88210
     2003.39220        -1.82967         5.88675
     2003.39493        -2.33974         6.00110
     2003.39767         6.91120         5.91743
     2003.40041         6.45813         6.06246
     2003.40315         6.53106         6.16286
     2003.40589         3.35400         6.35159
     2003.40862        -1.35907         6.31998
     2003.41136         7.16186         5.77054
     2003.41410         5.72580         5.78727
     2003.41684         3.08173         5.95368
     2003.41958         3.59266         5.89325
     2003.42231        -0.55641         5.88024
     2003.42505         3.10953         5.80494
     2003.42779         9.03146         5.97414
     2003.43053         8.21139         6.00575
     2003.43326         4.72733         6.07733
     2003.43600         4.32326         5.82167
     2003.43874         3.54019         5.99459
     2003.44148         6.73613         5.77333
     2003.44422         0.40306         6.07361
     2003.44695         1.50999         6.01690
     2003.44969        -1.78807         5.93788
     2003.45243         1.85486         5.78913
     2003.45517        -2.48821         5.87652
     2003.45791        -4.03527         5.99273
     2003.46064        -1.31634         5.96577
     2003.46338        -0.00241         5.86908
     2003.46612         4.01353         5.81981
     2003.46886         2.37846         5.97879
     2003.47159         0.59539         5.88117
     2003.47433         8.03633         5.79192
     2003.47707         1.05626         5.93416
     2003.47981        15.25219         6.13497
     2003.48255         3.67113         6.24932
     2003.48528         0.86006         6.16100
     2003.48802        -1.20601         6.15636
     2003.49076         5.28392         6.19075
     2003.49350        -1.40414         6.01411
     2003.49624        -1.34721         6.06060
     2003.49897         2.86972         5.90999
     2003.50171        -0.22634         6.14334
     2003.50445        -6.47041         6.13311
     2003.50719         7.08152         6.13218
     2003.50992         1.04246         6.07268
     2003.51266         1.46839         6.25025
     2003.51540         4.07932         6.08849
     2003.51814         6.25626         6.06711
     2003.52088         5.04919         6.00296
     2003.52361         1.65912         6.16007
     2003.52635         8.69806         6.16565
     2003.52909        10.18399         6.29767
     2003.53183         5.83692         6.11080
     2003.53457         5.50286         6.27907
     2003.53730        -3.82521         5.99087
     2003.54004        -6.38128         6.26792
     2003.54278        -1.53234         5.92951
     2003.54552        -1.53241         6.08198
     2003.54825        -3.28048         6.09871
     2003.55099        -2.68455         6.19912
     2003.55373        -3.01061         5.96298
     2003.55647         1.52332         5.96298
     2003.55921         8.91525         5.81051
     2003.56194        -3.29681         5.99831
     2003.56468        -4.34688         6.03271
     2003.56742       -10.05795         6.02434
     2003.57016        -3.02301         6.02992
     2003.57290         1.38592         6.33392
     2003.57563        -0.13815         6.07547
     2003.57837         1.02179         6.08570
     2003.58111        -0.94028         6.16844
     2003.58385         6.26165         6.14799
     2003.58658         2.74659         6.07733
     2003.58932         3.08052         5.92858
     2003.59206        -4.01655         6.18053
     2003.59480         0.53439         6.17030
     2003.60409         0.13474        14.26039
     2003.60575         3.25912         5.99645
     2003.62329        16.37932        15.53592
     2003.62491         0.52165         5.93881
     2003.62765        -0.66642         5.92951
     2003.63039         1.66852         6.03364
     2003.63313        -0.06855         5.97786
     2003.63587         2.22438         5.85049
     2003.63860         9.86932         6.02527
     2003.64134         2.53825         6.15636
     2003.64408         4.42818         5.90720
     2003.64682         3.21712         5.96670
     2003.64956         4.47405         6.15171
     2003.65229         1.90798         5.93974
     2003.65503        -1.72308         6.21585
     2003.65777         0.91085         6.06339
     2003.66051        -2.55322         5.89511
     2003.66324        -3.49328         6.02806
     2003.66598        -1.20035         6.05967
     2003.66872        -0.82342         5.85886
     2003.67146         4.82352         5.97321
     2003.67420        16.75145         6.11638
     2003.67693        10.97838         6.14892
     2003.67967         0.67931         5.90999
     2003.68241         4.65025         6.12846
     2003.68515         8.85718         5.96112
     2003.68789         5.95111         6.05037
     2003.69062        10.49905         6.09314
     2003.69336        -1.93702         6.05037
     2003.69610         9.97891         6.09035
     2003.69884         6.60585         6.01783
     2003.70157         9.47378         5.93788
     2003.70431         0.58671         5.90720
     2003.70705         6.19565         6.10801
     2003.70979         6.91458         6.07268
     2003.71253        -0.22449         6.45013
     2003.71526        22.40645         6.05781
     2003.71800         3.36738         6.09035
     2003.72074         9.11231         6.07640
     2003.72348         2.34625         6.27628
     2003.72621         1.31918         6.11173
     2003.72895         3.52611         6.36460
     2003.73169        -6.61395         6.25490
     2003.73443         5.37898         6.14055
     2003.73717         4.67791         6.03550
     2003.73990         3.36884         6.07361
     2003.74264         2.71678         6.50220
     2003.74538         3.03971         6.35438
     2003.74812         5.60764         6.23538
     2003.75086         3.07158         6.17030
     2003.75359         9.60751         5.93416
     2003.75633         1.83644         6.30603
     2003.75907         7.31538         6.14613
     2003.76181         8.86031         6.60818
     2003.76454         2.69424         6.62027
     2003.76728         4.32118         6.49383
     2003.77002         8.19611         6.19726
     2003.77276         7.59704         6.11359
     2003.77550         4.95198         6.11638
     2003.77823         3.55491         6.14706
     2003.78097        11.30284         5.99087
     2003.78371        15.39278         5.90255
     2003.78645         5.51771         6.05037
     2003.78919         9.44564         5.96391
     2003.79192        19.66458         5.88861
     2003.79466        10.52151         5.82911
     2003.79740        12.12444         5.84026
     2003.80014        -2.05463         5.80494
     2003.80287         8.65931         5.91092
     2003.80561        11.12124         6.55519
     2003.80835        -2.55483         6.24467
     2003.81109         1.28211         5.91743
     2003.81383        -6.67596         5.85514
     2003.81656        -3.43203         5.73521
     2003.81930        16.33191         5.96856
     2003.82204         3.11684         5.85514
     2003.82478       -10.80223         6.92892
     2003.82752         2.66471         6.81829
     2003.83025        -6.24036         5.87466
     2003.83299        -1.58343         5.75473
     2003.83573         0.93251         5.76310
     2003.83847        -0.04856         5.76775
     2003.84120        -1.32863         5.67199
     2003.84394        -2.67869         5.60319
     2003.84668        -3.21276         5.59576
     2003.84942        -3.26783         5.75101
     2003.85216         1.30811         5.70081
     2003.85489         8.14004         5.78913
     2003.85763         5.24997         5.85142
     2003.86037         8.47791         5.92486
     2003.86311        -4.25416         5.66269
     2003.86585         0.44177         6.04851
     2003.86858         6.88270         6.17216
     2003.87132        12.01564         6.00947
     2003.87406         8.17257         5.87187
     2003.87680        12.86550         5.81702
     2003.87953        -1.04456         6.12475
     2003.88227         3.08337         6.05316
     2003.88501        -0.78270         6.64444
     2003.88775         5.60424         6.01969
     2003.89049        -0.92083         5.97600
     2003.89322        -8.07190         5.82353
     2003.89596         6.03104         5.99366
     2003.89870         2.32697         6.02992
     2003.90144        -5.54610         5.85328
     2003.90418       -11.91116         5.80679
     2003.90691         1.07377         5.87745
     2003.90965         2.86670         5.89047
     2003.91239         4.59564         5.77983
     2003.91513        -2.02843         5.89976
     2003.91786        -6.79150         6.11824
     2003.92060        -2.66256         6.02341
     2003.92334        -6.73463         5.93509
     2003.92608         4.38530         6.08756
     2003.92882       -10.80877         6.20935
     2003.93155        -1.32783         5.93137
     2003.93429         5.50910         5.94532
     2003.93703        -7.30497         5.74079
     2003.93977        10.47297         5.75659
     2003.94251         8.18290         5.88024
     2003.94524         7.05683         5.98157
     2003.94798         8.93777         5.97135
     2003.95072         2.93670         5.72684
     2003.95346        -0.61337         5.87931
     2003.95619        -7.94443         6.15357
     2003.95893        -1.55150         6.00947
     2003.96167         0.40543         6.09221
     2003.96441         1.49037         6.36646
     2003.96715         5.89430         5.96298
     2003.96988         0.43523         5.98901
     2003.97262        -2.40983         5.91557
     2003.97536        -2.94190         5.93137
     2003.97810        -4.80697         5.94811
     2003.98084         2.83597         5.67757
     2003.98357         1.87090         5.94532
     2003.98631        -6.15717         5.79564
     2003.98905        -7.27723         5.89233
     2003.99179        -4.56730         5.91464
     2003.99452        -4.03737         5.84026
     2003.99726        -7.29444         5.72126
     2004.00274       -10.72357         5.91743
     2004.00548        -5.18264         5.90162
     2004.00821        -7.80970         5.86072
     2004.01095       -12.77377         5.87466
     2004.01369        -0.54484         6.07082
     2004.01643        -1.94090         5.74265
     2004.01916        -3.70497         6.19726
     2004.02190        -1.80204         5.90813
     2004.02464         1.44590         5.91092
     2004.02738        -3.97917         6.16379
     2004.03012       -10.99224         5.96949
     2004.03285       -10.54530         5.88861
     2004.03559        -3.55337         5.85793
     2004.03833        -2.40544         5.79285
     2004.04107       -12.11950         6.05967
     2004.04381        -7.69357         5.76217
     2004.04654        -3.64964         5.86072
     2004.04928         1.16930         5.92579
     2004.05202       -16.14577         5.88489
     2004.05476       -11.96984         5.95461
     2004.05749       -15.44391         5.88303
     2004.06023       -20.19397         5.92393
     2004.06297        -4.17304         5.78634
     2004.06571        -9.76011         5.73707
     2004.06845        -2.41617         5.82632
     2004.07118       -12.17124         5.80865
     2004.07392        -8.98331         5.78169
     2004.07666         5.85063         5.75566
     2004.07940         6.67056         5.85700
     2004.08214         4.17949         5.78913
     2004.08487        -2.49657         5.80772
     2004.08761        -2.66264         5.74265
     2004.09035        -4.97971         6.00296
     2004.09309        -0.84077         5.90255
     2004.09582        -3.72784         5.72312
     2004.09856        -4.08791         6.05688
     2004.10130        -4.53797         5.87466
     2004.10404       -12.07304         5.81051
     2004.10678       -10.13011         5.89790
     2004.10951        -5.75717         5.74172
     2004.11225        -0.96024         5.81423
     2004.11499        -6.54231         5.77612
     2004.11773         4.33962         6.03178
     2004.12047        -0.80444         6.13683
     2004.12320        -4.93151         6.26234
     2004.12594         4.97642         5.98715
     2004.12868        -4.17364         5.93044
     2004.13142        -5.26871         6.04014
     2004.13415        -1.60978         5.98250
     2004.13689        -4.29484         5.86072
     2004.13963        -8.18691         5.77797
     2004.14237         3.02102         5.77147
     2004.14511        -1.97904         5.87931
     2004.14784        -4.22111         5.84863
     2004.15058         4.87782         5.95554
     2004.15332        -1.32424         6.01876
     2004.15606         3.80769         5.89418
     2004.15880        -6.47038         5.87838
     2004.16153        -1.82744         5.89883
     2004.16427        -3.82151         5.81423
     2004.16701       -11.63858         5.69523
     2004.16975        -8.97964         6.02620
     2004.17248         4.72829         6.08384
     2004.17522         2.36922         6.21121
     2004.17796        -3.21984         5.90069
     2004.18070        -9.49591         5.90627
     2004.18344       -11.52998         5.85979
     2004.18617       -13.77305         6.12846
     2004.18891        -2.86911         5.77612
     2004.19165        -7.99118         5.79750
     2004.19439        -1.05825         5.83190
     2004.19713        -3.68631         5.81888
     2004.19986        -8.52338         5.80215
     2004.20260        -9.12545         5.79843
     2004.20534        -8.38751         5.86722
     2004.20808        -4.51558         6.02899
     2004.21081        -3.28065         6.19540
     2004.21355        -1.30971         6.06525
     2004.21629       -13.30978         6.15636
     2004.21903        -5.35385         6.12753
     2004.22177        -3.98991         6.18703
     2004.22450        -5.88098         6.12939
     2004.22724         5.68395         6.14613
     2004.22998        -2.53911         6.05595
     2004.23272        -0.24818         6.14520
     2004.23546        -1.69725         6.14241
     2004.23819       -13.06831         6.08477
     2004.24093        -8.93138         6.18053
     2004.24367        -3.16745         6.09314
     2004.24641        -5.47752         5.87466
     2004.24914        -9.03658         6.05223
     2004.25188        -2.50365         5.89790
     2004.25462        -5.59772         5.94346
     2004.25736        -5.46078         5.80308
     2004.26010        -3.25485         5.92951
     2004.26283        -9.45592         5.72033
     2004.26557         1.40502         5.96949
     2004.26831        -5.56005         5.83469
     2004.27105        -7.28112         5.65247
     2004.27379        -3.43418         5.63573
     2004.27652         0.63975         5.67385
     2004.27926        -2.33732         5.64410
     2004.28200       -10.63238         5.81609
     2004.28474         0.52855         5.90069
     2004.28747        -2.88352         5.90720
     2004.29021        -0.61358         5.68687
     2004.29295        -2.70665         5.77890
     2004.29569         4.07428         5.71197
     2004.29843         5.46022         5.81330
     2004.30116         4.83915         5.74172
     2004.30390         3.53608         5.71197
     2004.30664         0.34801         5.89697
     2004.30938         5.54395         5.81423
     2004.31211        -9.65212         5.71383
     2004.31485       -11.40419         5.73335
     2004.31759        -3.53525         5.72591
     2004.32033         8.59668         5.91185
     2004.32307        -5.80239         5.61993
     2004.32580         3.63955         5.69616
     2004.32854        -8.12152         5.72126
     2004.33128        -2.42959         5.68222
     2004.33402         5.32635         5.85421
     2004.33676        -6.03972         5.73986
     2004.33949         5.01021         5.93602
     2004.34223         5.69615         5.94997
     2004.34497         5.17008         5.91836
     2004.34771         3.99901         5.96763
     2004.35044         1.94895         6.02527
     2004.35318         2.91888         5.96763
     2004.35592         8.43381         5.88024
     2004.35866         7.75975         5.93788
     2004.36140         3.81668         5.91836
     2004.36413         4.48261         5.92765
     2004.36687         5.80955         5.73428
     2004.36961         4.03448         5.78913
     2004.37235         5.93441         5.89976
     2004.37509         5.44234         5.87745
     2004.37782         5.61128         5.71383
     2004.38056         3.79921         5.76682
     2004.38330         3.05814         5.70360
     2004.38604         3.01408         5.74544
     2004.38877         1.27901         5.73428
     2004.39151         5.49394         5.72219
     2004.39425         2.48188         5.59018
     2004.39699        -1.66519         5.85700
     2004.39973        10.89474         5.77519
     2004.40206        11.38610         7.02468
     2004.45835        -1.47803        16.71940
     2004.45996        -9.64073         5.65898
     2004.46270        -9.77179         5.72312
     2004.46543        -5.58986         5.68501
     2004.46817         0.91107         5.70546
     2004.47091        -2.23099         5.54927
     2004.47365         4.32494         5.54184
     2004.47639        -9.41013         5.59390
     2004.47912        -1.82919         5.58832
     2004.48186        -4.97926         5.80215
     2004.48460        -2.33033         5.73986
     2004.48734        -3.93039         5.61807
     2004.49008        -0.55246         5.69430
     2004.49281        -5.13553         5.78169
     2004.49555        -7.17259         5.74079
     2004.49829        -1.13366         5.75194
     2004.50103        -6.35273         5.79471
     2004.50376        -2.71680         5.77519
     2004.50650        -2.21986         5.85886
     2004.50924        -5.78093         5.84956
     2004.51198        -2.19200         5.97693
     2004.51472        -1.22406         6.00110
     2004.51745         0.96587         5.72591
     2004.52019        -1.99520         5.78913
     2004.52293        -3.04926         5.68222
     2004.52567        -7.32033         5.70453
     2004.52841         1.91660         5.59948
     2004.53114        -0.02146         5.79471
     2004.53388         1.71447         5.65990
     2004.53662         0.54240         5.85235
     2004.53936         5.07834         6.03922
     2004.54209        -2.88473         5.74451
     2004.54483       -12.67680         5.93230
     2004.54757       -13.55586         6.20005
     2004.55031         0.29607         5.81330
     2004.55305        -4.23200         5.72777
     2004.55578         2.98894         5.86443
     2004.55852         0.13187         5.73335
     2004.56126         2.18680         5.65990
     2004.56400        -7.24727         5.81423
     2004.56674         4.81967         5.66920
     2004.56947        -1.47640         5.69802
     2004.57221         3.57453         5.59204
     2004.57495         1.65647         5.65433
     2004.57769        -0.46160         5.64782
     2004.58042         3.83233         5.72963
     2004.58316         4.37227         5.65990
     2004.58590        -0.32880         5.63759
     2004.58864         5.17813         5.57437
     2004.59138         9.99307         5.80958
     2004.59411         4.41600         5.91278
     2004.59685        -3.66407         5.94253
     2004.59959         3.89287         5.58088
     2004.60233         3.88080         5.52510
     2004.60507         2.73273         5.59762
     2004.60780         1.57667         5.74451
     2004.61054         1.60260         5.61807
     2004.61328         0.69553         5.59297
     2004.61602         4.95647         5.72591
     2004.61875        -1.98960         5.83004
     2004.62149         0.71333         5.68036
     2004.62423         7.72226         6.09779
     2004.62697         5.76320         5.86722
     2004.62971         5.81713         5.65247
     2004.63244         0.07006         5.70918
     2004.63518         5.63900         5.80772
     2004.63792         6.20793         5.78262
     2004.64066        -2.29514         5.97228
     2004.64339         5.41980         5.74822
     2004.64613         7.09473         5.91836
     2004.64887         7.47566         5.81051
     2004.65161         6.53760         5.61342
     2004.65435        -2.73247         5.63945
     2004.65708         4.77246         5.97321
     2004.65982         1.80540         5.81237
     2004.66256         5.91633         5.82353
     2004.66530         1.90026         5.70918
     2004.66804         8.53120         5.76403
     2004.67077         4.73213         5.95833
     2004.67351        -0.26694         5.69337
     2004.67625         6.49100         5.74358
     2004.67899         2.50893         5.64875
     2004.68172        -3.79114         5.55578
     2004.68446         8.01480         5.73428
     2004.68720         4.47073         5.71197
     2004.68994         7.69666         5.73056
     2004.69268         2.34859         5.77147
     2004.69541        10.60953         5.97135
     2004.69815         4.98746         5.68036
     2004.70089        10.75739         6.07454
     2004.70363         6.18533         5.83097
     2004.70637         9.55326         5.83004
     2004.70910        11.93119         5.73242
     2004.71184         7.06813         5.82074
     2004.71458        11.34206         5.72498
     2004.71732         6.36699         5.79192
     2004.72005         3.22693         5.68408
     2004.72279        -0.85214         5.62179
     2004.72553        -5.27021         5.82911
     2004.72827         2.87073         5.74079
     2004.73101         3.44866         5.64503
     2004.73374         4.78759         5.63852
     2004.73648         2.74853         5.57902
     2004.73922        -3.05954         5.64596
     2004.74196         3.68839         5.71940
     2004.74470         6.30733         5.76589
     2004.74743        -3.02974         5.54648
     2004.75017         0.71919         5.51301
     2004.75291         1.35212         5.68872
     2004.75565        -1.18994         5.62458
     2004.75838         2.08399         5.69895
     2004.76112        -1.51708         5.64224
     2004.76386        -0.44614         6.03457
     2004.76660        -0.35621         5.70546
     2004.76934        -4.90028         6.18239
     2004.77207         3.43066         5.94625
     2004.77481         1.74659         5.92486
     2004.77755         1.76552         5.77426
     2004.78029        -0.93554         5.77240
     2004.78303         1.03639         5.73056
     2004.78576        -3.55668         5.68965
     2004.78850         3.94826         5.73707
     2004.79124        10.26919         5.56229
     2004.79398        19.54612         5.61993
     2004.79671        17.38606         5.78634
     2004.79945        12.27299         5.80494
     2004.80219         6.51992         5.56694
     2004.80493         3.76986         5.77890
     2004.80767         7.11579         5.60691
     2004.81040        -0.29028         5.58181
     2004.81314         1.53165         5.75194
     2004.81588         4.83059         5.65340
     2004.81862         4.57652         5.68872
     2004.82136         6.78245         5.68315
     2004.82409        -1.32161         5.78169
     2004.82683        -6.14868         5.64596
     2004.82957        10.56725         6.00854
     2004.83231         2.28419         5.72312
     2004.83504        -7.95888         5.80586
     2004.83778        -2.68895         5.63294
     2004.84052         3.59099         5.80586
     2004.84326         4.65492         5.55857
     2004.84600         5.43985         5.50651
     2004.84873         1.68879         5.66455
     2004.85147         5.76372         5.63387
     2004.85421         1.10465         6.55240
     2004.85695         3.92659         5.76868
     2004.85969        -4.41248         5.82725
     2004.86242        -4.04455         5.64875
     2004.86516        -6.04461         5.63015
     2004.86790        -6.95568         5.66083
     2004.87064       -10.71175         5.71104
     2004.87337         1.39019         5.72591
     2004.87611        -4.93888         5.70825
     2004.87885        -2.45295         5.69988
     2004.88159        -3.49202         5.83747
     2004.88433         1.27092         6.00296
     2004.88706        -1.23615         5.59390
     2004.88980        -1.49222         5.67292
     2004.89254         3.55472         5.80215
     2004.89528         8.21665         5.65154
     2004.89802         4.06558         5.78448
     2004.90075        12.80152         5.82353
     2004.90349         6.51645         5.72498
     2004.90623         0.10638         5.66920
     2004.90897         1.22932         5.58553
     2004.91170        -3.34275         5.55206
     2004.91444        -4.01582         5.71755
     2004.91718        -3.31488         5.84305
     2004.91992        -2.56395         5.67664
     2004.92266         3.53598         5.72312
     2004.92539         8.20092         5.66734
     2004.92813         7.67185         5.59018
     2004.93087         3.90378         5.61063
     2004.93361        11.98572         5.78541
     2004.93634         7.74765         5.87652
     2004.93908         3.13858         5.64689
     2004.94182        -1.94949         5.81144
     2004.94456         2.06645         5.64410
     2004.94730       -10.83262         5.78448
     2004.95003        -0.47669         5.65619
     2004.95277        -4.77875         5.76496
     2004.95551        -8.86982         5.54555
     2004.95825        -6.80889         5.74544
     2004.96099        -3.53495         5.55299
     2004.96372       -10.60702         5.50930
     2004.96646        -7.84309         5.78820
     2004.96920        -4.59915         5.58274
     2004.97194        -5.51822         5.61528
     2004.97467        -4.00929         5.69895
     2004.97741       -11.05835         5.51116
     2004.98015        -5.49042         5.48512
     2004.98289         4.78051         5.53347
     2004.98563         2.72645         5.61435
     2004.98836        -0.34562         5.60877
     2004.99110        -0.48669         5.68222
     2004.99384        -1.39175         5.61249
     2004.99658         0.32518         5.60133
     2004.99932        -2.84589         5.79378
     2005.00479        -8.20002         5.72405
     2005.00753        -6.30709         5.73707
     2005.01027        -8.20516         5.72684
     2005.01300        -3.33922         5.74729
     2005.01574        -0.50229         5.79006
     2005.01848         6.10964         5.81237
     2005.02122        -7.99142         5.86629
     2005.02396        -5.59449         5.65154
     2005.02669        -5.45256         5.82446
     2005.02943        -0.57962         5.75845
     2005.03217        -7.10969         5.70081
     2005.03491        -4.34676         5.74451
     2005.03765       -12.08782         5.81609
     2005.04038       -10.97989         5.82818
     2005.04312       -12.79196         5.69244
     2005.04586       -17.87502         5.74079
     2005.04860        -0.88409         5.96484
     2005.05133        -6.06116         5.93323
     2005.05407        -4.31622         5.88954
     2005.05681        -9.64929         5.89790
     2005.05955        -8.42736         5.80494
     2005.06229        -9.98842         5.96670
     2005.06502       -11.38449         5.75752
     2005.06776        -7.49856         5.82818
     2005.07050        -8.21263         5.72870
     2005.07324        -3.33069         5.86165
     2005.07598       -14.20976         6.00389
     2005.07871        -8.78783         5.71847
     2005.08145        -8.43489         5.77147
     2005.08419        -9.20096         5.80401
     2005.08693       -12.70903         5.75659
     2005.08966       -18.84809         5.61528
     2005.09240       -13.37516         5.85700
     2005.09514        -7.07923         5.68501
     2005.09788       -11.48629         5.70639
     2005.10062       -11.83336         5.56229
     2005.10335        -6.05843         5.63666
     2005.10609       -10.47849         5.72870
     2005.10883        -5.36156         5.78634
     2005.11157        -7.67163         5.65061
     2005.11431        -6.66669         5.61714
     2005.11704        -7.82476         5.67292
     2005.11978        -4.71783         5.58646
     2005.12252        -4.17289         5.52231
     2005.12526        -9.88396         5.56601
     2005.12799       -10.51303         5.65712
     2005.13073        -7.72110         5.74822
     2005.13347        -7.24816         5.71290
     2005.13621        -6.40823         5.60226
     2005.13895        -1.24930         5.56415
     2005.14168        -7.31236         5.65247
     2005.14442        -6.28343         5.58832
     2005.14716        -6.44250         5.81795
     2005.14990        -2.29456         5.80958
     2005.15264        -5.45663         5.73428
     2005.15537        -4.30670         5.62086
     2005.15811        -2.93176         5.75008
     2005.16085         1.45817         5.77426
     2005.16359         0.77110         5.68408
     2005.16632         1.15904         5.75752
     2005.16906        -0.96103         5.55113
     2005.17180        -6.60710         5.70174
     2005.17454        -2.94416         5.79378
     2005.17728        -9.20023         5.72405
     2005.18001         0.79870         5.71755
     2005.18275        -5.58336         5.68872
     2005.18549        -9.42043         5.98529
     2005.18823        -1.44450         5.63387
     2005.19097        -5.23556         5.76961
     2005.19370        -6.75363         5.77890
     2005.19644        -8.87870         5.69151
     2005.19918        -3.96777         5.65340
     2005.20192         4.39917         5.80401
     2005.20465        -4.31490         6.05874
     2005.20739        -3.55597         5.61063
     2005.21013        -4.39903         5.67757
     2005.21287        -0.25810         5.73707
     2005.21561        -0.88717         5.76310
     2005.21834         1.47577         5.91464
     2005.22108        -3.68430         5.63666
     2005.22382         4.27163         5.70081
     2005.22656         3.56157         5.73800
     2005.22930        -3.97350         5.72684
     2005.23203        -0.25857         5.68222
     2005.23477         7.36937         5.70360
     2005.23751         8.38130         5.68965
     2005.24025         4.60823         5.85235
     2005.24298        -0.89083         5.76031
     2005.24572        -2.07290         5.91650
     2005.24846        -0.92197         5.74915
     2005.25120         0.57597         5.75659
     2005.25394        11.46190         5.89883
     2005.25667         3.97683         5.96856
     2005.25941        -0.16024         5.76961
     2005.26215        -3.00130         5.71476
     2005.26489         7.38363         5.75752
     2005.26762         5.25256         5.84956
     2005.27036         4.62050         5.72963
     2005.27310        -4.22057         5.76124
     2005.27584        -3.63264         5.83190
     2005.27858         2.17630         5.84212
     2005.28131         4.83523         5.88954
     2005.28405         0.41616         5.94439
     2005.28679        -2.20890         5.71755
     2005.28953         3.04203         5.69895
     2005.29227         1.42896         5.67199
     2005.29500         3.81990         5.61528
     2005.29774        -0.88217         5.54462
     2005.30048         1.35776         5.58460
     2005.30322        -1.44330         5.64410
     2005.30595         1.48163         5.64503
     2005.30869        -0.26744         5.69709
     2005.31143        -0.06450         5.77426
     2005.31417         1.97343         5.65340
     2005.31691        -1.37464         5.75380
     2005.31964        -3.64271         5.64875
     2005.32238         2.84623         5.70081
     2005.32512         2.97016         5.63015
     2005.32786         0.29409         5.56787
     2005.33060        -1.50697         5.75845
     2005.33333         3.16596         5.67943
     2005.33607         0.49289         5.81144
     2005.33881         6.11983         5.61063
     2005.34155         1.08276         5.68780
     2005.34428         7.11669         5.75566
     2005.34702         3.94263         5.63108
     2005.34976         3.13556         5.67478
     2005.35250         5.86449         5.62086
     2005.35524         7.41443         5.74451
     2005.35797        -2.89864         5.81237
     2005.36071        -4.86971         5.79099
     2005.36345        -3.44577         5.89233
     2005.36619         6.61416         5.90069
     2005.36893         7.11409         5.99273
     2005.37166        15.27703         5.79006
     2005.37440         8.54596         5.72033
     2005.37714         9.60789         5.79378
     2005.37988        11.13183         6.12475
     2005.38261        -1.05924         5.95740
     2005.38535         0.09369         5.81609
     2005.38809         0.71462         6.04572
     2005.39083        -2.41544         5.83283
     2005.39357        -7.16351         5.76496
     2005.39630         3.13242         5.88396
     2005.39904         2.40636         5.69244
     2005.40178         4.82729         5.68780
     2005.40452         3.31922         5.85700
     2005.40726         1.78216         5.60970
     2005.40999         3.42209         5.79750
     2005.41273         8.02702         5.84491
     2005.41547        -2.12404         5.78541
     2005.41821         1.79989         5.65990
     2005.42094         0.54682         5.64224
     2005.42368        -0.24324         5.72312
     2005.42642        -1.74731         5.68965
     2005.42916         3.68262         5.74079
     2005.43190         4.48256         5.70546
     2005.43463        -1.38751         5.56973
     2005.43737        -1.64958         5.84026
     2005.44011         8.02436         5.92672
     2005.44285         6.32629         5.98157
     2005.44559        -3.72278         5.89233
     2005.44832        -4.85285         5.81516
     2005.45106         0.13109         5.68965
     2005.45380        -1.38098         5.70174
     2005.45654         7.45995         5.79657
     2005.45927         4.78889         5.76031
     2005.46201        -2.73418         5.77704
     2005.46475        -0.52825         5.60970
     2005.46749         5.70269         5.68222
     2005.47023        -1.97238         5.78262
     2005.47296        -3.25845         5.62272
     2005.47570        -4.03451         5.64968
     2005.47844         7.14942         5.86258
     2005.48118         1.04435         5.73707
     2005.48392         0.72629         5.72777
     2005.48665        -0.37178         5.55206
     2005.48939        -1.60885         5.64503
     2005.49213        -0.60991         5.54184
     2005.49487         2.75402         5.61156
     2005.49760         0.21395         5.65712
     2005.50034         3.60089         5.62644
     2005.50308         1.87182         5.61249
     2005.50582        -0.22425         5.55764
     2005.50856        -5.16931         5.65154
     2005.51129        -1.10138         5.71290
     2005.51403        -8.30245         5.69988
     2005.51677        11.03848         5.67292
     2005.51951        -0.27958         5.66362
     2005.52225         1.77935         5.85328
     2005.52498         2.76528         5.58460
     2005.52772        -3.46178         5.67199
     2005.53046        -2.95485         5.65340
     2005.53320        -0.20292         5.73707
     2005.53593         2.95302         5.66920
     2005.53867         0.85595         5.64875
     2005.54141        -1.94512         5.61435
     2005.54415         0.64482         5.69616
     2005.54689         3.66975         5.78262
     2005.54962         5.86968         5.53812
     2005.55236        -2.98538         5.54462
     2005.55510        10.12855         5.89047
     2005.55784        -0.53552         5.58274
     2005.56057         0.71042         5.93230
     2005.56331         4.02535         5.70732
     2005.56605        -1.23872         5.91929
     2005.56879         7.88922         5.97879
     2005.57153        -0.09585         5.90813
     2005.57426         0.00008         5.94346
     2005.57700        -6.00399         5.96484
     2005.57974         0.37495         5.87187
     2005.58248         6.46288         5.94253
     2005.58522         6.42581         5.58925
     2005.58795         6.02475         5.61900
     2005.59069         4.31968         5.79471
     2005.59343        -0.08239         5.72777
     2005.59617         6.60255         5.70267
     2005.59890         1.51248         5.65526
     2005.60164         1.96641         5.62458
     2005.60438         3.97635         5.71476
     2005.60712         2.70528         5.64503
     2005.60986         7.43821         5.84956
     2005.61259         9.93015         5.90906
     2005.61533         4.50508         5.57530
     2005.61807         9.21101         5.64782
     2005.62081         5.07495         5.68780
     2005.62355        10.21688         5.95275
     2005.62628         8.70481         5.72219
     2005.62902         5.48575         5.57716
     2005.63176         9.97568         5.81423
     2005.63450         9.43261         5.72312
     2005.63723        14.78954         5.61807
     2005.63997         2.52348         5.85979
     2005.64271        10.34941         5.81330
     2005.64545         3.55934         5.71383
     2005.64819         1.44028         5.67943
     2005.65092        11.11221         5.70825
     2005.65366         3.52714         5.61807
     2005.65640         4.26008         5.67292
     2005.65914         2.06101         5.89418
     2005.66188         8.39694         5.66548
     2005.66461         5.96488         5.74544
     2005.66735         4.99481         5.62923
     2005.67009         8.64274         5.60226
     2005.67283        11.21468         5.68315
     2005.67556         8.37961         5.71569
     2005.67830         0.63354         5.71940
     2005.68104        -1.02752         5.67106
     2005.68378         5.26841         5.72126
     2005.68652         9.41134         5.70360
     2005.68925         8.12228         5.85886
     2005.69199        10.02421         5.64317
     2005.69473         5.57614         5.72219
     2005.69747         3.13808         5.65247
     2005.70021        10.35301         5.90255
     2005.70294         9.78194         5.79843
     2005.70568         1.60487         5.83376
     2005.70842        10.11381         5.83376
     2005.71116         2.73774         5.67757
     2005.71389         5.14367         5.56136
     2005.71663         6.56361         5.89883
     2005.71937         9.92554         5.76310
     2005.72211         5.80847         5.75473
     2005.72485        -1.73459         5.67292
     2005.72758        -3.60466         5.73800
     2005.73032         4.87927         5.75752
     2005.73306         7.13521         5.77147
     2005.73580         9.26114         5.68222
     2005.73854         4.00307         5.88117
     2005.74127        10.77101         5.78355
     2005.74401        10.55194         5.76310
     2005.74675        12.56287         5.69244
     2005.74949        12.76181         5.78727
     2005.75222         7.61674         5.76961
     2005.75496         7.81567         5.84119
     2005.75770         0.93661         5.67850
     2005.76044         0.56054         5.74729
     2005.76318         7.84247         5.68036
     2005.76591         6.20940         5.75101
     2005.76865         8.97534         5.66362
     2005.77139         6.46127         5.67571
     2005.77413         7.46120         5.60598
     2005.77687        10.12714         5.74915
     2005.77960         1.81607         5.84491
     2005.78234        -5.06300         5.99459
     2005.78508         0.37594         5.82353
     2005.78782         5.25087         5.75473
     2005.79055        -0.21620         5.65990
     2005.79329        12.31674         5.60412
     2005.79603         9.39967         5.84770
     2005.79877         9.97760         6.06525
     2005.80151         5.16554         5.79099
     2005.80424         8.68947         5.49814
     2005.80698         6.07140         5.65712
     2005.80972         5.51634         5.65805
     2005.81246         7.91827         5.72405
     2005.81520        -4.90880         5.73800
     2005.81793        16.97414         5.67850
     2005.82067         3.10907         5.57066
     2005.82341         9.21600         5.81237
     2005.82615         8.43493         5.66641
     2005.82888        -2.35113         5.57251
     2005.83162        -7.32220         5.82632
     2005.83436         6.82873         5.92300
     2005.83710         2.08567         5.80772
     2005.83984         7.88060         5.90906
     2005.84257         8.71753         5.89790
     2005.84531         4.96047         6.05037
     2005.84805         9.21740         5.92858
     2005.85079         9.84033         5.93137
     2005.85352        -4.53373         5.83190
     2005.85626        -3.76580         5.85886
     2005.85900        -0.29387         6.02155
     2005.86174        -1.68893         5.95368
     2005.86448         5.24200         5.79936
     2005.86721         3.94993         5.85421
     2005.86995        -1.18213         5.89047
     2005.87269        -7.58320         5.74451
     2005.87543        -8.94427         5.72219
     2005.87817        -4.80233         5.64596
     2005.88090        -0.07840         5.51116
     2005.88364        -1.31447         5.54276
     2005.88638        -1.63153         5.62737
     2005.88912        -0.74660         5.76310
     2005.89185        -1.44867         5.66734
     2005.89459         8.33226         5.64968
     2005.89733        -0.30280         5.79006
     2005.90007         6.30413         5.78541
     2005.90281        -3.39394         5.72963
     2005.90554        -3.57400         5.70081
     2005.90828        -0.29407         5.56322
     2005.91102         8.65086         5.61528
     2005.91376        -4.24620         5.63852
     2005.91650        -0.17327         5.66641
     2005.91923         1.70166         5.60133
     2005.92197         4.23960         5.66269
     2005.92471        -6.20247         5.59669
     2005.92745        -9.08354         5.48977
     2005.93018        -6.06160         5.49535
     2005.93292        -5.27467         5.51859
     2005.93566        -0.97474         5.59948
     2005.93840        -3.03080         5.81423
     2005.94114        -3.38187         5.53626
     2005.94387        -2.44594         5.54648
     2005.94661        -0.25700         5.59111
     2005.94935         0.99893         5.59390
     2005.95209        -4.64014         5.49721
     2005.95483        -8.73721         5.70639
     2005.95756        -5.33427         5.57158
     2005.96030        -1.97034         5.49349
     2005.96304        -3.46641         5.48884
     2005.96578         2.05153         5.87373
     2005.96851        -5.72554         6.14706
     2005.97125        -0.89261         5.73986
     2005.97399         0.29833         5.87373
     2005.97673        -0.95074         5.91650
     2005.97947         8.98419         5.71476
     2005.98220        -0.73987         5.74637
     2005.98494         6.47506         5.80679
     2005.98768        -1.78901         5.81888
     2005.99042        -2.43007         5.67478
     2005.99316        -1.30514         5.78355
     2005.99589        -0.15321         5.73614
     2005.99863         9.85773         5.74822
     2006.00411         5.32659         5.76682
     2006.00684        -7.38947         5.72219
     2006.00958        -5.38654         5.80494
     2006.01232         0.76239         5.89418
     2006.01506         1.28533         5.86536
     2006.01780         2.83326         5.75659
     2006.02053        -3.10381         5.95740
     2006.02327        -5.35388         5.81423
     2006.02601       -10.79794         6.07733
     2006.02875         1.23099         5.77054
     2006.03149        -0.14008         5.78634
     2006.03422         2.12686         5.71197
     2006.03696        -1.07621         5.71383
     2006.03970        -5.61328         5.81144
     2006.04244         0.38166         5.80865
     2006.04517        -1.00241         6.05223
     2006.04791        -0.53148         5.71011
     2006.05065        -5.62354         5.72870
     2006.05339        -7.11361         5.73521
     2006.05613        -5.74868         5.56787
     2006.05886        -7.47174         5.61435
     2006.06160       -11.27581         5.46188
     2006.06434        -0.53988         5.65061
     2006.06708        -8.77594         5.54369
     2006.06982        -1.34301         5.40889
     2006.07255        -8.20508         5.42655
     2006.07529        -1.47014         5.55299
     2006.07803        -7.66621         5.52045
     2006.08077        -7.52428         5.51487
     2006.08350        -5.62635         5.55485
     2006.08624        -1.90041         5.47862
     2006.08898        -7.23548         5.40610
     2006.09172        -4.63555         5.54648
     2006.09446        -6.75461         5.70267
     2006.09719       -10.86268         5.41447
     2006.09993       -10.37575         5.54276
     2006.10267       -11.56181         5.46374
     2006.10541        -9.96588         5.68408
     2006.10815       -13.35995         5.51766
     2006.11088        -9.31601         5.61714
     2006.11362       -11.08708         5.52696
     2006.11636       -19.40015         5.47490
     2006.11910       -17.07321         5.68872
     2006.12183        -8.30428         5.58460
     2006.12457       -12.55035         5.50000
     2006.12731       -13.20641         5.53719
     2006.13005        -8.87548         5.53905
     2006.13279       -11.43255         5.49349
     2006.13552        -8.92161         5.60041
     2006.13826        -2.90568         5.52975
     2006.14231       -10.50287        56.85843
     2006.14373        -3.24682         5.19134
     2006.14647        -0.94889         5.20343
     2006.14921        -7.77796         5.21366
     2006.15195        -8.11602         5.18019
     2006.15468        -2.78209         5.23132
     2006.15742         3.24384         5.26107
     2006.16016         8.49178         5.18298
     2006.16290        -0.42229         5.39773
     2006.16564        -5.66336         5.24806
     2006.16837        -6.37742         5.33266
     2006.17111        -3.01649         5.26293
     2006.17385         1.15844         5.16996
     2006.17659        -1.48062         5.21366
     2006.17932        -2.53069         5.19320
     2006.18206        -4.76576         5.18577
     2006.18480        -2.88682         5.29175
     2006.18754         6.31611         5.18112
     2006.19028        -3.79496         5.27409
     2006.19301        -1.35302         5.30291
     2006.19575        -0.42209         5.32894
     2006.19849         3.09784         5.32615
     2006.20056         8.52982         7.21433
     2006.21347        16.47836        24.85505
     2006.21492        -5.63356         5.39309
     2006.21765        -3.19863         5.33916
     2006.22039        -8.59269         5.34753
     2006.22313        -6.09376         5.43213
     2006.22587       -10.78883         5.62830
     2006.22861        -2.87989         5.39959
     2006.23134        -4.67896         5.39309
     2006.23408        -4.41003         5.38286
     2006.23682        -3.86209         5.32522
     2006.23956         0.46584         5.30941
     2006.24230        -1.86823         5.19971
     2006.24503        -2.22129         5.19878
     2006.24777         1.22364         5.25084
     2006.25051        -3.98243         5.26479
     2006.25325         1.56551         5.23318
     2006.25598         0.66344         5.26200
     2006.25872         2.07237         5.22202
     2006.26146        -0.09369         5.44701
     2006.26420        -0.86776         5.49163
     2006.26694        -1.52383         5.27781
     2006.26967        -3.04590         5.20157
     2006.27241         0.09604         5.24062
     2006.27515         0.11397         5.44608
     2006.27789        -1.20810         5.47211
     2006.28062         0.76384         5.28803
     2006.28336         4.99077         5.22760
     2006.28610         8.96970         5.23783
     2006.28884         1.34364         5.27316
     2006.29158         0.06757         5.26851
     2006.29431        -4.12550         5.24991
     2006.29705        -2.69556         5.33266
     2006.29979         1.37937         5.32615
     2006.30253         1.85530         5.32522
     2006.30527        -1.63076         5.27037
     2006.30800         0.14917         5.23969
     2006.31074         0.55710         5.23132
     2006.31348         0.60904         5.46839
     2006.31622        -3.51303         5.23597
     2006.32169        -6.26516         5.33266
     2006.32443         0.87877         5.25270
     2006.32717        -5.98430         5.26944
     2006.32991        -4.45537         5.26200
     2006.33264        -4.11043         5.26107
     2006.33538        -2.12750         5.30941
     2006.33812         0.54143         5.22295
     2006.34086        -1.43763         5.29919
     2006.34360         1.73730         5.23411
     2006.34633         4.61823         5.22667
     2006.34907        -1.61983         5.32708
     2006.35181        -7.21690         5.36984
     2006.35455        -5.79797         5.24341
     2006.35728        -9.24303         5.28989
     2006.36002        -3.12510         5.27223
     2006.36276        -2.98717         5.22667
     2006.36550        -8.82023         5.28617
     2006.36824        -5.83330         5.27874
     2006.37097        -3.26537         5.37542
     2006.37371         1.76557         5.37263
     2006.37645         3.33850         5.31685
     2006.37919         4.15543         5.39309
     2006.38193         6.62737         5.46467
     2006.38466         1.93830         5.40703
     2006.38740         7.81023         5.39773
     2006.39014        -2.03083         5.38565
     2006.39288         2.30310         5.45630
     2006.39561        -1.36997         5.47397
     2006.39835         1.56696         5.43957
     2006.40109         0.74590         5.33266
     2006.40383        -0.76517         5.36241
     2006.40657        -1.46924         5.35869
     2006.40930        -2.35230         5.43027
     2006.41204        -6.75237         5.39588
     2006.41478        -5.10344         5.40610
     2006.41752        -6.83450         5.73335
     2006.42026        -0.81657         5.48698
     2006.42299        -0.25864         5.71940
     2006.42573         1.33230         5.47676
     2006.42847        -2.15477         5.48698
     2006.43121        -5.79284         5.44887
     2006.43394         1.99110         5.36334
     2006.43668        -2.23797         5.29361
     2006.43942         2.29996         5.41168
     2006.44216        -1.62110         5.36241
     2006.44490         4.49583         5.32336
     2006.44763         1.93776         5.31313
     2006.45037         3.62670         5.32708
     2006.45311         1.06663         5.36148
     2006.45585         7.92256         5.49442
     2006.45859         6.58749         5.29268
     2006.46132        -0.03257         5.42377
     2006.46406         0.04336         5.41540
     2006.46680         1.11629         5.42005
     2006.46954         2.81623         5.47304
     2006.47227        -0.76484         5.46095
     2006.47501         0.57209         5.49256
     2006.47775        -2.09397         5.42191
     2006.48049        -4.69004         5.46095
     2006.48323        -2.62511         5.49256
     2006.48596         7.60983         5.49349
     2006.48870        -1.32124         5.50930
     2006.49144         1.85669         5.39680
     2006.49418        -1.14237         5.43120
     2006.49692        -2.73244         5.47118
     2006.49965         1.13949         5.42470
     2006.50239        -3.06257         5.39588
     2006.50513        -4.18464         5.53998
     2006.50787         2.84329         5.39309
     2006.51060         0.70123         5.44887
     2006.51334        -4.35984         5.48419
     2006.51608        -2.64291         5.42098
     2006.51882        -1.64398         5.41540
     2006.52156        -4.36504         5.53998
     2006.52429        -0.65411         5.51116
     2006.52703        12.38382         5.54276
     2006.52977         7.47976         5.47118
     2006.53251        -0.47631         5.46467
     2006.53525         3.72062         5.39030
     2006.53798         0.89256         5.37635
     2006.54072         0.13849         5.60133
     2006.54346         2.45542         5.27223
     2006.54620         0.75536         5.25735
     2006.54893        -5.38471         5.22853
     2006.55167        -1.02578         5.27316
     2006.55441        10.24916         5.33823
     2006.55715         3.74909         5.39866
     2006.55989         4.78102         5.34939
     2006.56262         2.31096         5.24991
     2006.56536         0.36289         5.23225
     2006.56810        -2.72018         5.31034
     2006.57084         5.58676         5.39866
     2006.57357         1.97569         5.35590
     2006.57631         4.59862         5.35311
     2006.57905         1.60856         5.27037
     2006.58179         4.63449         5.27688
     2006.58453        -2.32958         5.45630
     2006.58726         3.19935         5.43957
     2006.59000         0.52029         5.55392
     2006.59274        -3.92178         5.35218
     2006.59548        -2.98585         5.42005
     2006.59822         0.07109         5.42377
     2006.60095        -0.05398         5.40052
     2006.60369         2.54695         5.37821
     2006.60643        -3.67211         5.36148
     2006.60917         5.08582         5.23039
     2006.61190        -4.37825         5.29826
     2006.61464         4.29869         5.29547
     2006.61738         5.33562         5.41075
     2006.62012         3.73255         5.40889
     2006.62286         3.82149         5.21180
     2006.62559         3.82342         5.22017
     2006.62833         2.22335         5.38751
     2006.63107         1.16229         5.33823
     2006.63381         7.46622         5.31406
     2006.63655         7.09115         5.34567
     2006.63928         2.00409         5.39309
     2006.64202         6.18402         5.30941
     2006.64476         6.87695         5.38472
     2006.64750         7.38988         5.56601
     2006.65023         7.91182         5.63387
     2006.65297         2.00375         5.64875
     2006.65571         1.48468         5.72219
     2006.65845         6.33462         5.71290
     2006.66119         6.02455         5.60784
     2006.66392         2.16948         5.59390
     2006.66666         3.29942         5.60691
     2006.66940        -1.97265         5.65154
     2006.67214         4.42728         5.65898
     2006.67488         3.95922         5.77519
     2006.67761        -1.20685         5.73428
     2006.68035        -0.64992         5.73614
     2006.68309         6.33402         5.77519
     2006.68583         6.05595         5.83933
     2006.68856        11.28688         5.64410
     2006.69130         5.90382         5.53254
     2006.69404         6.87075         5.48419
     2006.69678        -0.58032         5.49442
     2006.69952         6.73762         5.46281
     2006.70225        17.96955         5.61621
     2006.70499         6.35648         5.51209
     2006.70773         8.79942         5.33731
     2006.71047        -0.59065         5.45352
     2006.71321         6.84628         5.73986
     2006.71594         2.87221         5.43399
     2006.71868         3.24415         5.44329
     2006.72142        10.58908         5.53626
     2006.72416         6.35301         5.64410
     2006.72689         4.34395         5.42934
     2006.72963         3.88788         5.48141
     2006.73237         5.71581         5.35125
     2006.73511         5.43875         5.43306
     2006.73785         2.64068         5.42562
     2006.74058         0.37561         5.50000
     2006.74332         7.93055         5.34567
     2006.74606        10.01348         5.42748
     2006.74880         2.26841         5.47025
     2006.75154         3.60235         5.58274
     2006.75427         2.07228         5.63573
     2006.75701         4.16721         5.34660
     2006.75975         9.01915         5.42934
     2006.76249         5.57908         5.45723
     2006.76522         1.43801         5.47118
     2006.76796        -0.10905         5.46746
     2006.77070        -0.83412         5.32336
     2006.77344        -3.13519         5.35032
     2006.77618         5.90774         5.43492
     2006.77891        11.14368         5.34288
     2006.78165         8.70261         5.28989
     2006.78439         2.86054         5.22109
     2006.78713         5.32648         5.50279
     2006.78987        12.71541         5.28617
     2006.79260         6.43534         5.25549
     2006.79534         1.51228         5.38565
     2006.79808         8.41621         5.24991
     2006.80082         1.26614         5.41075
     2006.80355        -3.15792         5.22760
     2006.80629        -0.79599         5.28617
     2006.80903         1.05894         5.34195
     2006.81177         4.01288         5.32522
     2006.81451        -1.04119         5.41726
     2006.81724        -2.85826         5.39030
     2006.81998         1.56068         5.23225
     2006.82272        -1.04339         5.22760
     2006.82546         8.29654         5.45259
     2006.82820         4.57248         5.17926
     2006.83093         3.17841         5.25084
     2006.83367         5.74234         5.23411
     2006.83641         7.52027         5.34288
     2006.83915         8.82521         5.38472
     2006.84188        -0.66286         5.38472
     2006.84462        10.21607         5.51209
     2006.84736        -4.30299         5.38100
     2006.85010        10.49994         5.41912
     2006.85284        13.66687         5.57995
     2006.85557        10.38081         5.50744
     2006.85831         6.41974         5.40052
     2006.86105         6.80067         5.54091
     2006.86379         2.12161         5.54184
     2006.86653         9.85354         5.48419
     2006.86926         4.26547         5.25828
     2006.87200         1.71441         5.37914
     2006.87474         4.46534         5.27502
     2006.87748         2.01227         5.24713
     2006.88021        -2.74479         5.26107
     2006.88295         5.67214         5.62830
     2006.88569        11.26607         5.42377
     2006.88843        -2.68799         5.30570
     2006.89117        -0.85506         5.30570
     2006.89390        -4.86213         5.47304
     2006.89664         0.00581         5.44143
     2006.89938        -4.79326         5.30941
     2006.90212        -2.17533         5.33266
     2006.90485         3.35660         5.32429
     2006.90759         2.07454         5.25270
     2006.91033        -6.17653         5.32615
     2006.91307         2.98740         5.39588
     2006.91581        -6.18466         5.27223
     2006.91854        -7.11773         5.22017
     2006.92128        -6.65080         5.26014
     2006.92402       -10.80286         5.32894
     2006.92676        -7.01993         5.37635
     2006.92950        -8.71300         5.41540
     2006.93223         2.48394         5.38844
     2006.93497         2.74287         5.57623
     2006.93771         5.13380         5.43678
     2006.94045        -0.65226         5.33266
     2006.94318        -1.79133         5.33731
     2006.94592         5.92760         5.44515
     2006.94866         0.04854         5.44050
     2006.95140         6.91147         5.29268
     2006.95414        -6.80860         5.62551
     2006.95687         2.01634         5.34567
     2006.95961         0.84927         5.36241
     2006.96235        -2.86380         5.33359
     2006.96509        -0.87287         5.39216
     2006.96783        -1.31593         5.41633
     2006.97056        -1.87800         5.51673
     2006.97330        -3.63507         5.35218
     2006.97604        -1.57413         5.32801
     2006.97878        -4.54520         5.37542
     2006.98151        -1.89327         5.36798
     2006.98425        -0.29633         5.30384
     2006.98699         1.95160         5.47211
     2006.98973        -7.81447         5.48419
     2006.99247        -8.92853         5.68687
     2006.99520       -11.75760         5.49070
     2006.99794        -7.64967         5.47490
     2007.00342        -8.05880         5.80494
     2007.00616        -0.36987         5.42562
     2007.00889        -4.63293         5.42284
     2007.01163        -7.08300         5.36427
     2007.01437        -3.50707         5.45723
     2007.01711       -10.91213         5.32429
     2007.01984        -7.09120         5.34102
     2007.02258        -7.85627         5.26758
     2007.02532        -0.61334         5.31127
     2007.02806       -12.56840         5.30291
     2007.03080       -11.49947         5.16624
     2007.03353       -12.46754         5.17554
     2007.03627       -12.63660         5.07235
     2007.03901       -11.91967         5.06026
     2007.04175       -10.15974         5.16903
     2007.04449       -11.03880         5.09280
     2007.04722       -13.66687         5.21180
     2007.04996       -10.04794         5.29733
     2007.05270       -10.01600         5.29826
     2007.05544       -10.48007         5.06026
     2007.05817        -9.46214         5.08722
     2007.06091        -6.53220         5.12720
     2007.06365       -12.77527         5.13092
     2007.06639       -13.19434         5.22946
     2007.06913       -11.65140         5.04910
     2007.07186        -7.03547         5.05747
     2007.07460        -8.03654         5.10953
     2007.07734        -9.75360         5.08536
     2007.08008       -11.30767         5.08350
     2007.08282        -5.50474         5.06863
     2007.08555        -7.44480         5.15137
     2007.08829        -5.64787         5.13092
     2007.09103        -0.93094         5.21180
     2007.09377        -6.34801         5.07049
     2007.09650        -2.46307         5.11232
     2007.09924        -5.29814         5.09652
     2007.10198        -5.16721         5.06305
     2007.10472        -5.83427         5.33731
     2007.10746        -5.06834         5.28896
     2007.11019        -1.90641         5.15509
     2007.11293        -1.99947         5.10303
     2007.11567        -6.13154         5.10024
     2007.11841        -6.68061         5.08722
     2007.12115        -1.91467         5.14021
     2007.12388        -4.09074         5.10024
     2007.12662        -3.17981         5.12720
     2007.12936        -3.87787         5.28338
     2007.13210         0.47506         5.12906
     2007.13483         1.81999         5.10117
     2007.13757        -4.40707         5.20622
     2007.14031        -3.13214         5.16252
     2007.14305        -2.87521         5.16531
     2007.14579        -3.58727         5.17926
     2007.14852        -1.98334         5.09838
     2007.15126        -0.97341         5.11418
     2007.15400         2.45252         5.16624
     2007.15674         2.51746         5.13649
     2007.15948         0.97139         5.14393
     2007.16221        -9.35368         5.26572
     2007.16495        -3.64374         5.30663
     2007.16769        -2.94981         5.25828
     2007.17043        -5.09188         5.31220
     2007.17316        -1.23794         5.30941
     2007.17590        -2.99401         5.26386
     2007.17864        -1.87108         5.40238
     2007.18138        -1.72114         5.22853
     2007.18412         0.29079         5.24899
     2007.18685         2.55972         5.35590
     2007.18959        -2.16234         5.28524
     2007.19233         1.15759         5.32615
     2007.19507        -6.27348         5.14393
     2007.19780        -5.30254         5.10860
     2007.20054        -6.06061         5.22109
     2007.20328        -7.67168         5.30663
     2007.20602        -5.74874         5.22295
     2007.20876        -0.54881         5.15323
     2007.21149       -10.70588         5.20994
     2007.21423         0.64706         5.22667
     2007.21697        -4.02701         5.18763
     2007.21971         0.32092         5.19134
     2007.22245        -1.32815         5.09187
     2007.22518         3.23079         5.14021
     2007.22792         3.00172         5.17647
     2007.23066        -1.34735         5.14486
     2007.23340        -1.88441         5.22295
     2007.23613        -5.30148         5.27688
     2007.23887        -8.06755         5.17089
     2007.24161        -2.67561         5.32894
     2007.24435        -3.56468         5.20436
     2007.24709        -4.81675         5.09652
     2007.24982        -1.37181         5.07792
     2007.25256        -5.16088         5.14579
     2007.25530        -8.28895         5.28059
     2007.25804        -1.57701         5.23318
     2007.26078        -5.30508         5.18577
     2007.26351        -2.94815         5.12441
     2007.26625         3.38879         5.28524
     2007.26899         9.28272         5.24248
     2007.27173        -1.29435         5.31685
     2007.27446         7.13459         5.10674
     2007.27720         5.32452         5.07792
     2007.27994         6.56445         5.12348
     2007.28268         3.71238         5.24899
     2007.28542         2.24732         5.12534
     2007.28815         3.36325         5.23411
     2007.29089        -0.19482         5.12348
     2007.29363         1.01512         5.14951
     2007.29637        -1.10695         5.11418
     2007.29911         2.92998         5.14021
     2007.30184         5.89392         5.09187
     2007.30458         1.91485         5.17089
     2007.30732         1.87378         5.20436
     2007.31006        -2.03928         5.30756
     2007.31279         1.41465         5.22946
     2007.31553         0.95758         5.12906
     2007.31827         2.52552         5.18856
     2007.32101        -2.75055         5.16438
     2007.32375        -3.45562         5.18856
     2007.32648        -0.61268         5.15137
     2007.32922        -1.09575         5.15230
     2007.33196        -0.54082         5.37914
     2007.33470        -0.03288         5.25456
     2007.33744        -1.51895         5.10767
     2007.34017        -0.77702         5.20157
     2007.34291        -2.81509         5.21366
     2007.34565        -5.07615         5.11418
     2007.34839        -0.77422         5.24899
     2007.35112        -2.26929         5.26665
     2007.35386        -3.24935         5.49814
     2007.35660        -8.50442         5.53998
     2007.35934        -1.50949         5.20343
     2007.36208         0.46345         5.13092
     2007.36481        -6.34162         5.27688
     2007.36755        -3.55869         5.22946
     2007.37029        -4.67875         5.23876
     2007.37303         1.27318         5.38844
     2007.37577         0.13811         5.34102
     2007.37850       -10.55395         5.28059
     2007.38124         1.19798         5.16624
     2007.38398        -1.66309         5.28710
     2007.38672         1.08385         5.17740
     2007.38945        -4.79822         5.16717
     2007.39219        -7.23829         5.26665
     2007.39493        -5.33435         5.15230
     2007.39767        -7.52542         5.16717
     2007.40041         0.85251         5.14486
     2007.40314        -1.77255         5.10674
     2007.40588        -1.90762         5.16160
     2007.40862        -1.88069         5.21459
     2007.41136        -7.38076         5.11697
     2007.41410        -1.45082         5.15881
     2007.41683         0.06511         5.23690
     2007.41957        -0.02996         5.31313
     2007.42231        -4.90202         5.43120
     2007.42505         0.81091         5.39402
     2007.42778         2.32984         5.14765
     2007.43052         5.34378         5.14765
     2007.43326         2.17871         5.11139
     2007.43600        -2.42336         5.20064
     2007.43874        -2.72842         5.21087
     2007.44147        -4.52049         5.13463
     2007.44421        -9.07856         5.28617
     2007.44695        -4.57162         5.20901
     2007.44969        -8.84569         5.12255
     2007.45243        -6.68376         5.11976
     2007.45516        -7.38282         5.15230
     2007.45790        -4.04389         5.06398
     2007.46064         1.35004         5.13092
     2007.46338        -3.39602         5.15974
     2007.46611        -5.15409         5.20250
     2007.46885         1.85384         5.18484
     2007.47159        -3.62923         5.18112
     2007.47433        -4.52329         5.11418
     2007.47707        -5.26136         5.30291
     2007.47980        -7.77043         5.11790
     2007.48254       -11.54749         5.15323
     2007.48528       -13.14856         5.17926
     2007.48802        -3.62563         5.26479
     2007.49076         1.11731         5.26014
     2007.49349        -6.06776         5.13835
     2007.49623        -5.39783         5.15602
     2007.49897         0.19811         5.22017
     2007.50171        -8.26096         5.15509
     2007.50444        -5.86903         5.11511
     2007.50718        -5.58509         5.15044
     2007.50992        -7.45616         5.15323
     2007.51266        -7.55423         5.20250
     2007.51540        -4.92629         5.16996
     2007.51813        -1.26236         5.12255
     2007.52087        -3.49943         5.19320
     2007.52361       -11.39649         5.24434
     2007.52635         0.18044         5.29175
     2007.52908        -2.41063         5.32522
     2007.53182        -0.82070         5.21924
     2007.53456        -6.81876         5.33359
     2007.53730         2.23817         5.24713
     2007.54004        -5.17790         5.25084
     2007.54277        -1.60896         5.25084
     2007.54551        -2.02803         5.31127
     2007.54825         2.24490         5.19692
     2007.55099        -3.70316         5.23504
     2007.55373        -3.11423         5.21087
     2007.55646        -0.69630         5.22388
     2007.55920         0.88364         5.18670
     2007.56194        -4.32443         5.19599
     2007.56468         4.16650         5.14672
     2007.56741        -1.90556         5.18112
     2007.57015        -1.33163         5.28896
     2007.57289         5.37830         5.19134
     2007.57563        -3.30876         5.25363
     2007.57837        -0.47183         5.15788
     2007.58110         0.83810         5.13185
     2007.58384        -0.26496         5.17368
     2007.58658         2.25597         5.15602
     2007.58932        -0.97610         5.19413
     2007.59206        -0.10516         5.15137
     2007.59479         7.33677         5.22295
     2007.59753         1.29670         5.29082
     2007.60027         4.61763         5.18205
     2007.60301        -0.05743         5.14672
     2007.60574         1.64050         5.17833
     2007.60848         0.35243         5.16067
     2007.61122         4.32437         5.20622
     2007.61396        -1.96970         5.13463
     2007.61670        -0.78077         5.57995
     2007.61943         6.02817         5.51209
     2007.62217         5.68610         5.40889
     2007.62491         1.41803         5.39959
     2007.62765         5.08497         5.43678
     2007.63039         4.08190         5.40517
     2007.63312         3.79083         5.36055
     2007.63586         0.29977         5.26572
     2007.63860        -1.22430         5.25921
     2007.64134         3.51063         5.22760
     2007.64407         8.46157         5.50558
     2007.64681         1.84050         5.46839
     2007.64955         5.10143         5.58367
     2007.65229         0.71137         5.42655
     2007.65503         1.18230         5.41447
     2007.65776         2.15423         5.36705
     2007.66050         3.98016         5.39680
     2007.66324        -1.07990         5.46839
     2007.66598         4.96503         5.43213
     2007.66872         0.39796         5.61342
     2007.67145        -9.96910         5.41540
     2007.67419        10.53983         5.77797
     2007.67693         5.63276         5.41075
     2007.67967         2.65970         5.36984
     2007.68240         1.98663         5.34753
     2007.68514         0.13856         5.53440
     2007.68788         3.59350         5.52603
     2007.69062        -1.52957         5.43120
