# ================= DQRFIT RESULTS ================
# INPUT FILE: series/KLSP.rad
# OUTPUT: LDETRENDED
# FILTER FUNCTION: f(t)
# f(t)=+line(t)
# line(t)=+P 1+P 2*t
# heav(t)=(t<0?0:1)
# TOTAL OBSERVATIONS MTOT=  362
# INITIAL TIME INTERVAL= 2022.7488 - 2021.7550 =  0.9938
# TOTAL OBSERVATIONS AFTER PREFILTER M=  347
# TIME-SPAN= 2022.7488 - 2021.7550 =  0.9938
# OBSERVATIONS: USED M=   347 REJECTED MTOT-M=    15 %USED=   95.8564
# N=  2 PARAMETERS
# MAXSIG= 175.00000
# MAXRES=  38.21980
# SCALE FACTOR FOR LENGTHS: SCL=  10.00000
# SCALE FACTOR FOR SIGMAS: SCLSIG=   1.00000
# CHI^2=    856.720 DOF=   345 CHI^2/DOF=   2.48325
# RMS=      9.312 SDEV=      9.325 MEAN=   -0.04225
#  P #       PARAMETER +-    SIGMA %error PARAMETER NAME
# P 1 =     18183.44641 +- 3454.051  19.00 YZERO                              
# P 2 =       -18.97615 +-    1.708   9.00 SLOPE                              
#       T            LDETRENDED       SIG_OBS
     2021.75496         3.29154         9.54008
     2021.75770         5.40350        10.03805
     2021.76043         9.24245         9.34941
     2021.76317         4.84540         9.30371
     2021.76591         0.84636         9.08467
     2021.76865         2.02831         9.20758
     2021.77138         0.41926         9.18237
     2021.77412         2.62222         9.24540
     2021.77686         0.38717         9.16819
     2021.77960         4.32413         9.11461
     2021.78234         2.95208         9.11776
     2021.78507         7.61303         9.18395
     2021.78781         3.15999         8.95703
     2021.79054        -3.76833         9.17134
     2021.79329        -0.75610         9.01218
     2021.79603        -0.50415         9.07364
     2021.79876         2.69280         8.97751
     2021.80150        -2.35124         9.13194
     2021.80424       -10.47529         9.14770
     2021.80698        -1.03934         9.11461
     2021.80971        -5.80738         9.29425
     2021.81245         6.93657         9.16346
     2021.81519        -1.02647         8.93497
     2021.81793         6.79048         9.06733
     2021.82067         0.71543         9.10673
     2021.82340        -4.09561         9.34941
     2021.82614         2.79834         9.38565
     2021.82888         0.99530         9.12564
     2021.83162         3.63525         9.15243
     2021.83436         3.43120         9.05158
     2021.83709        -5.19984         9.20128
     2021.83983       -10.54589         9.20758
     2021.84257        -3.56594         9.12564
     2021.84531        -2.86498         9.19970
     2021.84804        -3.47703         9.06733
     2021.85078        -0.22307         9.10831
     2021.85352        -4.84612         9.24540
     2021.86447        -7.07730         9.34468
     2021.86721        -1.78535         9.46760
     2021.86995         1.93760         9.43450
     2021.87269         1.74056         9.38250
     2021.87542         5.96751         9.24068
     2021.87816        -2.18253         8.93024
     2021.88090        -1.07558         8.87193
     2021.88364        19.18737         8.93654
     2021.88911        32.76128         9.02479
     2021.89185        -6.98377         9.02636
     2021.89459        16.17119         9.02006
     2021.90006         7.04510         9.03267
     2021.90280        24.78105         9.04685
     2021.90554        -7.99900         8.99485
     2021.90828        -4.91504         8.95072
     2021.91102         3.50791         9.05630
     2021.91375         0.48787         9.03109
     2021.91649         2.26882         9.01848
     2021.91923        -2.00123         9.22807
     2021.92197        -7.37327         9.34941
     2021.92470        -5.14532         9.05630
     2021.92744        18.31063         9.18395
     2021.93018         8.37759         9.19655
     2021.93292        21.83554         9.25643
     2021.94113        21.13740         9.58736
     2021.94661         8.93931         9.40456
     2021.94935         3.25027         9.19813
     2021.95482         7.89517         9.12406
     2021.95753         7.02750         9.26589
     2021.96051         0.27114        10.14048
     2021.96303         8.90003         9.09885
     2021.96851        13.57494         9.04685
     2021.97125        12.93990         9.58894
     2021.97399        -2.83515         9.02006
     2021.97672        38.21980        10.48874
     2021.97946        17.68276         9.05000
     2021.98220        17.63871         8.93969
     2021.98494        10.12867         8.89715
     2021.98767        18.31962         8.92709
     2021.99041        21.23657         9.03424
     2021.99315        17.77653         9.04842
     2021.99589        24.70848         9.04212
     2021.99863        16.28043         8.91921
     2022.00136        22.00939         9.08624
     2022.00410        19.23934         9.10358
     2022.00684         4.06230         8.97436
     2022.00958        -2.68175         8.88454
     2022.01232        -1.45780         8.92078
     2022.01505        -5.29984         8.89557
     2022.01779       -15.19189         9.95295
     2022.02345       -19.61846        10.29176
     2022.02600       -17.39203         9.04212
     2022.02874       -12.51707         8.98854
     2022.03422       -18.35716         9.05000
     2022.03696       -17.25221         9.12564
     2022.03969       -20.34526         9.69294
     2022.04243        -4.99230         9.03267
     2022.04517        -4.07835         9.06103
     2022.04791        -4.35240         9.07364
     2022.05065        -9.45344         9.01691
     2022.05612       -22.12253         9.18079
     2022.05886       -15.06858         8.98697
     2022.06160        -9.73363         8.94284
     2022.06433        -6.76367         9.01218
     2022.06707       -14.93772         9.18079
     2022.06981        -0.10276         9.13194
     2022.07255       -14.77581         8.82151
     2022.07529        -6.76786         8.92078
     2022.07802        -7.47690         8.94284
     2022.08076        -2.58595         9.10515
     2022.08350         4.33500         8.87824
     2022.08624        10.25896         8.91763
     2022.08898         3.65191         8.79472
     2022.09171         0.92287         8.85933
     2022.09445        -3.71018         8.89399
     2022.09719        12.00977         8.98224
     2022.10266         6.82068         9.03424
     2022.10540        -6.57036         8.80417
     2022.10814        -5.16341         8.78999
     2022.11088         1.11154         9.06103
     2022.11362        -0.34850         9.02321
     2022.11635        -1.20255         8.94757
     2022.11909        -8.37460         8.73956
     2022.12183         2.35136         8.89084
     2022.12457        10.55931         9.11619
     2022.12731        -2.77973         8.86563
     2022.13004       -10.63978         8.85302
     2022.13278        -1.13283         8.93181
     2022.13552        -0.19087         8.86248
     2022.13826         2.30308         9.10043
     2022.14099        -3.56496         8.91133
     2022.14373       -16.76001         8.83726
     2022.14647        -6.75406         8.86878
     2022.14921        -1.58110         9.13194
     2022.15195        -1.46215         9.14455
     2022.15468        -3.35719         8.83411
     2022.15742         7.21176         8.96963
     2022.16564        -6.34038         8.88611
     2022.16837       -10.27243         8.92709
     2022.17111        -3.36047         9.02479
     2022.17385         2.00948         8.90502
     2022.17659        -4.49856         8.96333
     2022.17932        -1.16361         8.99957
     2022.18206         1.43934         9.00745
     2022.18480        -7.88070         8.87824
     2022.18754        -1.63575         9.06261
     2022.19028        -4.43079         9.02951
     2022.19301         1.76616         8.96018
     2022.19575         7.66811         9.01848
     2022.19849         4.26507         9.12879
     2022.20123        -3.17198         8.94915
     2022.20397         3.26497         9.03739
     2022.20670        -3.45107         9.20916
     2022.20944        -2.03712         9.03739
     2022.21218        -2.90816         8.89242
     2022.21492        -5.09821         9.25013
     2022.21765        -3.34426         8.88454
     2022.22039        -6.57930         8.90660
     2022.22313        -5.42635         9.01533
     2022.22587       -13.58339         9.16819
     2022.22861         1.09256         9.32104
     2022.23134         2.19651         9.37935
     2022.23408         5.00447        10.03332
     2022.23666        10.67035        11.16477
     2022.23981        -3.89284        11.10961
     2022.24230        -5.99867         9.91356
     2022.24452        -1.70446        14.30697
     2022.24777         5.18324        10.66680
     2022.25051       -33.30572        60.07543
     2022.25325         1.25714         9.75125
     2022.25598         9.40210         9.12722
     2022.25872        -2.32195         9.06103
     2022.26146        -9.41699         9.00430
     2022.26420         4.35896         9.17764
     2022.26694        -6.53709         9.67403
     2022.26967        -0.07813         9.12406
     2022.27241         6.99582         9.06261
     2022.27515         9.70677         9.35729
     2022.27789         4.43373         8.95230
     2022.28062        -2.00232         8.97594
     2022.28336        -1.32836         8.81363
     2022.28610        -0.62841         9.11303
     2022.28884        -3.84346         9.02794
     2022.29158        -3.37950         8.99642
     2022.29431        -3.55255         8.91763
     2022.29705        -4.44559         9.08940
     2022.29979         2.54336         9.19970
     2022.30253         4.73831         9.21546
     2022.30527         1.22127         9.12722
     2022.30800        -1.76778         8.93024
     2022.31074        -6.31882         8.94600
     2022.31348        -5.71687         8.88139
     2022.31622        -7.39592         9.10358
     2022.31895       -16.78696         9.24540
     2022.32169         1.13099         9.25959
     2022.32443         1.38594         9.00273
     2022.32717       -14.71910         9.06261
     2022.32991        -0.33615         8.87193
     2022.33264        -6.35319         9.03582
     2022.33538        -5.76724         9.37777
     2022.33812        -1.80329         9.43135
     2022.34086        -3.66033         9.18867
     2022.34360        -1.31438         8.92551
     2022.34633        -4.72442         8.87036
     2022.34907         3.34953         8.90502
     2022.35181        -0.04752         8.98539
     2022.35455        -9.21256         9.04370
     2022.35728        -5.06361         9.12722
     2022.36002         2.32134         9.03897
     2022.36276        -3.67770         8.95703
     2022.36550        -4.27175         8.90660
     2022.36824        -6.71279         9.01061
     2022.37097        -6.26384         9.29583
     2022.37371        -6.10389         8.97751
     2022.37645        -7.81193         9.09728
     2022.37919         2.86502         9.50226
     2022.38193        -3.45702         9.24540
     2022.38466        -2.22107         8.93969
     2022.38740       -17.81712         8.99485
     2022.39014        -9.43916         8.96018
     2022.39286       -14.56448         9.07994
     2022.39565        -3.26953         9.04527
     2022.39835        -0.80630         9.31159
     2022.40109         0.45065         9.21861
     2022.40383         4.14661         9.12249
     2022.40657         0.48956         9.32104
     2022.40930       -10.36149         9.07837
     2022.41204         0.45047         9.25486
     2022.41478        -0.84458         9.13194
     2022.41752        -5.85462         9.13982
     2022.42026        -8.20067         9.27062
     2022.42299       -10.92272         8.86090
     2022.42573        -4.02876         8.90502
     2022.42847         1.06719         8.95072
     2022.43121        -7.02885         9.99235
     2022.43396        -3.77454         9.29110
     2022.43668       -10.22795         8.87666
     2022.43942        -8.70499         8.94284
     2022.44216         7.64796         9.47548
     2022.44490         2.46091         9.40456
     2022.44763        -4.24813         8.84514
     2022.45037        -7.09718         8.81363
     2022.45311        -9.05822         8.77108
     2022.45585         0.19573         8.84042
     2022.45859       -11.94532         9.05630
     2022.46132        -6.39336         8.89715
     2022.46406        -5.24341         8.95545
     2022.46680       -10.34645         8.79944
     2022.46954       -10.41450         8.78684
     2022.47227       -13.50555         8.96963
     2022.47501        11.85341         9.16976
     2022.47775        -3.62764         9.15716
     2022.48049       -14.52669         8.87666
     2022.48323        -2.56973         8.86720
     2022.48596        -0.05878         8.92551
     2022.48870        -6.18282         9.07521
     2022.49144         0.04413         9.17449
     2022.49418       -10.25792         9.30371
     2022.49692       -13.48996         9.00115
     2022.49965        -9.79601         8.99327
     2022.50239       -13.89205         9.81585
     2022.50513        -3.69010         9.79537
     2022.50787        10.12885         9.59839
     2022.51060        -7.67519         9.33365
     2022.51334       -15.71424         8.91921
     2022.51609       -16.82210         9.02794
     2022.51882        -6.42233         9.02164
     2022.52156        -6.93338         9.00745
     2022.52429       -10.58542         8.83884
     2022.52703        -7.62347         8.84357
     2022.52977        -6.39352         9.18552
     2022.53251        -3.94156         9.09097
     2022.53525       -12.61161         9.21231
     2022.53798       -11.33365         9.13510
     2022.54072        -6.28970         8.94600
     2022.54347         4.40243         8.91290
     2022.54620        -6.02079         8.95703
     2022.54893        -1.60084         9.09885
     2022.55167         2.28111         9.06418
     2022.55441         3.21607         9.15085
     2022.55715         1.13802         8.85617
     2022.55989        -9.91202         9.04527
     2022.56262        -5.75207         9.02794
     2022.56536       -15.92212         9.13825
     2022.56810        -0.13016         9.02951
     2022.57084        -2.72621         9.18395
     2022.57357         1.23375         9.53378
     2022.57631        -8.95430         8.98854
     2022.57905        -1.71835         9.07679
     2022.58179        11.55661         8.87981
     2022.58453        19.72956         9.25013
     2022.58726       -13.81048         9.15716
     2022.59000         6.95747         9.20916
     2022.59274        -7.73858         9.11146
     2022.59547         5.80729         9.79222
     2022.59822       -10.60367         9.29110
     2022.60095       -15.61072         8.70489
     2022.60369        -3.05076         9.19970
     2022.60643         2.91419         8.98854
     2022.60917         9.39215         9.16976
     2022.61190         7.79610         9.54481
     2022.61464        -7.64295         9.27377
     2022.61738         3.36001         8.81678
     2022.62012        -1.23104         8.93339
     2022.62286         4.82092         9.09097
     2022.62559        -0.38813         8.85617
     2022.62833        -3.22618         8.93497
     2022.63107        -0.53422         8.82781
     2022.63381         8.37773         9.12722
     2022.63655         8.47168         8.95860
     2022.63928         2.62064         8.92709
     2022.64202         2.82759         9.64409
     2022.64476        13.01755         9.54008
     2022.64750         5.49650         9.25486
     2022.65023        -2.38255         9.36674
     2022.65297        11.87641         9.32577
     2022.65571         8.40536         9.31947
     2022.65845        11.87732         9.15873
     2022.66119         6.30427         8.81363
     2022.66392         1.67922         8.91133
     2022.66666         2.41218         9.31001
     2022.66940         5.99413         9.01061
     2022.67209         3.16127         9.25171
     2022.67488         3.18922         8.93969
     2022.67761         9.47999         9.18079
     2022.68035        10.65995         8.81993
     2022.68309        10.92690         9.10043
     2022.68583        11.00685         9.38565
     2022.68856        18.89781         8.92078
     2022.69130         7.16476         8.90030
     2022.69404         8.95472         8.95860
     2022.69678         9.27667         8.92709
     2022.69952         2.49762         9.01218
     2022.70225        19.27458         9.17607
     2022.70499         5.77053         9.32420
     2022.70773         3.09349         8.90502
     2022.71047         8.28844         8.73168
     2022.71321        19.07239         8.94915
     2022.71868        14.30030         8.90975
     2022.72142        16.48325         8.93024
     2022.72416        12.02221         9.06733
     2022.72689        13.84216         8.97279
     2022.72963         9.89912         8.98854
     2022.73238        14.98834         8.99012
     2022.73511         7.53002         9.02951
     2022.73785        10.94798         8.79156
     2022.74058         9.94193         9.36202
     2022.74332        16.46489         9.23122
     2022.74606        16.42884         8.95703
     2022.74880         5.77479         8.83411
