# ================= DQRFIT RESULTS ================
# INPUT FILE: series/KNTP.rad
# OUTPUT: LDETRENDED
# FILTER FUNCTION: f(t)
# f(t)=+line(t)
# line(t)=+P 1+P 2*t
# heav(t)=(t<0?0:1)
# TOTAL OBSERVATIONS MTOT=  241
# INITIAL TIME INTERVAL= 2008.7310 - 2008.0164 =  0.7146
# TOTAL OBSERVATIONS AFTER PREFILTER M=  241
# TIME-SPAN= 2008.7310 - 2008.0164 =  0.7146
# OBSERVATIONS: USED M=   241 REJECTED MTOT-M=     0 %USED=  100.0000
# N=  2 PARAMETERS
# MAXSIG= 175.00000
# MAXRES=  16.29567
# SCALE FACTOR FOR LENGTHS: SCL=  10.00000
# SCALE FACTOR FOR SIGMAS: SCLSIG=   1.00000
# CHI^2=    232.956 DOF=   239 CHI^2/DOF=   0.97471
# RMS=      6.078 SDEV=      6.090 MEAN=    0.11974
#  P #       PARAMETER +-    SIGMA %error PARAMETER NAME
# P 1 =     -2857.13738 +- 3860.972 135.13 YZERO                              
# P 2 =         1.30803 +-    1.922 146.97 SLOPE                              
#       T            LDETRENDED       SIG_OBS
     2008.01642        10.95088         5.71336
     2008.01916         5.72530         5.89205
     2008.02190        -3.28928         5.95721
     2008.02464         9.71614         5.85947
     2008.02737         1.69056         5.81110
     2008.03011        -1.93803         6.03916
     2008.03285        -6.84161         5.72224
     2008.03559        -3.74319         5.88909
     2008.03833        -2.79077         5.85355
     2008.04106        -8.80535         6.03620
     2008.04380       -14.09993         6.09346
     2008.04654        -6.82251         5.85454
     2008.04928        -6.31209         5.91970
     2008.05201        -4.55468         5.71237
     2008.05475        -5.29226         5.93944
     2008.05749        -8.99484         5.81801
     2008.05992       -14.45101         6.84379
     2008.09428        12.05704        15.11715
     2008.09582        -0.56397         5.98387
     2008.09856         8.67044         5.97992
     2008.10221        16.29567         9.75131
     2008.10403         6.48228         5.77654
     2008.10677         3.13470         5.69065
     2008.10951         4.18312         5.83578
     2008.11225         1.44054         5.78444
     2008.12871        10.20400         7.25153
     2008.13141         5.69447         5.76963
     2008.13415        10.32089         5.77654
     2008.13689        -0.71669         5.74692
     2008.13963         4.63473         5.87724
     2008.14236         6.21515         5.80517
     2008.14510         8.82156         5.80517
     2008.14784         9.66298         5.84368
     2008.15058         4.35440         5.79234
     2008.15273         4.24358         9.96950
     2008.15697         4.90103         9.61507
     2008.15879         4.73866         5.69657
     2008.16153        -3.43692         5.78543
     2008.16427         1.05150         5.87231
     2008.16700        -4.16909         5.70941
     2008.17020         1.84374         7.02347
     2008.17248        -2.04725         5.68868
     2008.17545        -3.21913         6.45184
     2008.17796         1.10759         5.75778
     2008.18069        -4.18599         7.63163
     2008.18343        -3.73657         5.75186
     2008.18611         0.07692         5.97992
     2008.18891        -5.54874         5.82196
     2008.19164        10.25168         5.78049
     2008.19438        -1.29090         5.77753
     2008.19712         6.14452         7.00471
     2008.19986         6.24794         5.86638
     2008.20260         3.26936         5.69756
     2008.20533         7.27678         5.77852
     2008.20807         3.90420         5.96314
     2008.21081         7.14162         5.87823
     2008.21355        -1.98697         6.22871
     2008.21629         7.44345         5.80814
     2008.21902        -4.48313         5.90489
     2008.22130        -5.39011         7.58918
     2008.22450         5.57671         5.78049
     2008.22724         0.75113         6.07569
     2008.22997        -8.88045         5.88810
     2008.23271        -1.28303         5.97597
     2008.23544         1.96140         8.10651
     2008.23819         4.91380         5.93846
     2008.24093        -7.29978         6.16948
     2008.24366         4.97864         5.89304
     2008.24640        -6.01294         6.07865
     2008.24914         3.24748         5.89699
     2008.25188        -5.68810         6.23760
     2008.25462        -2.54468         5.92957
     2008.25735        -3.07327         5.94635
     2008.26009         3.34415         5.89600
     2008.26283        -4.23343         5.88909
     2008.26557        -2.84401         5.85256
     2008.26830        -6.09859         5.74396
     2008.27104         4.49083         5.93549
     2008.27378        -9.75875         5.82294
     2008.27652        -6.66533         5.90390
     2008.27926        -4.82391         5.95425
     2008.28199        -2.59050         5.87626
     2008.28473         7.76592         5.85355
     2008.28747         8.76134         5.94734
     2008.28983         2.73325         6.78455
     2008.29346         1.55751         7.97816
     2008.29568         3.50560         5.98288
     2008.29842         4.40102         5.78049
     2008.30116         0.60344         5.92167
     2008.30390        -4.24115         5.86145
     2008.30663        -1.02373         6.25340
     2008.30937        -0.31731         6.00756
     2008.31211        -7.15289         6.20305
     2008.31485        -9.17847         5.85651
     2008.31759       -12.26205         5.98782
     2008.32032        -6.02363         5.86046
     2008.32306         0.76679         6.05594
     2008.32580        10.19121         5.92266
     2008.32854         5.64262         5.80122
     2008.33128        -2.06796         5.71533
     2008.33401        -6.48454         5.73113
     2008.33675        -6.60212         5.72915
     2008.33949        11.67730         5.95721
     2008.34223        -2.65528         5.77753
     2008.34496       -10.78086         6.36989
     2008.34770        -2.33844         5.65610
     2008.35044        -5.90003         5.71434
     2008.35278       -12.34508         6.81614
     2008.36772         2.11637         9.56570
     2008.36961       -11.59009         5.83479
     2008.37234       -10.13168         5.70546
     2008.37508         8.39874         8.21807
     2008.37782         4.14416         5.75778
     2008.38056         3.29858         5.81110
     2008.38329         2.61600         5.78740
     2008.38603         2.49542         5.67683
     2008.38877         5.63584         5.82196
     2008.39151         8.17026         5.82788
     2008.39425         5.55268         5.71336
     2008.39698         3.47909         5.75680
     2008.39972         4.55851         5.63635
     2008.40246         1.23493         6.35607
     2008.40520         5.58535         5.78543
     2008.40794         6.20977         5.62055
     2008.41067         2.27219         5.81801
     2008.41341         3.96261         5.72126
     2008.41615        11.73003         5.63240
     2008.41889        -1.38656         5.77852
     2008.42162         0.40486         6.03916
     2008.42470        14.19583         8.91608
     2008.42710         1.45370         5.96709
     2008.42984         6.91612         5.78543
     2008.43258        15.06254         5.83775
     2008.43531        -2.59204         5.90193
     2008.43805         3.37038         5.83380
     2008.44079        -1.09721         6.02336
     2008.44353        -0.68379         5.90390
     2008.44626         0.84063         5.86836
     2008.44900        -0.63495         5.68868
     2008.45174        -5.73953         5.88416
     2008.45448        -5.02511         5.91575
     2008.45722        -5.63169         5.86342
     2008.45995         0.98773         5.77556
     2008.46269        -2.12685         5.76667
     2008.46543        -2.51444         5.76173
     2008.46817       -11.38802         5.74396
     2008.47091       -12.10360         5.97893
     2008.47364        -9.43418         5.76173
     2008.47638         5.80924         5.75482
     2008.47912        -4.36234         5.81505
     2008.48186        -2.26092         5.73310
     2008.48459        -5.98750         5.95326
     2008.48733        -4.91309         5.81801
     2008.49007       -12.40967         5.73014
     2008.49281        -4.52425         5.73606
     2008.49555        -8.70383         5.90686
     2008.49828        -8.23841         6.03225
     2008.50102        -5.81599         6.02237
     2008.50376        -9.19057         6.05495
     2008.50650        -5.39515         5.89995
     2008.50924        -1.65274         5.76963
     2008.51197         4.68968         5.82196
     2008.51471        -5.54690         5.72126
     2008.51745        -5.26948         5.79135
     2008.52019        -2.89006         5.67782
     2008.52292         1.50136         5.98782
     2008.52566         3.44378         5.94438
     2008.52840         4.22020         5.73310
     2008.53114        -2.65338         6.17441
     2008.53388        -6.38897         6.03916
     2008.53661       -10.99755         5.81110
     2008.53935        -3.04813         6.01744
     2008.54209        -3.27571         5.77556
     2008.54483        -0.93229         5.90390
     2008.54757        -0.65487         5.89008
     2008.55030         7.08655         5.80912
     2008.55304         2.90997         5.88416
     2008.55578         6.21438         5.60377
     2008.55852         1.27880         5.79135
     2008.56125        -3.63178         5.82393
     2008.56399        -7.47736         5.84368
     2008.56673        -5.13694         5.87428
     2008.56947         5.10148         5.79629
     2008.57221         4.36590         5.80122
     2008.57494         3.55932         5.98486
     2008.57768         5.67174         6.05792
     2008.58042        -2.42385         5.90686
     2008.58316         2.72057         5.83183
     2008.58590         5.72199         5.75581
     2008.58863        -2.74659         5.97597
     2008.59137        -1.69617         6.75789
     2008.59411         0.50425         5.76766
     2008.59685         0.45667         5.80320
     2008.59958        -0.12191         6.05101
     2008.60506        -2.65308         5.93253
     2008.60780         1.83634         5.88810
     2008.61054        -9.23224         5.88712
     2008.61327         6.98818         5.85750
     2008.61601         7.94560         5.79826
     2008.61875        -0.80598         5.96709
     2008.62154         1.36036         6.04607
     2008.62423        -2.07215         5.88712
     2008.62696        -1.18173         5.99769
     2008.62970         5.07769         6.15269
     2008.63244        11.69911         5.95326
     2008.63518         1.81853         5.97005
     2008.63791         1.37095         5.98387
     2008.64048         4.72059         6.36792
     2008.64346         1.66769         5.94833
     2008.64613        10.00121         6.07273
     2008.64887         0.67762         6.04113
     2008.65160         8.36804         5.91476
     2008.65434        -1.98254         6.11024
     2008.65708        -2.22112         6.09148
     2008.65982        -9.96470         5.90390
     2008.66256         6.85972         5.89403
     2008.66529         4.34314         5.89600
     2008.66803        -8.71544         5.92858
     2008.67069        -2.65692         6.06187
     2008.67431         0.72935         8.94964
     2008.67624        10.57481         6.30572
     2008.67898         9.03523         5.94635
     2008.68172        -2.25035         5.90489
     2008.68449        -5.84597         5.94438
     2008.68720        -0.45451         5.84763
     2008.68993        -0.17509         6.13196
     2008.69267        -1.27668         5.93944
     2008.69541        -5.79426         6.01645
     2008.69815        -2.08284         6.08753
     2008.70089        -2.19042         5.92661
     2008.70365        -3.63504         5.94537
     2008.70636         5.93142         5.84565
     2008.70910        10.79984         5.92661
     2008.71184        -6.44674         6.09247
     2008.71457        -3.02432         5.79826
     2008.71731         1.61109         5.89600
     2008.72005        10.40751         5.82294
     2008.72282         6.20489         5.99572
     2008.72553        -0.97865         5.96314
     2008.72826        -3.15523         5.83479
     2008.73100         1.21519         5.83874
