# ================= DQRFIT RESULTS ================
# INPUT FILE: series/LNRD.rad
# OUTPUT: LDETRENDED
# FILTER FUNCTION: f(t)
# f(t)=+line(t)+annual(t)
# line(t)=+P 1+P 2*t
# annual(t)=+P 3*sin(2*pi*t+P 4)
# heav(t)=(t<0?0:1)
# TOTAL OBSERVATIONS MTOT=  538
# INITIAL TIME INTERVAL= 2017.5851 - 2011.4990 =  6.0861
# TOTAL OBSERVATIONS AFTER PREFILTER M=  536
# TIME-SPAN= 2017.5851 - 2011.4990 =  6.0861
# OBSERVATIONS: USED M=   536 REJECTED MTOT-M=     2 %USED=   99.6283
# N=  4 PARAMETERS
# MAXSIG= 175.00000
# MAXRES=  21.48281
# SCALE FACTOR FOR LENGTHS: SCL=  10.00000
# SCALE FACTOR FOR SIGMAS: SCLSIG=   1.00000
# CHI^2=    417.485 DOF=   532 CHI^2/DOF=   0.78475
# RMS=      5.019 SDEV=      5.024 MEAN=    0.04501
#  P #       PARAMETER +-    SIGMA %error PARAMETER NAME
# P 1 =      1261.66051 +-  236.333  18.73 YZERO                              
# P 2 =        -0.62472 +-    0.117  18.77 SLOPE                              
# P 3 =         6.91480 +-    0.340   4.92 ANNUAL AMPLITUDE                   
# P 4 =         2.20072 +-    0.037   1.69 ANNUAL PHASE                       
#       T            LDETRENDED       SIG_OBS
     2011.49898        -1.84428         5.03168
     2011.50172        -5.66957         5.07154
     2011.50445        -4.32986         5.03699
     2011.50719       -10.91414         5.02902
     2011.50993        -8.50443         5.06623
     2011.51267        -2.57872         5.14596
     2011.51541        -8.37101         5.13355
     2011.51814        -4.64930         5.09103
     2011.52088        -2.43259         5.03168
     2011.52362       -10.42088         5.05383
     2011.52636        -3.54817         4.98916
     2011.52909         0.42954         5.02016
     2011.53183        -1.55375         5.05648
     2011.53457        -8.98304         5.04408
     2011.53731        -4.03633         5.00156
     2011.54005        -6.71062         4.98384
     2011.54278        -8.13591         5.02902
     2011.54552       -14.07220         5.23720
     2011.54826        -8.11349         5.00865
     2011.55100         2.08922         4.99625
     2011.55374        -1.75607         5.18228
     2011.55647        -3.55936         5.02991
     2011.55921        -6.15965         5.00776
     2011.56195         0.08606         5.13710
     2011.56469        -4.30323         5.08660
     2011.56742         1.18848         4.99536
     2011.57016        -5.56881         5.08306
     2011.57290        -5.11210         5.02636
     2011.57564        -0.09038         5.03522
     2011.57838         2.10833         5.13267
     2011.58111        -7.48696         5.15481
     2011.58385        -9.65425         5.13267
     2011.58659        -4.95154         5.17607
     2011.58933        -7.38383         5.09635
     2011.59206        -2.14512         5.01928
     2011.59480        -1.98041         5.04940
     2011.59754        -2.92470         5.14153
     2011.60028         2.27501         5.01130
     2011.60302        -2.06328         4.99447
     2011.60575        -1.54357         5.05648
     2011.60849         4.28614         5.33730
     2011.61123         3.02985         5.38337
     2011.61397         1.03356         5.08306
     2011.61671         1.39327         5.18405
     2011.61944        -1.69902         5.23631
     2011.62218        -1.25531         5.14684
     2011.62492        -4.77460         5.11938
     2011.62766        -3.44189         5.02282
     2011.63039        -1.29718         5.06711
     2011.63313         2.73353         5.07952
     2011.63587        -2.23476         5.09103
     2011.63861        -0.21305         5.08837
     2011.64109         1.11751         5.83161
     2012.49282        -7.54540         4.92981
     2012.49556        -5.52869         4.92183
     2012.49829        -9.92098         4.97853
     2012.50103        -1.19427         4.92006
     2012.50377        -5.84356         5.08306
     2012.50651        -2.74285         5.02371
     2012.50924        -3.17614         5.01839
     2012.51198        -8.26243         5.05914
     2012.51472        -7.27272         4.92538
     2012.51746        -7.97201         4.97233
     2012.52020       -13.10030         5.00510
     2012.52293        -5.80559         4.93866
     2012.52567        -6.32388         5.15836
     2012.52841        -4.89017         5.13355
     2012.53115        -5.85746         5.24163
     2012.53389        -8.53374         5.23188
     2012.53662        -3.60503         4.91032
     2012.53936       -10.01432         4.98827
     2012.54210        -2.44061         4.89614
     2012.54484        -3.95990         5.08749
     2012.54757        -7.79919         5.19113
     2012.55031         0.72152         5.02016
     2012.55305        -6.24677         4.94221
     2012.55579        -4.33706         5.00333
     2012.55853        -0.71735         5.13267
     2012.56126        -7.48264         5.41526
     2012.56400        -6.43793         5.19025
     2012.56674        -5.29622         4.93246
     2012.56948        -2.79051         4.89349
     2012.57222        -5.86480         4.93158
     2012.57495        -8.41209         4.96081
     2012.57769        -7.52038         5.14684
     2012.58043        -2.39967         5.09723
     2012.58317        -9.14096         5.21062
     2012.58590        -5.87225         5.04851
     2012.58864        -4.56054         4.97410
     2012.59138        -1.90683         4.93246
     2012.59412        -7.43612         4.99004
     2012.59686        -6.19341         5.05560
     2012.59937        -0.69983         5.64735
     2013.31417        -6.20128         5.04231
     2013.31691        -7.53157         5.01928
     2013.31965        -8.89786         4.97764
     2013.32239         0.33185         5.10698
     2013.32512        -2.98344         5.04940
     2013.32786         1.74627         5.10521
     2013.33060        -9.41102         4.99713
     2013.33334       -12.86531         5.01928
     2013.33608       -15.78860         4.98384
     2013.33881        -4.81589         4.97764
     2013.34155        -4.69318         4.99447
     2013.34429        -5.62547         5.00510
     2013.34703        -7.63976         4.97498
     2013.34977       -13.20105         5.01130
     2013.35250       -10.76033         5.03877
     2013.35524       -15.98862         5.18228
     2013.35798       -13.54491         5.01485
     2013.36072       -11.85120         5.01042
     2013.36345        -4.39149         5.04054
     2013.36619       -10.79278         5.07774
     2013.36893        -4.78907         5.04940
     2013.37167        -2.41036         5.03611
     2013.37441        -8.48965         4.98296
     2013.37714        -3.55394         5.01928
     2013.37988       -16.83823         5.16456
     2013.38262       -13.72252         5.00422
     2013.38536        -9.45981         5.06446
     2013.38810       -10.77010         5.09103
     2013.39083        -7.63039         4.92981
     2013.39357        -7.71568         4.96170
     2013.39631        -8.05397         4.94575
     2013.39905       -12.34226         5.02814
     2013.40178        -8.22955         5.00510
     2013.40452        -6.58384         5.00422
     2013.40726        -6.71113         5.08129
     2013.41000        -2.18842         5.04674
     2013.41274       -10.38971         5.03788
     2013.41547       -12.74800         5.11141
     2013.41821        -6.81229         4.99979
     2013.42095        -8.02957         5.05028
     2013.42369       -10.48186         5.02459
     2013.42643        -9.36915         5.01839
     2013.42916        -8.21944         5.02282
     2013.43190       -15.75873         5.09900
     2013.43464       -12.97502         5.07509
     2013.43738        -9.73031         5.02282
     2013.44011        -7.97460         5.13444
     2013.44285       -12.44089         5.18139
     2013.44559       -12.41718         5.19202
     2013.44808       -11.46263         5.71379
     2015.11842        -1.42913         5.03965
     2015.12115         1.23858         5.05294
     2015.12389         3.46229         5.07774
     2015.12663        -0.01300         5.07066
     2015.12937         2.00671         5.09369
     2015.13211         0.55043         5.02282
     2015.13484         2.07914         5.14861
     2015.13758         5.84385         5.16279
     2015.14032         5.24556         5.06446
     2015.14306        17.08227         5.07952
     2015.14580         6.80798         5.06446
     2015.14853         3.44369         5.02636
     2015.15127         3.88640         5.04142
     2015.15401         9.89211         5.14507
     2015.15675         7.37082         5.09369
     2015.15948         6.85053         5.08926
     2015.16222         5.75424         5.02371
     2015.16496         4.99795         5.05117
     2015.16770         4.68466         5.14153
     2015.17044         4.45737         5.09458
     2015.17317         2.46508         5.19734
     2015.17591        -1.39321         5.22303
     2015.17865         2.86650         5.06711
     2015.18139         4.31021         5.07863
     2015.18413         7.54092         5.11229
     2015.18686         6.28263         5.09015
     2015.18960         2.45934         5.12204
     2015.19234        -8.70895         5.23543
     2015.19508         2.32376         5.10786
     2015.19781         2.39647         5.16633
     2015.20055         8.06219         5.13533
     2015.20329         6.85990         5.13887
     2015.20603        -1.43139         5.15924
     2015.20877         0.11932         5.09989
     2015.21150        -2.90097         4.97321
     2015.21424         0.16674         5.07952
     2015.21698        -6.90955         5.17253
     2015.21972        -2.62984         5.16101
     2015.22246         8.74587         5.11406
     2015.22519        -0.09242         4.98827
     2015.22793         7.35429         5.07774
     2015.23067         3.31200         5.05117
     2015.23341        -1.66929         5.26998
     2015.23614         0.21142         5.27972
     2015.23888         2.50813         5.14861
     2015.24162         1.70184         5.15659
     2015.24436         3.26255         5.35856
     2015.24710        -0.92674         5.15127
     2015.24983         4.22697         5.09812
     2015.25257         4.28068         5.03877
     2015.25531         1.57539         5.02725
     2015.25805         5.59810         5.03434
     2015.26079         8.35281         5.14153
     2015.26352         5.81052         5.03257
     2015.26626         3.01523         5.07952
     2015.26900         3.51895         4.98916
     2015.27174         7.12266         5.12912
     2015.27447        11.00237         5.19556
     2015.27721         9.07408         5.16279
     2015.27995         4.97779         5.04585
     2015.28269         3.93050         5.11849
     2015.28511         6.69301         6.06902
     2016.60781         0.83633         4.88020
     2016.61055         1.17004         4.88286
     2016.61328        -2.70125         4.86780
     2016.61602        -1.89754         4.95372
     2016.61876        -0.67083         4.92892
     2016.62150        -1.35712         5.00599
     2016.62423         2.63459         4.97233
     2016.62697         2.14930         4.98650
     2016.62971        -2.93499         4.94044
     2016.63245         0.69272         5.04320
     2016.63519         5.20044         4.92449
     2016.63792        10.68115         4.89791
     2016.64066         8.82486         4.93955
     2016.64340         0.71457         4.94044
     2016.64614         4.58428         4.90766
     2016.64888        -3.96101         4.86071
     2016.65161         6.13370         4.98119
     2016.65435        -1.42859         4.90234
     2016.65709        -2.51488         4.92183
     2016.65983        -5.44317         4.92626
     2016.66256        -1.87746         4.87843
     2016.66530        -0.81175         5.00422
     2016.66804         4.87196         4.92006
     2016.67078         0.26767         4.98650
     2016.67352         7.37438         4.85717
     2016.67625         5.27609         4.95372
     2016.67899         3.27480         4.88640
     2016.68173        10.41251         4.87577
     2016.68447         9.30022         5.09812
     2016.68721         0.02993         5.19556
     2016.68994         5.86364         5.03079
     2016.69268         1.52435         4.83325
     2016.69542         3.34706         4.93246
     2016.69816         7.10877         4.92538
     2016.70089         8.68848         4.90412
     2016.70363         9.47120         5.04320
     2016.70637         4.29291         5.22657
     2016.70911         1.94362         5.14950
     2016.71185         4.56333         4.90677
     2016.71458         0.30704         4.92715
     2016.71732        12.69175         5.00865
     2016.72006        15.40146         4.90057
     2016.72280        13.52517         4.93158
     2016.72554         7.85188         5.14861
     2016.72827         8.16259         5.08040
     2016.73101        11.90530         4.93778
     2016.73375        -2.19199         4.93246
     2016.73649         6.96372         4.85894
     2016.73922         2.83643         4.82350
     2016.74196         2.89014         4.85274
     2016.74470         0.12985         4.89703
     2016.74744         5.13556         4.92626
     2016.75018         2.63127         4.91563
     2016.75291         4.19598         4.88020
     2016.75565         9.88569         4.87577
     2016.75839         8.85640         4.84122
     2016.76113         7.11411         4.85717
     2016.76387         2.67282         4.89083
     2016.76660         5.29553         4.90943
     2016.76934         9.64024         4.86248
     2016.77208         5.11296         4.87488
     2016.77482         5.58767         4.92892
     2016.77755         4.12838         5.02459
     2016.78029         3.56609         4.92626
     2016.78303         3.19380         4.97498
     2016.78577        15.06651         5.06446
     2016.78851        23.21622         5.12912
     2016.79124         9.65893         5.07863
     2016.79398        15.05364         4.93601
     2016.79672         4.27835         5.02548
     2016.79946         2.00406         4.90589
     2016.80220         5.81777         4.88817
     2016.80493         6.58948         4.90057
     2016.80767         9.46419         4.94487
     2016.81041        -0.42910         4.93778
     2016.81315         3.41361         4.99713
     2016.81588         2.77532         4.92981
     2016.81862         3.57903         4.89349
     2016.82136         2.13074         4.91386
     2016.82410        -3.36755         4.91209
     2016.82684        -0.05584         4.86780
     2016.82957         2.00187         4.93158
     2016.83231         7.70458         4.90057
     2016.83505         2.27329         4.83059
     2016.83779         0.61400         4.84654
     2016.84052        -0.22828         4.85451
     2016.84326         2.73643         4.87577
     2016.84600         2.37214         4.86691
     2016.84874         6.40485         4.94841
     2016.85148         4.91856         4.89526
     2016.85421         3.34227         4.85628
     2016.85695         4.90098         4.86780
     2016.85969         3.22769         4.97144
     2016.86243         3.95640         4.85539
     2016.86517        13.45811         4.94929
     2016.86790         5.62582         4.87222
     2016.87064         2.00653         4.88994
     2016.87338        15.12224         4.92538
     2016.87612         6.91595         4.96170
     2016.87885         3.60766         4.86159
     2016.88159        -0.05663         4.88374
     2016.88433         5.70308         4.90766
     2016.88707         8.68879         4.92803
     2016.88981         8.06750         4.85982
     2016.89254         4.23021         4.87577
     2016.89528         3.85792         4.96081
     2016.89802         5.38863         4.92006
     2016.90076         0.52934         4.85982
     2016.90350         8.55905         5.01396
     2016.90623        11.18776         4.98916
     2016.90897        -3.14852         4.92360
     2016.91171         5.38719         4.88817
     2016.91445         4.41490         4.92538
     2016.91718         3.73761         4.97233
     2016.91992        -0.33668         5.00067
     2016.92266        -1.28197         4.85982
     2016.92540         6.43674         4.86071
     2016.92814         5.70045         4.94664
     2016.93087         4.36616         4.90146
     2016.93361         2.05487         4.93866
     2016.93635         6.43358         4.84654
     2016.93909         2.01929         5.28681
     2016.94183        11.91600         4.93689
     2016.94456         4.54971         4.93512
     2016.94730         9.58842         4.93689
     2016.95004         5.77413         4.96967
     2016.95278        17.96284         5.06180
     2016.95551        27.97655         5.16633
     2016.96099         8.89397         4.89614
     2016.96373        -1.83332         4.87488
     2016.96647         2.70039         4.86071
     2016.96920         3.08810         4.97498
     2016.97194         0.36781         4.92183
     2016.97468         6.90252         4.87931
     2016.97742         8.61824         4.88374
     2016.98016         9.00395         4.83945
     2016.98289         3.32866         4.83590
     2016.98563         3.00637         4.85539
     2016.98837         3.35908         4.90855
     2016.99111         7.12679         4.83413
     2016.99384         5.60350         4.86159
     2016.99658         6.46521         4.86868
     2016.99932         5.95492         4.83679
     2017.00206         9.31063         4.92360
     2017.00480         8.77634         4.84565
     2017.00753         2.04905         4.84299
     2017.03217        -2.13156         4.90943
     2017.03491        -4.15285         5.74391
     2017.03765        -2.74314         4.91032
     2017.04039        -0.40843         4.92095
     2017.04313        -1.04472         4.87754
     2017.04586         2.16300         5.05117
     2017.04860         1.65271         5.09369
     2017.09515         5.74978         4.99359
     2017.09788         0.69049         4.91386
     2017.10062         6.12720         4.96435
     2017.10336       -11.92509         5.11672
     2017.10610        -3.36138         4.99004
     2017.10883         1.61533         4.98207
     2017.11705        -7.98253         4.94664
     2017.11979        -7.22982         4.91918
     2017.12252        -6.14311         4.87134
     2017.12526        -3.53340         4.90500
     2017.12800         1.18931         4.99536
     2017.13074         2.20902         5.00067
     2017.13347        -0.78827         4.91297
     2017.13621         2.01944         4.96081
     2017.13895        -3.07185         4.90855
     2017.14169        -5.07814         4.89969
     2017.14443        -6.98043         4.88817
     2017.14716        -5.07872         4.91918
     2017.14990        -6.99301         4.89083
     2017.15264        -1.05730         4.89880
     2017.15538        -0.91059         4.88374
     2017.15812         2.14312         4.99625
     2017.16085        -1.43517         4.94132
     2017.16359        -6.47746         4.88374
     2017.16633        -5.76175         4.87134
     2017.16907        -6.17504         4.88374
     2017.17180         0.12467         4.94664
     2017.17454         1.20738         4.98119
     2017.17728        -2.45191         5.15393
     2017.18002        -5.03520         4.94044
     2017.18276        -6.17148         4.90412
     2017.18549        -8.04977         4.86159
     2017.18823       -15.55806         4.93689
     2017.19097        -8.72135         4.92892
     2017.19371        -3.43664         4.95904
     2017.19645        -7.88493         4.86425
     2017.19918        -5.42222         4.86071
     2017.20192        -3.77251         4.93601
     2017.20466        -2.33480         5.19379
     2017.20740       -10.17109         4.99004
     2017.21013        -3.42038         4.94132
     2017.21287        -3.51767         4.95284
     2017.21561        -5.32296         4.95904
     2017.21835        -3.20425         4.91475
     2017.22109         2.70246         4.95904
     2017.22382        -4.40183         5.02459
     2017.22656        -3.45512         4.99536
     2017.22930        -0.03641         4.83768
     2017.23204         0.82730         4.92360
     2017.23478         5.25401         5.02105
     2017.23751        -0.29128         4.90146
     2017.24025        -7.43557         4.90589
     2017.24299        -4.99586         4.96258
     2017.24573         2.15585         4.97587
     2017.24846        -8.45744         4.92715
     2017.25120        -6.30472         5.02282
     2017.25394        -5.64601         4.89349
     2017.25668        -2.94330         4.90677
     2017.25942       -12.70159         4.93069
     2017.26215        -6.77988         4.96524
     2017.26489        -3.96817         4.98650
     2017.26763        -2.14846         4.92981
     2017.27037         2.15925         4.91829
     2017.27311        -5.96504         4.93955
     2017.27584        -4.26033         4.92626
     2017.27858        -2.86162         4.93866
     2017.28132       -11.59591         4.95107
     2017.28406       -11.36620         4.90766
     2017.28679        -6.66749         4.92892
     2017.28953        -3.42278         4.92981
     2017.29227        -8.26107         4.99270
     2017.29501       -17.42036         4.97233
     2017.29775        -4.86965         4.92095
     2017.30048       -11.28394         4.96701
     2017.30322        -2.62323         4.91740
     2017.30596        -7.10352         4.91740
     2017.30870       -12.18781         4.96258
     2017.31144        -5.24910         5.00156
     2017.31417        -6.50739         5.06889
     2017.31691       -13.10368         4.94841
     2017.31965         3.35904         5.27706
     2017.32239       -11.64125         5.12204
     2017.32512       -11.53954         4.90057
     2017.32786       -12.60383         4.93335
     2017.33060       -13.40812         4.91740
     2017.33334       -10.53741         5.01751
     2017.33608       -11.73570         4.87577
     2017.33881        -9.73499         4.89614
     2017.34155        -7.42028         5.13001
     2017.34429        -7.95557         4.92449
     2017.34703        -6.60686         4.88994
     2017.34977        -9.95615         4.86425
     2017.35250       -12.15144         4.84299
     2017.35524       -12.51673         4.89880
     2017.35798       -12.21302         4.89703
     2017.36072        -8.55331         5.02459
     2017.36345       -11.33760         4.92272
     2017.36619        -9.33289         4.88551
     2017.36893        -3.84418         4.89614
     2017.37167       -10.43147         4.88728
     2017.37441        -3.85476         5.00510
     2017.37714        -5.09705         5.05383
     2017.37988       -15.30734         4.95018
     2017.38262        -7.86363         4.94132
     2017.38536        -6.90692         4.91120
     2017.38810        -6.86820         4.94309
     2017.39083       -10.41349         4.86159
     2017.39357        -1.76678         5.06446
     2017.39631         0.39193         5.05383
     2017.39905        -2.12836         4.92183
     2017.40178        -6.70965         4.85628
     2017.40452        -7.01694         4.90766
     2017.40726        -5.91323         4.90412
     2017.41000        -8.75652         4.95904
     2017.41274        -8.18481         4.99447
     2017.41547       -10.56210         4.89791
     2017.41821        -4.38539         5.03522
     2017.42095        -5.10168         4.98561
     2017.42369       -11.37997         4.98030
     2017.42643        -7.62526         4.97764
     2017.42916        -9.17955         4.90855
     2017.43190        -3.81184         4.98296
     2017.43464       -16.49913         5.05294
     2017.43738        -2.02342         5.04674
     2017.44011         4.07229         5.03611
     2017.44285         0.38700         5.00245
     2017.44559         0.98171         4.92626
     2017.44833        -9.00158         4.91829
     2017.45107         0.25013         4.87665
     2017.45380        -4.02916         5.04585
     2017.45654         5.56356         5.10432
     2017.45928         2.34427         5.00333
     2017.46202         2.28298         4.94575
     2017.46475        -6.70131         4.89526
     2017.46749       -15.78160         5.10166
     2017.47023        -9.60089         5.03257
     2017.47297        -2.22018         4.99359
     2017.47571        -5.83547         4.89260
     2017.47844        -8.73776         4.87754
     2017.48118        -4.60405         4.88817
     2017.48392        -9.40634         5.00245
     2017.48666       -10.16063         5.05914
     2017.48940        -0.08792         5.02636
     2017.49213        -7.39421         4.99093
     2017.49487        -8.47050         4.93601
     2017.49761        -8.66179         4.94487
     2017.50035        -6.09208         4.94664
     2017.50308        -5.43137         4.94664
     2017.50582        -5.18066         4.93778
     2017.50856        -8.88795         4.99802
     2017.51130        -3.49624         5.02194
     2017.51404        -7.56853         4.96613
     2017.51677        -5.07482         5.00953
     2017.51951        -6.32411         4.97410
     2017.52225        -3.10640         4.93246
     2017.52499        -3.42568         4.93955
     2017.52773        -0.65697         5.10521
     2017.53046        -2.20526         5.05117
     2017.53320        -9.10855         4.99802
     2017.53594       -10.43284         5.02194
     2017.53868        -5.08313         4.96081
     2017.54141         4.48058         4.97410
     2017.54415         3.27629         4.95018
     2017.54689         0.11300         4.96790
     2017.54963        -2.31629         4.94309
     2017.55237        -4.79758         4.90057
     2017.55510        -2.14087         4.92892
     2017.55784        -7.41416         4.88463
     2017.56058        -3.67645         5.03699
     2017.56332        -6.59174         4.96170
     2017.56606        -0.25103         5.04763
     2017.56879        -3.13232         4.95904
     2017.57153        -6.11061         4.95461
     2017.57427        -7.28290         4.94132
     2017.57701        -8.80219         4.96170
     2017.57974         0.25952         5.00156
     2017.58248        -6.42077         4.99447
     2017.58511        -8.56012         5.21860
