# ================= DQRFIT RESULTS ================
# INPUT FILE: series/LONC.rad
# OUTPUT: LDETRENDED
# FILTER FUNCTION: f(t)
# f(t)=+line(t)
# line(t)=+P 1+P 2*t
# heav(t)=(t<0?0:1)
# TOTAL OBSERVATIONS MTOT=  207
# INITIAL TIME INTERVAL= 2018.6198 - 2006.3409 = 12.2789
# TOTAL OBSERVATIONS AFTER PREFILTER M=  206
# TIME-SPAN=    0.0000 -    0.0000 =  0.0000
# OBSERVATIONS: USED M=   206 REJECTED MTOT-M=     1 %USED=   99.5169
# N=  2 PARAMETERS
# MAXSIG= 175.00000
# MAXRES=  19.21902
# SCALE FACTOR FOR LENGTHS: SCL=  10.00000
# SCALE FACTOR FOR SIGMAS: SCLSIG=   1.00000
# CHI^2=    336.865 DOF=   204 CHI^2/DOF=   1.65130
# RMS=      7.317 SDEV=      7.335 MEAN=    0.05214
#  P #       PARAMETER +-    SIGMA %error PARAMETER NAME
# P 1 =       413.95691 +-  259.353  62.65 YZERO                              
# P 2 =        -0.20490 +-    0.129  62.86 SLOPE                              
#       T            LDETRENDED       SIG_OBS
     2006.34087        -2.22989         7.33751
     2006.34361        -1.17133         7.31952
     2006.34634        -2.19177         7.41590
     2006.34908        -7.19121         7.37606
     2006.35182        -3.88165         7.51099
     2006.35456        -6.43209         7.35036
     2006.35729        -2.21453         7.34394
     2006.36003        -7.90997         7.32209
     2006.36277        -4.80141         7.35036
     2006.36551        -6.98485         7.38634
     2006.36825        -6.85928         7.36835
     2006.37098        -3.36172         7.49043
     2006.37372        -6.18216         7.68318
     2006.37646        -9.56660         7.40947
     2006.37920        -6.50404         7.54312
     2006.38193        -2.56148         7.56239
     2006.38467        -0.34992         7.55725
     2006.38741         1.25664         7.59066
     2006.39015        -4.54980         7.45188
     2006.39289        -5.65724         7.53412
     2006.39562        -7.47767         7.69603
     2006.39836         1.84289         7.72174
     2006.40110         2.76845         7.74872
     2006.40384        -4.86399         7.49943
     2006.40658         1.79457         7.38506
     2006.40931        -3.96787         7.49043
     2006.41205        -2.10331         7.45830
     2006.41455        -3.26480         8.15864
     2008.71732        -0.12796         7.63435
     2008.72006         2.66360         7.42618
     2008.72280        -7.25684         8.41951
     2008.72554        -3.41028         7.48144
     2008.72827         2.11029         7.37735
     2008.73101         0.55085         7.47886
     2009.88365        19.21902         7.56368
     2009.88638        16.69258         7.54954
     2009.88912        13.90514         7.43517
     2009.89186        15.38870         7.53412
     2009.89460        13.40126         7.43260
     2009.89734         3.28283         7.48786
     2009.90007         5.53039         7.45959
     2009.90281        12.32995         7.36707
     2009.90555         7.35451         7.45316
     2009.90829         5.50307         7.35807
     2009.91102         7.57663         7.34008
     2009.91650        10.22475         7.32081
     2012.03286        -2.41761         7.14604
     2012.03560        -0.64304         7.12163
     2012.03833         1.10352         7.07922
     2012.04107         3.44208         7.13448
     2012.04381         0.02664         7.14604
     2012.04655        -2.31080         7.14347
     2012.04929         2.10676         7.23085
     2012.05202        -2.69168         7.11006
     2012.05476       -10.34112         7.20258
     2012.05750       -11.35056         7.11263
     2012.06024        -4.65800         7.28097
     2012.07119         0.28825         7.88493
     2012.07393        -0.80319         7.15247
     2012.07666        -1.67963         7.16275
     2012.07940        -0.17207         7.16917
     2012.08214         1.10149         7.16146
     2012.08488        -5.95995         7.14090
     2012.08762         0.14361         7.17945
     2012.09035        -1.42383         7.18331
     2012.09309        -0.00126         7.26941
     2012.09583        -1.03670         7.15504
     2012.09857        -1.57414         7.22828
     2012.10131         0.57142         7.32338
     2012.10404        -4.53802         7.17046
     2012.10678        -3.81746         7.33366
     2012.10952        -0.25190         7.27712
     2012.11226       -15.16034         7.20644
     2012.11499        -1.89878         7.17431
     2012.11773        -9.03622         7.20130
     2012.12321       -20.46909         7.44674
     2012.12595       -18.83953         7.17046
     2012.12868       -13.98897         7.26941
     2012.13142        -5.46041         7.27712
     2012.13416         1.02915         7.27069
     2012.13690         0.21771         7.31181
     2012.13964        -1.20673         7.34651
     2012.14237        -2.59417         7.41204
     2012.14511         0.00039         7.26555
     2012.14785        -7.24304         7.15761
     2012.15059         3.59652         7.18845
     2012.15332        -4.82192         7.13962
     2014.04792         1.34628         7.06637
     2014.05065         1.53684         7.09978
     2014.05339        -2.40560         7.10749
     2014.05613        -2.97604         7.14476
     2014.05887        -4.71548         7.14219
     2014.06161         0.35808         7.11263
     2014.06434         2.57265         7.36835
     2014.06708         3.11921         7.37735
     2014.06982         1.43977         7.21672
     2014.07256         3.01533         7.15375
     2014.07530        -0.57011         7.11263
     2014.07803         3.09245         7.10878
     2014.08077         2.18201         7.14990
     2014.08351         3.47857         7.12163
     2014.08625         3.59813         7.25913
     2014.08898         0.54769         7.35679
     2014.09172        -0.30074         7.33366
     2014.09446         1.64782         7.15761
     2014.09720        -0.73662         7.23342
     2014.09994         6.27294         7.12034
     2014.10267        14.52750         7.22828
     2014.10541         8.56806         7.16146
     2014.10815       -22.58638         7.35422
     2014.11089       -13.17782         7.57653
     2014.12458         9.31999         7.22700
     2014.12731         8.30155         7.11135
     2014.13005         4.06611         7.11520
     2014.13279        -0.78033         7.40048
     2014.13553         7.34123         7.35807
     2014.13827        -1.55021         7.13833
     2014.14100         4.31035         7.12934
     2014.14374         3.53091         7.20515
     2014.14648         4.30547         7.31181
     2014.14922         0.04304         7.24756
     2014.15196        -0.73740         7.22443
     2015.72622         6.08816         7.23085
     2015.72896         6.02972         7.23728
     2015.73170         7.01229         7.20772
     2015.73443         9.27585         7.21543
     2015.73717         7.88741         7.15247
     2015.73991        15.20197         7.47115
     2015.74265        17.24753         7.49557
     2015.74538        14.27409         7.60994
     2015.74812         5.68165         7.59709
     2015.75086        -4.45479         7.20387
     2015.75360         6.99577         7.23085
     2015.75634        12.08333         7.27455
     2015.75907        10.31190         7.27455
     2015.76181        10.96446         7.21286
     2015.76455         6.48002         7.17817
     2015.76729         6.35258         7.23856
     2015.77003         5.84114         7.23728
     2015.77276        12.87270         7.27198
     2015.77550        11.50426         7.23085
     2015.77824        10.33982         7.18074
     2015.78098        11.66738         7.19616
     2015.78371        10.11694         7.21672
     2015.78645        11.83351         7.23985
     2015.78919        12.01507         7.25399
     2015.79193        14.30963         7.23471
     2015.79467         5.49819         7.25141
     2015.79740        13.55675         7.19230
     2015.80014        12.11931         7.46987
     2015.80288         6.99787         7.19744
     2015.80562        10.85643         7.24627
     2015.81109         9.83955         8.19463
     2015.81931        12.14224         7.72945
     2015.85216        16.33697         8.33084
     2018.48324        -5.64392         7.14604
     2018.48597       -11.19636         7.11777
     2018.48871        -4.51980         7.12420
     2018.49145        -1.25024         7.08179
     2018.49419        -4.04268         7.25784
     2018.49692        -6.23912         7.20772
     2018.49966        -5.18356         7.23085
     2018.50240        -3.74400         7.18973
     2018.50514        -5.22744         7.17688
     2018.50788        -0.19588         7.25013
     2018.51061        -6.02631         7.08565
     2018.51335        -9.51475         7.25784
     2018.51609       -10.01719         7.12934
     2018.51883        -7.49663         7.14990
     2018.52157        -6.56307         7.20130
     2018.52430        -3.12951         7.17046
     2018.52704        -5.21395         7.06252
     2018.52978        -6.44939         7.24113
     2018.53252        -7.91083         7.15504
     2018.53525        -0.55527         7.34908
     2018.53799        -7.86570         7.25784
     2018.54073         1.94886         7.09850
     2018.54347        -9.66858         7.16403
     2018.54621        -6.66602         7.20387
     2018.54894        -6.00746         7.14990
     2018.55168        -1.49290         7.22828
     2018.55442       -10.24834         7.16660
     2018.55716        -7.23578         7.12034
     2018.55990        -4.54922         7.42875
     2018.56263        -4.63666         7.34908
     2018.56537        -2.08709         7.26427
     2018.56811        -5.43653         7.13705
     2018.57085        -7.72797         7.15375
     2018.57358        -9.98241         7.35036
     2018.57632        -8.27585         7.55725
     2018.57906        -2.96229         7.56882
     2018.58180        -3.17273         7.34908
     2018.58454        -2.63417         7.35679
     2018.58727        -7.04061         7.13448
     2018.59001        -1.11305         7.17431
     2018.59275        -0.72548         7.07023
     2018.59549        -3.33692         7.09850
     2018.59823        -3.90636         7.05609
     2018.60096        -1.18180         7.06509
     2018.60370        -0.18324         7.14476
     2018.60644        -3.19168         7.10878
     2018.60918        -3.59412         7.10878
     2018.61191        -1.61156         7.08308
     2018.61465        -3.19600         7.08565
     2018.61739         1.42356         7.16018
     2018.61979        -3.60695         8.06484
