# ================= DQRFIT RESULTS ================
# INPUT FILE: series/MASC.rad
# OUTPUT: LDETRENDED
# FILTER FUNCTION: f(t)
# f(t)=+line(t)+annual(t)
# line(t)=+P 1+P 2*t
# annual(t)=+P 3*sin(2*pi*t+P 4)
# heav(t)=(t<0?0:1)
# TOTAL OBSERVATIONS MTOT=  433
# INITIAL TIME INTERVAL= 2019.6493 - 2011.6496 =  7.9998
# TOTAL OBSERVATIONS AFTER PREFILTER M=  433
# TIME-SPAN= 2019.6493 - 2011.6496 =  7.9998
# OBSERVATIONS: USED M=   433 REJECTED MTOT-M=     0 %USED=  100.0000
# N=  4 PARAMETERS
# MAXSIG= 175.00000
# MAXRES=  12.39815
# SCALE FACTOR FOR LENGTHS: SCL=  10.00000
# SCALE FACTOR FOR SIGMAS: SCLSIG=   1.00000
# CHI^2=    240.364 DOF=   429 CHI^2/DOF=   0.56029
# RMS=      4.286 SDEV=      4.291 MEAN=   -0.01334
#  P #       PARAMETER +-    SIGMA %error PARAMETER NAME
# P 1 =      1784.25877 +-  251.527  14.10 YZERO                              
# P 2 =        -0.88477 +-    0.125  14.11 SLOPE                              
# P 3 =         2.84529 +-    0.308  10.81 ANNUAL AMPLITUDE                   
# P 4 =        -2.60247 +-    0.126   4.82 ANNUAL PHASE                       
#       T            LDETRENDED       SIG_OBS
     2011.64956         8.44627         4.34594
     2011.65230         3.12370         4.39983
     2011.65504         5.66212         4.40282
     2011.65777         3.70654         4.25611
     2011.66051        11.16096         4.33546
     2011.66599         1.25381         4.30701
     2011.66872         9.20723         4.33171
     2011.67146         8.47465         4.18351
     2011.67420         6.35707         4.16704
     2011.67694         9.38950         4.17976
     2011.70158         3.53330         4.26435
     2011.70432        11.14072         4.25012
     2011.70705         7.65014         4.36689
     2011.70979        10.25357         4.28081
     2011.71253         4.47099         4.24863
     2011.71527         0.17641         4.30102
     2011.71801         9.09083         4.32498
     2014.57906         0.70720         4.27632
     2014.58180         4.98562         4.32123
     2014.58454         3.01205         4.31001
     2014.58727        -1.70953         4.50387
     2014.59001        -0.67411         4.40657
     2014.59275        -0.52069         4.34369
     2014.59549        -1.78026         4.36914
     2014.59823        -2.71784         4.41330
     2014.60096        -1.67042         4.40208
     2014.60370         1.37200         4.39609
     2014.60644        -3.49757         4.45372
     2014.60918        -4.12615         4.46420
     2014.61191         3.70427         4.64684
     2014.61465         3.46369         4.40282
     2014.61739         3.79112         4.51585
     2014.62013        -3.88846         4.46720
     2014.62287         2.09096         4.31375
     2014.62560         2.15538         4.33022
     2014.62834         4.32681         4.35642
     2014.63108         5.34923         4.39309
     2014.63382         1.37265         4.50612
     2014.63656         4.28507         4.40282
     2014.63929         1.59949         4.37213
     2014.64203        -2.21608         4.32647
     2014.64477         1.42034         4.33845
     2014.64751         2.24576         4.37064
     2014.65024         1.33618         4.34444
     2014.65298         5.37961         4.29803
     2014.65572         7.98203         4.34594
     2014.65846         5.81145         4.32872
     2014.66120         3.43387         4.33845
     2014.66393         6.31130         4.32722
     2014.66667         9.31572         4.30701
     2014.66941         6.05414         4.31375
     2014.67215         5.71656         4.34070
     2014.67488         1.00699         4.30626
     2014.67762        -0.40459         4.33770
     2014.68036         1.90483         4.38112
     2014.68310         1.61525         4.35118
     2014.68584         6.09567         4.41255
     2014.68857        -1.01090         4.28456
     2014.69131        -0.50448         4.31300
     2014.69405         0.50594         4.31225
     2014.69679        -2.41664         4.31599
     2014.69953         5.56179         4.33770
     2014.70226         8.89921         4.31749
     2014.70500         0.40363         4.32049
     2014.70774         5.37305         4.35118
     2014.71048         5.97848         4.34369
     2014.71321         3.18290         4.37588
     2014.71595         5.62832         4.33246
     2014.71869         1.29574         4.23366
     2014.72143         2.10717         4.29129
     2014.72417         5.05759         4.26959
     2014.72690         4.86301         4.29578
     2014.72964         6.80643         4.34294
     2014.73238         6.66885         4.35267
     2014.73512         0.80528         4.28980
     2014.73786         1.39870         4.28830
     2014.74059        -5.80488         4.26210
     2014.74333         5.56254         4.29055
     2014.74607         2.49097         4.32722
     2014.74881         0.33539         4.26210
     2014.75154         0.41981         4.35492
     2014.75428        -0.56977         4.22991
     2014.75702        -4.03134         4.24713
     2014.75976        -3.42692         4.24938
     2014.76250        -1.26750         4.23366
     2014.76523        -1.39608         4.23815
     2014.76797         2.01535         4.26435
     2014.77071        -4.84923         4.26510
     2014.77345        -2.86881         4.24264
     2014.77619         3.25561         4.31076
     2014.77892         6.37904         4.26060
     2014.78166        -2.94754         4.27557
     2014.78440         2.10588         4.26959
     2014.78714         0.12630         4.31899
     2014.78987         1.20872         4.25911
     2014.79261         0.96015         4.28905
     2014.79535        -2.78843         4.28306
     2014.79809         2.39799         4.37213
     2014.80083         5.44441         4.28980
     2014.80356        -3.02116         4.28680
     2014.80630        -0.13574         4.30327
     2014.80904        -5.28532         4.22393
     2014.81178         2.95810         4.26734
     2014.81452        -0.60147         4.33321
     2014.81725         5.96195         4.22842
     2014.81999         4.46637         4.25611
     2014.82273         4.46779         4.34668
     2014.82547         5.33722         4.28755
     2014.82820         3.69264         4.26884
     2014.83094        -6.15594         4.39160
     2014.83368       -13.57952         4.39758
     2014.83642        -4.36610         4.34070
     2014.83916         0.18433         4.25237
     2014.84189        -4.34825         4.31749
     2014.84463        -8.02083         4.86092
     2014.84737         1.83059         4.35192
     2014.85011         4.54802         4.28605
     2014.85285        -1.71556         4.26584
     2014.85558        -0.22914         4.32273
     2014.85832         6.26428         4.53531
     2014.86106         0.88471         4.30327
     2014.86380         1.69113         4.28531
     2014.86653        -5.57745         4.33171
     2014.86927        -5.07903         4.36016
     2014.87201         6.32440         4.33471
     2014.87475        -3.11018         4.38112
     2014.87749        -3.02376         4.36989
     2014.88022         1.90466         4.30252
     2014.88296         1.97208         4.35941
     2014.88570        -5.80049         4.52932
     2014.88844         0.21293         4.56525
     2014.89118       -14.56065         4.70972
     2014.89391         0.09077         4.47992
     2014.89665         6.00620         4.43426
     2014.89939        -4.49238         4.51885
     2014.90213        -8.46196         4.47169
     2014.90486        -9.69254         4.36016
     2014.90760         1.30489         5.03533
     2014.91034         3.77231         4.37737
     2014.92677        -9.28316         4.28531
     2014.93224        -3.94231         5.01362
     2014.97875        -5.41317         4.33695
     2014.99248        -1.34002         4.99640
     2015.00616        -9.90691         4.62514
     2015.00890        -3.47949         4.30102
     2015.01164         1.70294         4.90059
     2015.01438        -8.27064         4.73367
     2015.01712        -5.29022         4.26135
     2015.01985         1.07320         4.28830
     2015.02259         0.66263         4.38411
     2015.02533         0.27505         4.28156
     2015.02807        -1.08553         4.28605
     2015.03081        -0.04611         4.28081
     2015.03354        -6.52269         4.27333
     2015.03628         0.37074         4.28381
     2015.03902         2.05716         4.28531
     2015.04997        -3.35315         4.26435
     2015.05271        -1.00673         4.23515
     2015.05545        -4.25831         4.21270
     2015.05818         2.97712         4.25986
     2015.06092         1.02854         4.25986
     2015.06366         3.60396         4.32198
     2015.06640         1.11838         4.22991
     2015.06914        -0.88219         4.23141
     2015.07187        -5.63177         4.23366
     2015.07461        -2.66635         4.25012
     2015.07735        -8.27893         4.24339
     2015.08009        -7.49150         4.23665
     2015.08282        -0.72308         4.25087
     2015.08556        -2.70066         4.25312
     2015.08830       -10.94724         4.27707
     2015.09104        -6.74082         4.26360
     2015.09378        -1.54639         4.24938
     2015.09651        -0.27297         4.32872
     2015.09925         7.26245         4.36839
     2015.10199        -7.33113         4.30851
     2015.10473         1.36230         4.28605
     2015.10747        -3.99328         4.27782
     2015.11020        -8.80186         4.30926
     2015.11294        -4.33444         4.30477
     2015.11568        -6.92001         4.27483
     2015.11842        -7.21859         4.27033
     2015.12115        -1.00017         4.25312
     2015.12389        -5.34875         4.25312
     2015.12663        -2.88032         4.26135
     2015.12937        -6.19790         4.25836
     2015.13211        -2.38348         4.27557
     2015.13484        -6.28206         4.33246
     2015.13758        -4.41164         4.28081
     2015.14032        -1.61721         4.26584
     2015.14306         0.65121         4.28081
     2015.14580        -2.06137         4.28007
     2015.14853        -2.75695         4.27258
     2015.15127        -3.26852         4.26360
     2015.15401        -0.59710         4.24414
     2015.15675         6.14832         4.30926
     2015.15948         5.47774         4.26659
     2015.16222         0.55617         4.25536
     2015.16496        -0.44741         4.28231
     2015.16770         1.83601         4.26734
     2015.17044        -1.27057         4.24788
     2015.17317        -0.39914         4.43576
     2015.17591        -2.74072         4.39534
     2015.17865         0.36270         4.30851
     2015.18139         2.66712         4.25387
     2015.18413         2.95854         4.33022
     2015.18686         3.93797         4.29728
     2015.18960        -2.11061         4.28081
     2015.19234        -3.97819         4.45971
     2015.19508        -5.06277         4.28007
     2015.19781         0.75566         4.31974
     2015.20055         0.66908         4.34294
     2015.20329        -0.13550         4.34818
     2015.20603        -9.65808         4.34369
     2015.20877        -3.34365         4.28156
     2015.21150        -7.36323         4.21869
     2015.21424        -7.00581         4.24414
     2015.21698        -7.54039         4.30402
     2015.21972        -0.41096         4.30701
     2015.22246        -2.47054         4.28381
     2015.22519         5.41588         4.24563
     2015.22793        -1.93370         4.23366
     2015.23067        -0.89627         4.24638
     2015.23341        -0.42685         4.36091
     2015.23614         0.74957         4.41106
     2015.23888        -1.59801         4.34070
     2015.24162         3.41441         4.34668
     2015.24436         4.08284         4.38486
     2015.24710         0.66626         4.24039
     2015.24983        -3.03632         4.26360
     2015.25257         0.44110         4.26659
     2015.25531        -2.14247         4.24414
     2015.25805        -1.12305         4.27108
     2015.26079         7.39037         4.24339
     2015.26352         3.32379         4.23515
     2015.26626         1.15422         4.23291
     2015.26900        -1.83936         4.25012
     2015.27174         5.58906         4.28605
     2015.27447         6.49448         4.35791
     2015.27721         3.49591         4.27932
     2015.27995         3.93033         4.26135
     2015.28269        -2.85225         4.27632
     2015.28543        -0.57383         4.32722
     2015.28816        -1.49541         4.36091
     2015.29090        -1.10598         4.26884
     2015.29364         2.46444         4.25237
     2015.29638        -2.10614         4.24489
     2015.29911         0.77728         4.23815
     2015.30185         4.70971         4.24788
     2015.30459        -0.15687         4.25986
     2015.30733        -0.57445         4.17378
     2015.31007        -1.43403         4.18126
     2015.31280        -4.17160         4.11913
     2015.31554         1.11382         4.13111
     2015.31828        -7.70876         4.16105
     2015.32102        -2.43834         4.16180
     2015.32376         2.79109         4.19399
     2015.32649        -7.43849         4.27782
     2015.32923        -2.50907         4.23441
     2015.33197         5.16835         4.15880
     2015.33471        -0.86022         4.18650
     2015.33744        -3.25180         4.17901
     2015.34018        -0.88738         4.17003
     2015.34292        -4.16596         4.18425
     2015.34566         1.72646         4.16180
     2015.34840         6.25489         4.17153
     2015.35113        -4.67369         4.17153
     2015.35387        -0.72927         4.13036
     2015.35661        -0.46285         4.18949
     2015.35935         1.41958         4.32797
     2015.36209        -1.46800         4.25312
     2015.36482       -10.41058         4.20072
     2015.36756        -3.83716         4.15656
     2015.37030        -4.07773         4.14009
     2015.37304        -1.13531         4.23216
     2015.37577        -7.21789         4.17378
     2015.37851        -9.43847         4.29578
     2015.38125        -9.92604         4.15506
     2015.38399        -4.30062         4.15955
     2015.38673        -2.67420         4.21569
     2015.38946        -8.30678         4.18800
     2015.39220        -7.21236         4.17976
     2015.39494        -3.30393         4.25911
     2015.39768       -11.28751         4.17901
     2015.40042       -11.13209         4.20746
     2015.40315        -4.77867         4.34219
     2015.40589        -6.62824         4.19174
     2015.40863        -2.75582         4.19848
     2015.41137         1.66160         4.20072
     2015.41410         1.67802         4.28081
     2015.41684        -4.38955         4.27033
     2015.41958        -7.00613         4.19249
     2015.42232        -3.89571         4.17752
     2015.42506        -2.36229         4.29803
     2015.42779        -2.10086         4.25312
     2015.43053        -0.46744         4.14982
     2015.43327        -5.54602         4.18725
     2015.43601         0.67540         4.22842
     2015.43875        -2.97918         4.21195
     2015.44148        -3.52475         4.36689
     2015.44422        -1.21333         4.17153
     2015.44696        -0.21191         4.18800
     2015.44970        -2.92249         4.19548
     2015.45243        -1.64006         4.32947
     2015.45517         1.20536         4.23665
     2015.45791        -6.05222         4.32049
     2015.46065         4.13020         4.38187
     2015.46339        -1.40237         4.35267
     2015.46612        -1.82395         4.21420
     2015.46886         1.37047         4.17602
     2015.47160         1.15189         4.20297
     2015.47434        -2.38168         4.31150
     2015.47708        -5.51226         4.28456
     2015.47981         1.09316         4.23366
     2015.48255        -3.92842         4.22692
     2015.48529        -3.84099         4.16554
     2015.48803         0.47043         4.23066
     2015.49076        -4.92715         4.18650
     2015.49350         3.78127         4.33621
     2015.49624         5.27469         4.32198
     2015.49898         6.24712         4.30701
     2015.50172         4.90754         4.21270
     2015.50445        -6.99504         4.35417
     2015.50719        -5.99862         4.21045
     2015.50993         2.07381         4.24489
     2015.51267         3.58123         4.26285
     2015.51541        -4.31935         4.27782
     2015.51814         3.16507         4.23740
     2015.52088         2.88850         4.21494
     2015.52362         1.85692         4.26734
     2015.52636         8.30734         4.21345
     2015.52909        -0.38824         4.21195
     2015.53183         5.33719         4.19623
     2015.53457         1.48061         4.16779
     2015.53731         7.39403         4.21270
     2015.54005         1.60845         4.26285
     2015.54278         2.42587         4.30028
     2015.54552         1.54330         4.29653
     2015.54826         5.35672         4.25686
     2015.55100         7.99114         4.28306
     2015.55374         8.30856         4.38037
     2015.55647        12.94599         4.37288
     2015.55921         2.49341         4.29279
     2015.56195         6.89283         4.25312
     2015.56469         3.30225         4.33845
     2015.56742         2.69768         4.30402
     2015.57016         6.47610         4.42528
     2015.57290         5.53752         4.43276
     2015.57564         1.47394         4.28231
     2015.57838         0.51637         4.27258
     2015.58111         1.21179         4.31450
     2015.58385         1.79721         4.28007
     2015.58659        -2.09637         4.42678
     2015.58933         8.77905         4.35267
     2015.59206        -0.99552         4.37737
     2015.59480         0.80590         4.28905
     2015.59754         6.87932         4.31300
     2015.60028        11.88174         4.43501
     2015.60302        15.03617         4.40657
     2015.60575         4.23059         4.29953
     2015.60849         4.83601         4.29803
     2015.76729         1.62851         4.20970
     2015.77003         4.25193         4.23740
     2015.77276         5.38535         4.26659
     2015.77550         5.51578         4.25387
     2015.77824        10.32720         4.19623
     2015.78098         5.03862         4.21195
     2015.78371         9.16304         4.21120
     2015.78645         8.08947         4.24414
     2015.78919         5.81089         4.20596
     2015.79193         3.76631         4.19249
     2019.48255         0.78166         4.21345
     2019.48529         4.12108         4.25012
     2019.48803         3.44250         4.22617
     2019.49076        -0.63808         4.13410
     2019.49350         6.09635         4.14383
     2019.49624         3.87377         4.10865
     2019.49898        -0.64381         4.13111
     2019.50172         4.49761         4.10791
     2019.50445        -1.45396         4.11764
     2019.50719        -4.88054         4.15132
     2019.50993         1.74488         4.12362
     2019.51267         1.32330         4.10566
     2019.51541        10.15272         4.11764
     2019.51814         6.11415         4.13785
     2019.52088        -0.60443         4.14608
     2019.52362        -3.37101         4.15656
     2019.52636         0.36141         4.13635
     2019.52909        -2.23316         4.31749
     2019.53183         1.61226         4.30701
     2019.53457         0.51468         4.24713
     2019.53731         1.16710         4.27408
     2019.54005         4.02053         4.24638
     2019.54278         7.21995         4.20297
     2019.54552         4.95437         4.38037
     2019.54826         1.66679         4.12587
     2019.55100        -0.04578         4.16030
     2019.55374         0.69364         4.35342
     2019.55647         5.90106         4.28680
     2019.55921         1.50148         4.24863
     2019.56195         0.83990         4.10940
     2019.56469        -2.20567         4.23665
     2019.56742        -5.98325         4.17976
     2019.57016         1.23017         4.15955
     2019.57290        -2.37741         4.16105
     2019.57564         5.59502         4.09967
     2019.57838         5.04944         4.20446
     2019.58111         6.02286         4.15581
     2019.58385        -2.03772         4.29653
     2019.58659         5.78071         4.12812
     2019.58933         4.97413         4.11539
     2019.59206         4.59155         4.20746
     2019.59480         1.32897         4.17228
     2019.59754        -0.06960         4.39758
     2019.60028        11.60482         4.43052
     2019.60302         0.42024         4.15132
     2019.60575         1.07266         4.31974
     2019.60849         0.75709         4.28905
     2019.61123        -1.57949         4.12063
     2019.61397         7.62693         4.21944
     2019.61671         4.30735         4.12213
     2019.61944         4.12777         4.11838
     2019.62218         3.75020         4.21420
     2019.62492         8.03862         4.11988
     2019.62766         7.04804         4.12063
     2019.63039         8.86346         4.13635
     2019.63313         4.30389         4.17228
     2019.63587         5.77231         4.17153
     2019.63861         9.94973         4.25312
     2019.64135         4.32415         4.21420
     2019.64408         5.39658         4.21644
     2019.64682         2.31800         4.24114
     2019.64931         1.25120         4.49564
