# ================= DQRFIT RESULTS ================
# INPUT FILE: series/MCKI.rad
# OUTPUT: LDETRENDED
# FILTER FUNCTION: f(t)
# f(t)=+line(t)+annual(t)
# line(t)=+P 1+P 2*t
# annual(t)=+P 3*sin(2*pi*t+P 4)
# heav(t)=(t<0?0:1)
# TOTAL OBSERVATIONS MTOT=  775
# INITIAL TIME INTERVAL= 2018.5457 - 2004.1369 = 14.4089
# TOTAL OBSERVATIONS AFTER PREFILTER M=  774
# TIME-SPAN= 2018.5457 - 2004.1369 = 14.4089
# OBSERVATIONS: USED M=   774 REJECTED MTOT-M=     1 %USED=   99.8710
# N=  4 PARAMETERS
# MAXSIG= 175.00000
# MAXRES=  15.46221
# SCALE FACTOR FOR LENGTHS: SCL=  10.00000
# SCALE FACTOR FOR SIGMAS: SCLSIG=   1.00000
# CHI^2=    858.261 DOF=   770 CHI^2/DOF=   1.11462
# RMS=      6.135 SDEV=      6.139 MEAN=    0.02918
#  P #       PARAMETER +-    SIGMA %error PARAMETER NAME
# P 1 =     -1295.83861 +-   95.881   7.40 YZERO                              
# P 2 =         0.64365 +-    0.048   7.41 SLOPE                              
# P 3 =         3.90440 +-    0.317   8.11 ANNUAL AMPLITUDE                   
# P 4 =         2.47866 +-    0.092   3.71 ANNUAL PHASE                       
#       T            LDETRENDED       SIG_OBS
     2004.13690         4.40704         6.35672
     2004.13964         4.73728         6.04105
     2004.14237         6.04052         6.18674
     2004.14511        -8.96625         6.16985
     2004.14785        -3.60901         6.14451
     2004.15059         2.78323         6.22897
     2004.15332         3.48447         6.20047
     2004.15606         5.56871         6.21313
     2004.15880        -0.64306         6.14979
     2004.16154         1.71118         6.20152
     2004.16428         0.68742         6.24481
     2004.16701       -10.10734         6.29443
     2004.16975        -4.10811         6.44223
     2004.17249        -1.27187         6.41795
     2004.17523         5.74837         6.40951
     2004.17797        -5.10739         6.29865
     2004.18070        -1.38215         6.21736
     2004.18344        -8.73492         6.18885
     2004.18618        -4.07468         6.32716
     2004.18892         3.97256         6.25431
     2004.19165        -0.47320         6.15507
     2004.19439         3.84703         6.22158
     2004.19713        -6.11073         6.27754
     2004.19987        -4.92449         6.23003
     2004.20261         4.87775         6.27120
     2004.20534        -3.14601         6.22475
     2004.20808        -3.45778         6.57420
     2004.21082         2.12946         6.52669
     2004.21356        -2.78630         6.47180
     2004.21629        -4.74906         6.45385
     2004.21903        -3.70183         6.50030
     2004.22177        -4.33659         6.53831
     2004.22451        -2.10235         6.55203
     2004.22725         7.06389         6.48869
     2004.22998         3.17813         6.52142
     2004.23272         4.82236         6.59215
     2004.23546        -3.48640         6.53936
     2004.23820        -2.16616         6.48235
     2004.24094        -2.70592         6.73785
     2004.24367         2.39731         6.43379
     2004.24641         5.24755         6.17935
     2004.24915         2.00779         6.37150
     2004.25189         2.82603         6.33244
     2004.25462        -2.25273         6.22792
     2004.25736         6.69850         6.23003
     2004.42163        -0.14623         6.07589
     2004.42437        -1.46999         6.06427
     2004.42711        -4.76075         6.09700
     2004.42985        -7.02652         6.08961
     2004.43259         8.27972         6.14451
     2004.43532        11.37396         6.12234
     2004.43806         1.32920         6.01254
     2004.44080        -0.13857         6.15929
     2004.44354         0.99767         6.18780
     2004.44627        -1.47009         6.21736
     2004.44901         0.72715         6.24058
     2004.45175        -1.95761         6.38522
     2004.45449         2.26162         6.28809
     2004.45723        -2.62214         6.38628
     2004.45996        -7.07190         6.45701
     2004.46270        -8.92666         6.40528
     2004.46544        -5.75043         6.18568
     2004.46818         0.26981         6.09489
     2004.47092        -0.11695         6.26276
     2004.47365         0.40929         6.17935
     2004.47639        -6.84047         6.26276
     2004.47913        -3.57724         6.25325
     2004.48187        -3.00100         6.45913
     2004.48460        -1.48876         6.19413
     2004.48734         4.53648         6.26381
     2004.49008         6.78971         6.22264
     2004.49282        -3.31505         6.48974
     2004.49556       -11.73881         6.33560
     2004.49829         3.50643         6.23319
     2004.50103         1.53567         6.19835
     2004.50377         2.94590         6.15929
     2004.50651        -2.99486         6.27331
     2004.50924        -8.05562         6.23319
     2004.68994         4.07707         6.11812
     2004.69268        -2.93469         6.07589
     2004.69542         1.20155         6.08856
     2004.69816         8.47779         6.21419
     2004.70089        -3.89398         6.36939
     2004.70363        12.43226         6.20047
     2004.70637         6.40850         6.15507
     2004.70911         8.21674         6.02732
     2004.71185         7.36598         6.10439
     2004.71458        -2.00779         6.16351
     2004.71732         3.94345         6.10650
     2004.72006        -1.20531         6.03154
     2004.72280         6.13893         6.03788
     2004.72554         0.32816         6.03154
     2004.72827         4.06940         6.06955
     2004.73101         6.50664         6.05160
     2004.73375         2.45588         6.02310
     2004.73649         3.82112         6.07272
     2004.73922         4.11135         6.15929
     2004.74196         4.90659         6.05583
     2004.74470         3.08083         6.00515
     2004.74744         2.10607         6.06216
     2004.75018         1.04030         6.02415
     2004.75291         3.08254         6.02943
     2004.75565         0.93478         6.08856
     2004.75839         6.03402         6.10861
     2004.76113         3.80726         6.06850
     2004.76387         6.97249         6.05794
     2004.76660         3.43873         6.03049
     2004.76934         1.04297         6.22897
     2004.77208         4.55321         6.31554
     2004.77482        10.33444         6.21947
     2004.77755        10.55768         6.18463
     2004.78029         2.73092         6.20258
     2004.78303         3.59816         6.21841
     2004.78577        -0.66960         6.10228
     2004.78851         8.12163         6.11917
     2004.79124         8.78287         6.03366
     2004.79398        10.51911         6.05266
     2004.79672         8.60735         6.07589
     2004.79946         6.76358         6.04421
     2004.80220        11.16582         6.03999
     2004.80493         6.10906         6.03893
     2004.80767         8.03430         6.05794
     2004.81041         7.19954         5.96186
     2004.81315         7.21177         5.92914
     2004.81588         5.78501         5.95553
     2004.81862         5.33925         6.25853
     2004.82410         8.14072         5.91119
     2004.82684         2.93596         5.97876
     2004.82957         4.63420         6.16035
     2004.83231         8.16344         6.07166
     2004.83505        -2.26932         6.23003
     2004.83779         3.42691         6.00621
     2004.84052         4.84715         6.10756
     2004.84326        11.16839         6.03893
     2004.84600         3.38363         6.01888
     2004.84874         1.86886         6.03788
     2004.85148        -1.30690         6.12551
     2004.85421         1.99534         6.42006
     2004.85695         1.71758         6.09595
     2004.85969        -8.74118         6.03049
     2004.86243        -2.92395         6.07589
     2004.86517        -0.43771         5.97876
     2004.86790        -9.58347         5.94075
     2004.87064       -11.19323         5.94075
     2004.87338         0.21000         5.97031
     2005.22656        -0.60932         6.10650
     2005.22930         1.28592         6.13712
     2005.23204        -4.61785         6.11495
     2005.23478         0.82339         6.15612
     2005.23751        11.51863         6.15401
     2005.24025         8.46787         6.31238
     2005.24299         0.05811         6.15507
     2005.24573         1.05434         6.30182
     2005.24846        -1.07742         6.10545
     2005.25120         1.99882         6.12551
     2005.25394        10.34506         6.40739
     2005.25668         8.39129         6.55731
     2005.25942         4.39853         6.19519
     2005.26215        -1.78223         6.30182
     2005.26489         7.28301         6.35144
     2005.26763         5.62525         6.29126
     2005.27037        11.04648         6.29337
     2005.27311         4.27672         6.24375
     2005.27584         2.74896         6.24270
     2005.27858         3.07920         6.25431
     2005.28132         4.60843         6.31132
     2005.28406        -2.37633         6.30710
     2005.28679         0.13091         6.33771
     2005.28953         2.92215         6.08856
     2005.29227         0.20339         6.13184
     2005.29501         3.76962         6.12867
     2005.29775         7.67886         6.12234
     2005.30048         4.22810         6.07166
     2005.30322        -1.15266         6.06850
     2005.30596         1.58557         6.02943
     2005.30870         7.54781         6.06216
     2005.31144         5.76705         6.16774
     2005.31417         3.50929         6.18463
     2005.31691        -2.66447         6.14768
     2005.31965        -2.01824         6.07483
     2005.32239         1.28300         6.27331
     2005.32512        -0.85576         6.17513
     2005.32786        -0.93052         6.16246
     2005.33060         3.93371         6.09911
     2005.33334         5.67295         6.17090
     2005.33608         6.09719         6.18041
     2005.33881         6.34043         6.14557
     2005.34155         2.44767         6.14768
     2005.34429         0.57390         6.05899
     2005.34703        -7.86686         6.06638
     2005.34977         0.71838         6.05688
     2005.35250        -5.18838         6.17724
     2005.35524         6.78485         6.33032
     2005.35798        -0.94391         6.26698
     2005.36072        -9.10167         6.32082
     2005.36345        -8.40243         6.30287
     2005.36619        -0.06519         6.33138
     2005.36893         7.34004         6.33455
     2005.37167        -0.56772         6.48552
     2005.37441         9.04852         6.32188
     2005.37714         4.84076         6.31132
     2005.37988        -0.38001         6.35777
     2005.38262        -7.55677         6.27859
     2005.38536        -0.99553         6.37361
     2005.38810        -4.72529         6.26064
     2005.39083        -8.21505         6.28493
     2005.39357        -0.94082         6.20891
     2005.39631        -4.32758         6.23742
     2005.39905        -4.86034         6.20786
     2005.40178         1.05490         6.29443
     2005.40452        -1.04287         6.38417
     2005.40726        -2.42463         6.25009
     2005.41000        -0.44339         6.29337
     2005.41274         1.80685         6.22686
     2005.41547        -5.99191         6.19624
     2005.41821        -4.68468         6.06322
     2005.42095        -0.18344         6.17407
     2005.42369         3.41980         6.13184
     2005.42643        -1.46796         6.13606
     2005.42916        -3.50973         6.06005
     2005.43190         1.38851         6.11706
     2005.43464         2.38075         6.12973
     2005.43738         0.24399         6.23742
     2005.44011        -2.60177         6.27120
     2005.44285        -1.01454         6.32399
     2005.44559        -1.64430         6.29232
     2005.44833        -3.92106         6.28598
     2005.66736        -3.08304         6.15190
     2005.67009         2.77420         6.19835
     2005.67283         0.66944         6.14662
     2005.67557         5.20768         6.18252
     2005.67831        -6.29909         6.10967
     2005.68105        -5.18785         6.17618
     2005.68378        -5.16661         6.23003
     2005.68652         1.96163         6.30815
     2005.68926        -0.64514         6.18146
     2005.69200        -5.84290         6.23636
     2005.69473         8.02234         6.17407
     2005.69747        -0.68542         6.19624
     2005.69987         8.75504         7.41881
     2005.95757        -1.21183         6.11073
     2005.96031         0.84440         6.03049
     2005.96304        -1.21336         5.96398
     2005.96578        -9.00912         6.52036
     2005.96852         1.75012         6.58476
     2005.97126        -0.48564         6.12973
     2005.97400        -7.21041         6.19941
     2006.59001         7.98110         6.44857
     2006.59275        -8.88567         6.46968
     2006.59549         0.09257         6.33877
     2006.59823         1.92481         6.35249
     2006.60096        -2.78695         6.16985
     2006.60370         1.64528         6.15296
     2006.60644         2.79652         6.24270
     2006.60918        -0.52524         6.21419
     2006.61191        -3.60300         6.17513
     2006.61465         2.61924         6.17513
     2006.61739         7.01047         6.10650
     2006.62013         7.22271         6.25853
     2006.62287        -4.60205         6.21419
     2006.62560         0.66419         6.13395
     2006.62834        -0.74258         6.29443
     2006.63108         0.77966         6.08750
     2006.63382         6.31890         6.09067
     2006.63656        -0.03186         6.30182
     2006.63929         0.19338         6.16246
     2006.64203         3.82761         6.17302
     2006.64477         7.08585         6.19308
     2006.64751         7.52809         6.33244
     2006.65024         3.56033         6.52881
     2006.65298         0.66456         6.53092
     2006.65572        -1.23620         6.51086
     2006.65846        -3.12696         6.52669
     2006.66120         1.49028         6.49502
     2006.66393         2.02552         6.52775
     2006.66667        -4.41925         6.50664
     2006.66941        -1.61501         6.57315
     2006.67215        -0.23877         6.47180
     2006.67488         3.14247         6.60377
     2006.67762        -5.77430         6.75052
     2006.68036        -9.26906         6.61538
     2006.68310         5.25718         6.80858
     2006.68584        -0.48158         6.75263
     2006.68857         3.66666         6.35355
     2006.69131         1.81389         6.34827
     2006.69405         1.87113         6.32927
     2006.69679         3.34437         6.31238
     2006.69953         7.25761         6.29232
     2006.70226        13.03584         6.50664
     2006.70500         3.83708         6.44118
     2006.70774         4.13732         6.30815
     2006.71048         6.29556         6.17724
     2006.71321         6.68880         6.15401
     2006.71595         9.57503         6.30182
     2006.71869         8.18227         6.23953
     2006.72143         9.51451         6.48552
     2006.72417        10.86075         6.63966
     2006.72690         5.87198         6.36094
     2006.72964         6.53122         6.29020
     2006.73238         6.93846         6.18357
     2006.73512         4.66570         6.14134
     2006.73786        -0.39706         6.20574
     2006.74059         9.29517         6.22052
     2006.74333        13.75841         6.18991
     2006.74607         9.40965         6.17302
     2006.74881         9.11789         6.22897
     2006.75154         5.32012         6.54148
     2006.75428         1.56136         6.59004
     2006.75702        12.30260         6.34088
     2006.75962        10.01393         6.57843
     2007.24162        -6.31631         5.95870
     2007.24436         8.43593         6.04210
     2007.24710        -7.46184         6.04105
     2007.24983        -5.10760         6.13606
     2007.25257        -6.05936         6.01254
     2007.25531         0.95988         6.01465
     2007.25805        -4.16689         6.17513
     2007.26079         0.01935         6.10017
     2007.26352         2.20559         5.97770
     2007.26626         5.76483         6.03471
     2007.26900         0.34707         6.19413
     2007.27174         4.67330         6.20363
     2007.27447         4.01254         6.09383
     2007.27721         2.79578         5.96292
     2007.27995         4.97302         5.98192
     2007.28269         3.54025         5.98826
     2007.28543         2.87649         6.01465
     2007.28816         0.09973         5.99882
     2007.29090         1.51797         6.02732
     2007.29364         0.83421         6.02521
     2007.29638         3.38244         6.03788
     2007.29911         0.54068         6.09278
     2007.30185         5.75792         6.01148
     2007.30459        -5.53084         5.97664
     2007.30733         3.21939         6.06427
     2007.31007         2.49363         6.14979
     2007.31280         2.74987         6.08644
     2007.31554         3.95411         6.04105
     2007.31828         1.72335         6.11706
     2007.32102         1.47658         6.00832
     2007.32376        -5.28018         6.02310
     2007.32649        -1.62494         5.99776
     2007.32923        -2.01470         6.01254
     2007.33163        -4.99425         6.89832
     2007.89049        -5.89096         6.10334
     2007.89323        -6.82072         6.25642
     2007.89597        -4.46948         6.24481
     2007.89870        -4.04724         6.16985
     2007.90144        -6.34101         6.13501
     2007.90418       -11.87977         6.14557
     2007.90692        -5.00953         6.25959
     2007.90966        -9.70829         6.11600
     2007.91239        -2.31006         6.19096
     2007.91513         1.85618         6.21630
     2007.91787        -3.74858         6.12762
     2007.92061       -12.30634         6.29548
     2007.92334        -4.12610         6.33560
     2007.92608        -4.60887         6.13501
     2007.92882        -5.41563         6.25009
     2007.93156       -10.30439         6.19519
     2007.93430         0.26285         6.19730
     2007.93703        -4.42392         6.21947
     2007.93977        -5.60168         6.17196
     2007.94251        -3.64244         6.22052
     2007.94525        -5.40920         6.37467
     2007.94799        -2.33396         6.35883
     2007.95072        -1.92873         6.39895
     2007.95346        -1.33349         6.27120
     2007.95620        -2.66925         6.26381
     2007.95894         3.20499         6.31871
     2007.96167         2.49122         6.31343
     2007.96441        -8.90754         6.22475
     2007.96715        -8.16730         6.27859
     2007.96989        -3.96406         6.23319
     2007.97263        -7.21582         6.32504
     2007.97536        -9.27859         6.27437
     2007.97810        -7.27235         6.25536
     2007.98084         0.82289         6.21841
     2007.98358        -5.45487         6.22686
     2007.98632         0.03737         6.36200
     2007.98905        -2.13640         6.28387
     2007.99179        -3.05616         6.22475
     2007.99453        -5.31392         6.33455
     2007.99727        -0.32968         6.06005
     2008.00000       -11.18345         6.10228
     2008.00274        -8.27021         6.12867
     2008.00548        -0.68997         6.02415
     2008.00822         1.02027         6.08328
     2008.01096         1.11751         6.02099
     2008.01369         2.33674         6.02627
     2008.01643        -1.47302         6.02838
     2008.01917        -1.28378         6.15084
     2008.02191       -10.63254         6.23214
     2008.02465        -5.63331         6.16985
     2008.02738       -11.95807         6.14345
     2008.03012        -3.73883         6.15190
     2008.03286       -11.09359         6.11812
     2008.03560        -6.56035         6.10756
     2008.03833       -10.23912         6.10545
     2008.04107       -10.22388         6.20258
     2008.04381        -5.13064         6.20786
     2008.04655        -4.60640         6.13712
     2008.04929        -6.71017         6.05899
     2008.05202       -10.93093         6.11495
     2008.05476        -4.45269         6.05899
     2008.05750        -5.74945         6.08011
     2008.06024        -4.54321         6.08644
     2008.06298        -4.83898         6.05160
     2008.06571        -1.77774         6.01888
     2008.06845        -7.37650         6.08116
     2008.07119        -0.20526         6.12867
     2008.07393         0.00697         6.14662
     2008.07666        -0.24179         6.33032
     2008.07940        -6.61555         6.42640
     2008.08214        -4.22031         6.10228
     2008.08488        -9.60207         6.14451
     2008.08762        -9.97884         6.08644
     2008.09035         3.32840         5.98720
     2008.09309         1.09164         6.01465
     2008.09583        -5.62312         6.15190
     2008.09857        -6.86589         6.26381
     2008.10131        -3.88265         6.22897
     2008.10404        -8.37041         6.10861
     2008.10678        -1.52117         6.06216
     2008.10952        -4.97893         6.08961
     2008.11226        -6.54470         6.03577
     2008.11499        -6.29446         6.06427
     2008.11773        -4.84522         6.09700
     2008.12047        -3.61798         6.04316
     2008.12321        -2.65675         6.19202
     2008.12595        -1.61651         6.10017
     2008.12868        -7.32927         6.08116
     2008.13142        -3.16403         6.07800
     2008.13416        -2.87279         6.13079
     2008.13690        -4.02356         6.12656
     2008.13964        -2.13132         6.01465
     2008.14237       -12.36208         5.98509
     2008.14511        -0.40184         6.00409
     2008.14785       -24.21361         6.05477
     2008.15059        -8.16837         6.05160
     2008.15332        -8.08013         6.00937
     2008.15606        -7.73589         5.96503
     2008.15880        -2.67465         5.99459
     2008.16154        -4.62542         6.02099
     2008.16428        -4.65818         6.26909
     2008.16701        -3.68294         6.11917
     2008.16975       -11.66970         5.99354
     2008.17249       -10.49547         6.06744
     2008.17523        -6.66923         6.23214
     2008.17797        -6.83099         6.07272
     2008.18070        -5.92175         6.02310
     2008.18344        -2.00451         6.02415
     2008.18618        -5.02728         5.98087
     2008.18892       -10.92504         6.04421
     2008.19165        -2.60580         6.06111
     2008.19439        -2.35656         6.02099
     2008.19713         5.98167         6.17407
     2008.19987         2.87191         6.13501
     2008.20261        -0.69985         6.06216
     2008.20534         3.89139         6.11389
     2008.20808        -5.30637         6.28070
     2008.21082         1.59286         6.17407
     2009.48392       -12.69057         6.10228
     2009.48666       -12.78333         6.10545
     2009.48940        -8.46209         6.07694
     2009.49213        -5.78085         6.06216
     2009.49487        -9.16762         6.12867
     2009.49761        -9.73238         6.12867
     2009.50035        -7.97514         6.11917
     2009.50308       -12.33390         6.09700
     2009.50582        -7.23566         6.11178
     2009.50856        -7.48443         6.03154
     2009.51130       -10.02119         6.06216
     2009.51404        -3.04095         6.04210
     2009.51677        -1.98771         5.98931
     2009.51951        -3.77548         6.01888
     2009.52225        -7.44924         6.00832
     2009.52499        -4.69100         5.98931
     2009.52773        -6.38876         6.18885
     2009.53046        -9.44152         6.22475
     2009.53320       -11.32429         5.93547
     2009.53594       -12.74205         6.04738
     2009.53868       -12.57581         6.04421
     2009.54141       -13.29857         6.12128
     2009.54415        -9.59634         6.04316
     2009.54689        -9.34810         6.16774
     2009.54963       -14.26586         6.06216
     2009.55237       -17.97662         6.08539
     2009.55510        -7.63538         6.04421
     2009.55784        -6.82015         6.03049
     2009.56058         0.01809         6.34088
     2009.56332        -2.71267         6.32504
     2009.56606        -8.28943         6.23847
     2009.56879       -16.06520         6.08539
     2009.57153       -14.21196         6.10334
     2009.57427       -13.06372         6.15612
     2009.57701        -4.90148         6.32821
     2009.57974        -4.94924         6.28809
     2009.58248        -5.41801         6.16140
     2009.58522       -12.00777         6.13818
     2009.58796       -10.25353         6.18252
     2009.59070        -8.25429         6.29548
     2009.59317       -16.59688         7.04296
     2011.40042       -11.40712         6.04210
     2011.40315        -0.36588         5.97876
     2011.40589        -7.95264         5.89430
     2011.40863        -1.92541         5.98931
     2011.41137        -5.83517         5.94075
     2011.41410        -8.06793         5.99037
     2011.41684        -1.21769         5.91013
     2011.41958        -1.73645         5.92808
     2011.42232        -7.80422         5.86051
     2011.42506         4.25202         5.96609
     2011.42779        -5.26374         5.97031
     2011.43053        -8.29250         5.92808
     2011.43327        -6.83927         5.93969
     2011.43601        -9.25403         5.94814
     2011.43875        -8.48479         5.91963
     2011.44148        -4.55855         5.94180
     2011.44422        -8.13131         6.07061
     2011.44696        -5.95008         6.03049
     2011.44970       -10.47484         5.96714
     2011.45243        -9.31060         5.98192
     2011.45517        -5.79036         5.99882
     2011.45791       -13.01212         5.91858
     2011.46065       -14.30689         5.97770
     2011.46339       -13.50665         6.12973
     2011.46612        -4.80941         6.00093
     2011.46886        -6.29617         5.97031
     2011.47160       -13.12694         5.96609
     2011.47434       -14.32070         6.13395
     2011.47708        -5.85346         6.07377
     2011.47981        -6.33122         5.96714
     2011.48255        -7.29498         5.94708
     2011.48529       -13.31175         5.99882
     2011.48803        -3.57751         5.97031
     2011.49076        -4.62927         6.06111
     2011.49350       -13.47203         5.93547
     2011.49624        -2.91280         5.95553
     2011.49898        -5.49156         5.97453
     2011.50172        -2.99932         6.00198
     2011.50445       -11.55608         6.02415
     2011.50719        -8.48384         6.05477
     2011.50993        -6.46661         6.00409
     2011.51267        -2.26137         5.99248
     2011.51541       -12.33613         6.05688
     2011.51814        -2.92489         6.01993
     2011.52088        -4.60966         5.96503
     2011.52362        -2.48442         6.00093
     2011.52636        -5.35318         5.91541
     2011.52892        -0.75083         6.34616
     2012.83505        -1.59452         6.02310
     2012.83779         1.57772         6.01571
     2012.84052         1.68096         6.03049
     2012.84326         1.30219         6.10967
     2012.84600         4.36643         6.07694
     2012.84874         2.23467         6.06638
     2012.85148         6.49891         6.01043
     2012.85421         2.27614         6.09172
     2012.85695        -0.87562         6.05583
     2012.85969         0.75162         6.03366
     2012.86243        -5.89514         6.03154
     2012.86517        -2.53390         6.10861
     2014.71595        13.75584         6.09383
     2014.71869        14.12808         6.03471
     2014.72143         6.41931         6.12023
     2014.72417         4.53155         6.12656
     2014.72690        18.16079         6.08222
     2014.72964         9.65003         6.01148
     2014.73238         8.21326         6.13606
     2014.73512        10.84250         6.00621
     2014.73786        13.23874         6.08116
     2014.74059         3.03798         6.01360
     2014.74333        11.17822         6.00515
     2014.74607        11.00145         6.14768
     2014.74881        14.15969         6.08328
     2014.75154        11.08093         6.14029
     2014.75428        10.54617         6.01993
     2014.75976         9.45464         5.95870
     2014.76250        12.17488         6.01888
     2014.76523        10.62812         5.96820
     2014.76797        12.05236         5.99882
     2014.77071         4.74659         6.00515
     2014.77345         8.36083         5.98192
     2014.77619         2.45507         6.01571
     2014.77892        11.98931         6.01888
     2014.78166         8.06054         6.01676
     2014.78440         8.36678         6.02627
     2014.78714         9.59802         6.07905
     2014.78987        12.58026         6.08644
     2014.79261         9.64550         5.98087
     2014.79535        10.30473         6.01465
     2014.79809        12.99097         6.14345
     2014.80083        10.67321         6.01465
     2014.80356        11.38445         6.27226
     2014.80630        10.57068         6.09700
     2014.80904        10.15792         5.94920
     2014.81178        14.06116         5.97770
     2014.81452        17.69940         6.09700
     2014.81725        11.48064         6.08011
     2014.81999        15.11687         6.07061
     2014.82273        18.14611         6.09172
     2014.82547        10.10135         6.00515
     2014.82820         7.68259         6.06322
     2014.83094         6.86682         6.08961
     2014.83368         6.14506         6.07377
     2014.83642         7.36730         6.03049
     2014.83916        10.70154         6.03893
     2014.84189        13.93678         6.08750
     2014.84463         4.50301         6.11917
     2014.84737        10.03425         6.13712
     2014.85011        14.33049         6.09383
     2014.85285        11.17873         6.06216
     2014.85558        10.34796         6.07377
     2014.85832        11.71820         6.11600
     2014.86106        12.32244         6.10650
     2014.86380        10.45768         6.10334
     2014.86653         9.81192         6.05794
     2014.86927         2.29415         6.08328
     2014.87201         4.33839         6.23003
     2014.87475         7.49063         6.12234
     2014.87749         9.85387         6.17618
     2014.88022         9.28210         6.14345
     2014.88296        10.36134         6.14240
     2014.88570         9.35958         6.37044
     2014.88844        12.17482         6.54570
     2014.89118        17.59006         6.61538
     2014.89391        11.23529         6.35461
     2014.89665        11.71653         6.29020
     2014.89939         9.60177         6.35461
     2014.90213         2.38001         6.37783
     2014.90486        -0.51976         6.17829
     2014.90760         7.26148         6.16668
     2014.91034        10.74472         6.14873
     2014.91308        12.29296         6.14662
     2014.91582         6.29620         6.08222
     2014.91855        16.05443         6.11812
     2014.92129         1.37667         6.11812
     2014.92403         6.28391         6.11073
     2014.92677        10.26315         6.10756
     2014.92951         3.69038         6.10967
     2014.93224         2.68762         6.05477
     2014.93498         9.25886         6.13395
     2014.93772         8.95610         6.13184
     2014.94046         4.04134         6.09172
     2014.94319         8.17157         6.28387
     2014.94593         9.25881         6.05266
     2014.94867         4.66205         6.01043
     2014.95141         7.38329         5.95659
     2014.95415        11.81653         5.91013
     2014.95688        11.80076         5.98509
     2014.95962        16.83900         5.96820
     2014.96236         9.98924         5.99143
     2014.96510        10.62548         6.14662
     2014.96778        -5.50725         6.05794
     2014.97331        -6.69381         6.05477
     2014.97605        -9.67357         7.08625
     2014.97879         2.48067         6.06850
     2014.98152         6.06990         6.19308
     2014.98426        13.30214         6.85504
     2014.98974        -0.81438         5.99670
     2014.99248         0.79385         6.01676
     2014.99521         6.62609         6.03682
     2014.99795         8.54233         5.99143
     2015.00069         5.86057         6.05372
     2015.00343         3.70081         6.10334
     2015.00616        -0.96996         6.05160
     2015.00890         3.68928         6.07694
     2015.01164         1.71852         6.03154
     2015.01438        -3.91724         6.08222
     2015.01712         3.61199         6.07800
     2015.01985         1.64123         6.06955
     2015.02259        -1.05753         6.19096
     2015.02533         3.98971         6.04844
     2015.02807         5.88795         6.07694
     2015.03081         3.66218         6.09278
     2015.03354        -0.30258         6.06111
     2015.03628         4.99766         6.10439
     2015.03902         6.48690         6.03154
     2015.04176         8.06113         6.08644
     2015.04449         6.10937         6.04316
     2015.04723         3.27361         6.04105
     2015.04997         2.20585         6.12340
     2015.05271         2.60909         5.97242
     2015.05545         6.24232         5.96081
     2015.05818         7.22356         6.05266
     2015.06092         3.57280         6.02521
     2015.06366         7.09104         6.12551
     2015.06640         1.92627         5.98087
     2015.06914         0.88751         6.03154
     2015.07187        -6.24525         6.03049
     2015.07461        -1.07601         5.94708
     2015.07735        -4.37677         5.96292
     2015.08009        -5.38154         5.97137
     2015.08282         0.38070         5.98509
     2015.08556         1.32594         6.08328
     2015.08830        -0.47782         6.06216
     2015.09104         4.41441         6.04421
     2015.09378         3.24265         5.99143
     2015.09651         2.25789         6.01254
     2015.09925        13.78213         6.09489
     2015.10199         2.00437         6.10122
     2015.10473         9.18060         6.08856
     2015.10721         5.14401         6.71673
     2018.35730        -0.16392         5.84256
     2018.36003        -2.71067         5.75071
     2018.36277        -8.68243         5.80456
     2018.36551       -10.03620         5.79189
     2018.36825        -4.35196         5.76972
     2018.37098        -8.87672         5.80244
     2018.37372        -3.24548         5.82778
     2018.37646        -0.78325         6.06322
     2018.37920        -3.61501         5.79928
     2018.38193        -8.08777         5.85418
     2018.38467        -5.29053         5.80878
     2018.38741        -6.89929         5.75705
     2018.39015         0.98594         5.78978
     2018.39289        -9.24382         5.84045
     2018.39562        -4.29158         5.85629
     2018.39836        -1.67434         5.74016
     2018.40110        -8.26211         5.83201
     2018.40384        -3.01887         5.91541
     2018.40658         0.11937         5.85946
     2018.40931         4.91161         6.04527
     2018.41205        -0.47515         5.79822
     2018.41479        -9.49692         5.77183
     2018.41753        -5.64368         5.75705
     2018.42026        -6.97644         5.78978
     2018.42300        -6.22720         5.81511
     2018.42574        -3.89196         5.77922
     2018.42848        -3.20373         5.72432
     2018.43122        -5.68449         5.76760
     2018.43395        -7.55625         5.76021
     2018.43669        -2.84701         5.89324
     2018.43943        -4.21878         5.90908
     2018.44217        -3.31254         5.80456
     2018.44491        -5.56530         5.74332
     2018.44764        -8.89206         5.83623
     2018.45038        -6.58882         5.82884
     2018.45312        -0.80259         5.85312
     2018.45586        -3.05735         5.84890
     2018.45859        -5.52911         5.89218
     2018.46133       -14.44487         5.81617
     2018.46407        -7.48264         5.82673
     2018.46681        -2.02940         5.87952
     2018.46955        -5.76316         5.82462
     2018.47228        -1.10792         5.91541
     2018.47502        -1.13468         5.86579
     2018.47776        -3.07945         5.78978
     2018.48050        -8.30921         5.80350
     2018.48324        -6.84497         5.83095
     2018.48597        -5.72773         5.81617
     2018.48871        -0.68650         5.84468
     2018.49145        -2.23426         5.81934
     2018.49419        -4.91202         5.95659
     2018.49692        -6.21178         5.96398
     2018.49966        -2.03054         5.98509
     2018.50240         1.94169         5.95553
     2018.50514        -7.44907         5.85101
     2018.50788        -3.24483         5.84573
     2018.51061        -5.76559         5.84468
     2018.51335        -8.64636         5.89007
     2018.51609        -5.90712         5.88057
     2018.51883        -7.52888         5.84151
     2018.52157        -0.00764         5.87424
     2018.52430        -1.84040         5.91224
     2018.52704        -4.68717         5.97453
     2018.52978        -5.69893         5.90274
     2018.53252       -10.84369         5.94708
     2018.53525        -1.28545         5.85418
     2018.53799        -7.55822         5.93019
     2018.54073         0.93602         5.84679
     2018.54347        -8.03874         5.85734
     2018.54575        -0.54421         6.98384
