# ================= DQRFIT RESULTS ================
# INPUT FILE: series/MOUN.rad
# OUTPUT: LDETRENDED
# FILTER FUNCTION: f(t)
# f(t)=+line(t)
# line(t)=+P 1+P 2*t
# heav(t)=(t<0?0:1)
# TOTAL OBSERVATIONS MTOT=  591
# INITIAL TIME INTERVAL= 2018.6940 - 2004.1369 = 14.5572
# TOTAL OBSERVATIONS AFTER PREFILTER M=  591
# TIME-SPAN=    0.0000 -    0.0000 =  0.0000
# OBSERVATIONS: USED M=   591 REJECTED MTOT-M=     0 %USED=  100.0000
# N=  2 PARAMETERS
# MAXSIG= 175.00000
# MAXRES=  16.52605
# SCALE FACTOR FOR LENGTHS: SCL=  10.00000
# SCALE FACTOR FOR SIGMAS: SCLSIG=   1.00000
# CHI^2=    539.302 DOF=   589 CHI^2/DOF=   0.91562
# RMS=      5.655 SDEV=      5.658 MEAN=    0.12526
#  P #       PARAMETER +-    SIGMA %error PARAMETER NAME
# P 1 =      -540.83813 +-  101.930  18.85 YZERO                              
# P 2 =         0.26974 +-    0.051  18.82 SLOPE                              
#       T            LDETRENDED       SIG_OBS
     2004.13690         7.92419         5.63699
     2004.13964         7.68845         5.44370
     2004.14237         9.02071         5.51929
     2004.14511         8.14997         5.50398
     2004.14785        -3.00477         5.53843
     2004.15059         8.66650         5.52025
     2004.15332        -3.51824         5.53460
     2004.15606       -12.31498         5.84272
     2004.16428         2.45780         5.55183
     2004.16701        -0.33194         5.53843
     2004.16975        -4.04267         5.73268
     2004.17249         6.48759         5.72789
     2004.17523         5.73985         5.74895
     2004.17797        10.73711         5.61115
     2004.18070         2.80037         5.49537
     2004.18344        -3.47337         5.49729
     2004.18618         1.60290         5.70780
     2004.18892         8.81416         5.56140
     2004.19165         4.70642         5.52312
     2004.19439         7.79068         5.52791
     2004.19713         4.27794         5.51929
     2004.19987        -0.92980         5.55087
     2004.20261         5.21046         5.52121
     2004.20534         0.69273         5.48006
     2004.20808         2.69899         5.83124
     2004.21082         5.23025         5.85994
     2004.21356         5.58251         5.81976
     2004.21629        -4.45023         5.73938
     2004.21903        -2.42697         5.72694
     2004.22177         0.03329         5.74608
     2004.22451        13.75556         5.79296
     2004.22725        11.89382         5.81688
     2004.22998         4.17808         5.82645
     2004.23272        14.34334         5.78244
     2004.23546         3.76760         5.76617
     2004.23820        -1.93814         5.77765
     2004.24094         0.59613         5.96711
     2004.24367         6.22039         5.72215
     2004.24641         7.90065         5.50877
     2004.24915        -0.06209         5.61498
     2004.25189         5.93917         5.56140
     2004.25462         1.42943         5.53269
     2004.25736         8.90669         5.61977
     2004.26010         4.43596         5.55757
     2004.42163         4.01038         5.44849
     2004.42437         1.34265         5.44944
     2004.42711        -2.70109         5.39586
     2004.42985        10.07117         5.45901
     2004.43259         0.05643         5.42839
     2004.43532         4.18669         5.51834
     2004.43806        10.27595         5.52886
     2004.44080         9.62521         5.59872
     2004.44354         7.78948         5.47432
     2004.44627         6.14574         5.50781
     2004.44901         3.30000         5.59584
     2004.45175         5.01826         5.69249
     2004.45449         2.67552         5.63412
     2004.45723         0.74978         5.60541
     2004.45996         2.15404         5.74225
     2004.46270         2.27231         5.66474
     2004.46544         1.88357         5.59680
     2004.46818         5.47283         5.61498
     2004.47092         2.79309         5.52695
     2004.47365         5.34135         5.49346
     2004.47639        -5.43939         5.54896
     2004.47913        -3.35412         5.54035
     2004.48187         2.31714         5.77478
     2004.48460         2.47040         5.52312
     2004.48734         4.95666         5.51834
     2004.49008         5.75492         5.58341
     2004.49282         0.21618         5.72885
     2004.49556        -3.88056         5.55661
     2004.49829         7.86471         5.53748
     2004.50103         0.21097         5.46858
     2004.50377         4.30823         5.54322
     2004.50651        -1.25851         5.51929
     2004.50924         0.83375         5.49920
     2004.68994         2.07901         5.48293
     2004.69268         2.68727         5.48198
     2004.69542         0.56553         5.43030
     2004.69816         3.41180         5.47815
     2004.70089         7.38106         5.58915
     2004.70363         8.94132         5.46284
     2004.70637         3.54558         5.42552
     2004.70911         8.18984         5.44179
     2004.71185         4.56110         5.41212
     2004.71458        -0.18964         5.50494
     2004.71732         7.62463         5.39873
     2004.72006         3.54389         5.40064
     2004.72280        -1.95185         5.37289
     2004.72554        -0.60459         5.36715
     2004.72827         0.89867         5.37289
     2004.73101         3.52993         5.43222
     2004.73375        -0.37181         5.39012
     2004.73649         1.47946         5.39012
     2004.73922         2.16072         5.41212
     2004.74196         3.42198         5.36619
     2004.74470         3.44724         5.36141
     2004.74744         2.05850         5.44179
     2004.75018        -6.18124         5.38437
     2004.75291        -1.90797         5.40638
     2004.75565         1.51429         5.36332
     2004.75839         2.65955         5.36906
     2004.76113        -0.29819         5.36906
     2004.76387         3.75507         5.42456
     2004.76660         0.74933         5.37481
     2004.76934         3.56859         5.56235
     2004.77208         5.60486         5.56810
     2004.77482         2.13212         5.49920
     2004.77755         9.83138         5.51834
     2004.78029         2.24964         5.50494
     2004.78303         2.05190         5.49346
     2004.78577         0.86716         5.37193
     2004.78851         5.23342         5.44561
     2004.79124         5.47569         5.41404
     2004.79398        11.33295         5.45518
     2004.79672        -0.46479         5.48867
     2004.79946         7.95147         5.44657
     2004.80220        11.48973         5.45040
     2004.80493        10.29799         5.54704
     2004.80767         3.01326         5.48580
     2004.81041        11.59952         5.34418
     2004.81588         8.77104         5.62838
     2004.81862        10.64230         6.07429
     2004.82684         7.76709         6.08385
     2004.82957        10.74335         6.81013
     2004.83231        15.58561         6.10586
     2004.83505        -2.94313         5.93745
     2004.83779         5.28713         5.38342
     2004.84052         7.08339         5.50973
     2004.84326         9.83565         6.37283
     2004.84600         8.57492         5.39873
     2004.84874         6.90318         5.40255
     2004.85148         2.13344         5.45231
     2004.86243         3.56648         6.56038
     2004.87612        -1.93021         6.37475
     2004.87885        -6.77195         6.12883
     2004.88159        -4.11768         6.17667
     2004.88433         1.61158         6.42450
     2004.88707         7.53384         5.79679
     2004.89254        -0.83564         6.20059
     2005.19097        -5.52214         5.45423
     2005.19371        -8.52987         5.46092
     2005.19645        -5.36761         5.46188
     2005.19918        -5.99635         5.43700
     2005.20192        -3.62109         5.56235
     2005.20466        -2.50783         5.54800
     2005.20740         5.18643         5.55470
     2005.21013         1.26470         5.46188
     2005.21287        -5.45104         5.43987
     2005.21561        -5.46678         5.45327
     2005.21835        -5.25152         5.47049
     2005.22109        -3.06426         5.47911
     2005.22382        -2.48400         5.47336
     2005.22656        -3.08174         5.48580
     2005.22930         0.64853         5.46762
     2005.23204        -0.21821         5.47911
     2005.23478        -0.91895         5.52025
     2005.23751         7.74231         5.48198
     2005.24025         7.08257         5.63795
     2005.24299         2.96983         5.44753
     2005.24573         0.48909         5.59776
     2005.24846        -1.33564         5.48772
     2005.25120        -2.65438         5.47815
     2005.25394         5.67988         5.72311
     2005.25668        10.56814         5.79583
     2005.25942         3.54940         5.55087
     2005.26215        -2.77334         5.61977
     2005.26489         5.43793         5.60350
     2005.26763         9.04719         5.62264
     2005.27037         5.86345         5.57958
     2005.27311         2.03671         5.52886
     2005.27584         0.37197         5.56522
     2005.27858         0.01623         5.59776
     2005.28132         0.28149         5.65900
     2005.28406         0.67776         5.66283
     2005.28679        -2.18698         5.58436
     2005.28953         2.97028         5.45136
     2005.29227         2.48754         5.50685
     2005.29501         2.07680         5.50303
     2005.29775         4.00206         5.50207
     2005.30048         3.24632         5.46762
     2005.30322        -1.11241         5.43796
     2005.30596         0.42385         5.43987
     2005.30870         1.75911         5.50590
     2005.31144         3.71237         5.51164
     2005.31417        -3.09137         5.46284
     2005.31691        -5.44911         5.45901
     2005.31965        -3.84984         5.49059
     2005.32239         1.93142         5.63986
     2005.32512         0.18468         5.54130
     2005.32786        -5.97006         5.53365
     2005.33060        -2.49980         5.48485
     2005.33334         1.96046         5.59202
     2005.33608         1.11072         5.61020
     2005.33881         3.05799         5.47623
     2005.34155         4.50125         5.50685
     2005.34429         1.96751         5.45231
     2005.34703        -1.57023         5.41786
     2005.34977        -2.73897         5.48102
     2005.35250        -0.76371         5.55757
     2005.35524         0.68155         5.62264
     2005.62903         7.45970         5.49059
     2005.63176         0.59197         5.50207
     2005.63450         0.04823         5.50303
     2005.63724         3.27749         5.57001
     2005.63998         4.11075         5.56618
     2005.64272         0.22701         5.51164
     2005.64545        -0.57873         5.52408
     2005.64819        -1.13347         5.52312
     2005.65093        -1.45420         5.52599
     2005.65367        -1.23394         5.52982
     2005.65640        -4.28468         5.51164
     2005.65914         1.73558         5.50877
     2005.66188         2.01684         5.50398
     2005.66462         1.01710         5.48006
     2005.66736         2.80037         5.46188
     2005.67009         1.10463         5.50207
     2005.67283         3.68489         5.48485
     2005.67557         7.25415         5.49442
     2005.67831        -5.95559         5.46858
     2005.68105        -5.01533         5.43317
     2005.68378        -5.41907         5.51547
     2005.68652        -3.83680         5.55183
     2005.68926        -0.93154         5.61403
     2005.69200         6.77872         5.62359
     2005.69473        -3.70902         5.60350
     2005.69747        -3.22276         5.55183
     2005.70021         3.07750         5.65804
     2005.70295         1.46676         5.69823
     2005.70569        -4.22197         5.66378
     2005.70842        -0.27971         5.71450
     2005.71116         6.50955         5.56714
     2005.71390         1.49881         5.46284
     2005.71664        -4.00893         5.61594
     2005.71938        -0.67767         5.51355
     2005.72211        -5.57440         5.61403
     2005.72485        -7.80614         5.47623
     2005.72759        -1.69388         5.49729
     2005.73033        -1.94562         5.59010
     2005.73306        -2.24136         5.61403
     2005.73580         4.22390         5.56714
     2005.73854         3.66716         5.69919
     2006.13005        -9.44944         5.35471
     2006.13279        -7.16318         5.35758
     2006.13553        -2.84392         5.36906
     2006.13827         1.29834         5.36237
     2006.14100         1.67360         5.37385
     2006.14374         0.70087         5.36045
     2006.14648         0.11813         5.37576
     2006.14922        -2.49461         5.33749
     2006.15196        -7.46335         5.35184
     2006.15469        -4.69609         5.34801
     2006.15743         1.15617         5.33749
     2006.16017         1.61943         5.47145
     2006.16291        -2.52630         5.54513
     2006.16564        -6.22304         5.31739
     2006.16838        -2.95978         5.48867
     2006.17112        -1.38852         5.30878
     2006.17386         0.69574         5.32696
     2006.17660        -4.05700         5.36237
     2006.17933        -1.75773         5.36524
     2006.18207        -3.82347         5.36045
     2006.18481         8.34879         5.39586
     2006.18755         6.82205         5.35854
     2006.19029         4.20931         5.43796
     2006.19302        -2.40443         5.43030
     2006.19576        -1.93017         5.41786
     2006.19850         4.58510         5.48198
     2006.20124        -2.48364         5.46092
     2006.20397        -8.36638         5.61785
     2006.20671        -0.34912         5.58436
     2006.20945       -13.65386         5.62551
     2006.21219        -2.60860         5.47241
     2006.21493        -1.11734         5.49920
     2006.21766         5.93093         5.56331
     2006.22040        -3.01381         5.57192
     2006.22314        -8.53155         5.53078
     2006.22588        -1.33629         5.54226
     2006.22862         7.03797         5.66761
     2006.23135         2.42923         5.57001
     2006.23409         2.85650         5.58053
     2006.23683        -5.55224         5.39681
     2006.23957         0.03802         5.35950
     2006.24230        -1.63772         5.38150
     2006.24504        -2.34946         5.37385
     2006.24778         0.97480         5.42935
     2006.25052         0.15606         5.36715
     2006.25326         2.75833         5.34897
     2006.25599         1.36859         5.53173
     2006.25873       -16.50015         5.47623
     2006.26147         0.47811         5.52025
     2006.26421         2.96237         5.61498
     2006.26695         2.42663         5.45423
     2006.26968         1.25989         5.34706
     2006.27242         0.52916         5.41978
     2006.27516         5.94842         5.63986
     2006.27790        -0.30132         5.62838
     2006.28063        -3.03606         5.39777
     2006.28337         1.96720         5.40734
     2006.28611         6.25646         5.45710
     2006.28885         5.96373         5.46188
     2006.29159         1.04899         5.41308
     2006.29432         1.70725         5.42169
     2006.29706         1.88851         5.39012
     2006.29980         1.34777         5.48293
     2006.30254         1.23903         5.40830
     2006.30528         0.39129         5.48676
     2006.30801         5.52756         5.46571
     2006.31075        -2.72818         5.43222
     2006.31349        -0.92992         5.51738
     2006.31623         1.18934         5.42935
     2006.32170        -4.68914         5.48963
     2006.32444        -2.51188         5.40447
     2006.32718        -0.62261         5.45327
     2006.32992        -2.06935         5.42839
     2006.33265         1.02891         5.45136
     2006.33539         1.88017         5.44274
     2006.33813        -1.94357         5.41499
     2006.34087        -5.53231         5.44370
     2006.34361         0.37596         5.47145
     2006.34634        -2.68578         5.44179
     2006.34908         0.40748         5.47049
     2006.35182        -4.54926         5.53365
     2006.35456        -3.36900         5.44657
     2006.35729        -4.92874         5.45614
     2006.36003        -8.95148         5.44179
     2006.36277        -4.20421         5.44561
     2006.36551       -10.17595         5.44849
     2006.36825        -1.83469         5.45710
     2006.37098        -8.34943         5.58628
     2006.37372        -3.95617         5.59489
     2006.37646         4.28809         5.54896
     2006.37920         5.41035         5.70014
     2006.38193         1.31862         5.64273
     2006.38467         2.34788         5.55566
     2006.38741         3.85514         5.67048
     2006.39015        -6.34960         5.56235
     2006.85558         7.86486         5.93458
     2006.85832         0.31512         5.75086
     2006.86106         0.52038         5.82454
     2006.86380        -5.58136         5.78531
     2006.86653         0.67390         6.01400
     2006.86927         1.10116         5.63986
     2006.87201        -1.12958         5.48293
     2006.87475         3.82269         5.48867
     2006.87749         7.74395         5.50685
     2006.88022        -3.23179         5.57097
     2006.88296        -2.44753         5.49633
     2006.88570        -1.70327         5.47719
     2006.88844         1.86999         5.44179
     2006.89118        -4.42875         5.47623
     2006.89391        -7.11248         5.68005
     2006.89665        -1.72022         5.65996
     2006.89939        -0.29696         5.45040
     2006.90213        -2.74070         5.46475
     2006.90486         6.61356         5.52504
     2006.90760         9.18582         5.48485
     2006.91034        -2.25191         5.50111
     2006.91308        -1.57565         5.60063
     2006.91582        -5.68739         5.45614
     2006.91855        -5.79413         5.48580
     2006.92129        -5.89687         5.49442
     2006.92403        -7.60861         5.52121
     2006.92677        -5.61835         5.56618
     2006.92951        -6.60808         5.62455
     2006.93224        -5.13682         5.53078
     2006.93498        -4.55956         5.61594
     2006.93772         3.59170         5.56714
     2006.94046         1.90796         5.68483
     2006.94319        -5.16478         5.55757
     2006.94593        -3.21352         5.60828
     2006.94867        -2.50425         5.83219
     2006.96236         1.47705         5.59202
     2006.96510         2.06432         5.67718
     2006.96784         2.41858         5.59202
     2006.97057        -4.54616         5.53748
     2006.99248        -9.16507         6.31829
     2006.99521        -6.65481         5.76617
     2006.99795        -0.75555         5.74225
     2007.00343        -1.57702         5.72885
     2007.00616        -4.04276         6.06759
     2007.01985        -5.77445         5.86664
     2007.02259        -5.22419         5.43987
     2007.02533        -0.83393         5.48580
     2007.02807        -0.47767         5.61594
     2007.03902        -8.88062         5.47911
     2007.04176       -10.45736         5.43126
     2007.04415        -7.22101         6.40154
     2007.85764        -7.59644         5.38437
     2007.86037        -7.21918         5.44561
     2007.86311        -5.58991         5.39777
     2007.86585        10.02135         5.44179
     2007.86859        -9.77439         5.39490
     2007.87133        -7.69313         5.36715
     2007.87406        -7.66687         5.50494
     2007.87680        -4.47661         5.54513
     2007.87954        -5.37834         5.43796
     2007.88228        -5.40008         5.43126
     2007.88502        -8.48682         5.38342
     2007.88775       -11.62856         5.48867
     2007.89049       -11.26730         5.48198
     2007.89323        -6.92204         5.59297
     2007.89597        -4.70578         5.52408
     2007.89870        -8.53351         5.44179
     2007.90144       -11.24325         5.49346
     2007.90966       -15.38947         6.44460
     2007.91239        -6.63821         6.29533
     2007.94525       -11.95607         6.50010
     2007.95072        -9.35255         6.43790
     2007.95346        -7.13128         6.45608
     2007.95620        -5.74302         6.10873
     2007.95894        -3.22976         6.59483
     2009.59891         1.91888         5.37768
     2009.60165        -7.37986         5.39586
     2009.60439        -7.33560         5.42839
     2009.60712        -8.61234         5.37002
     2009.60986        -8.43308         5.34706
     2009.61260        -7.87382         5.35950
     2009.61534        -6.49956         5.37481
     2009.61807         0.99871         5.42552
     2009.62081        -3.33303         5.37385
     2009.62355        -7.23977         5.38437
     2009.62629        -5.54251         5.37959
     2009.62903        -4.62325         5.45518
     2009.63176        -7.34199         5.37672
     2009.63450        -8.87672         5.39490
     2011.39768         2.15868         5.36045
     2011.40042         2.82494         5.31548
     2011.40315        -3.20280         5.34993
     2011.40589       -19.53154         5.46092
     2011.40863        -6.64227         5.32313
     2011.41137        -4.24701         5.30878
     2011.41410        -3.71375         5.30782
     2011.41684        -5.70449         5.32026
     2011.41958        -2.92323         5.29921
     2011.42232        -9.89797         5.28773
     2011.42506        -8.57271         5.29443
     2011.42779        -3.92644         5.30304
     2011.43053       -10.31218         5.33653
     2011.43327        -9.16292         5.32505
     2011.43601        -9.52766         5.29634
     2011.43875       -10.38340         5.35662
     2011.44148        -6.04414         5.39107
     2011.44422        -5.94787         5.37481
     2011.44696        -8.21261         5.35471
     2011.44970        -5.36035         5.30304
     2011.45243        -5.22709         5.33366
     2011.45517        -8.46683         5.42074
     2011.45791        -7.59457         5.32983
     2011.46065        -8.89231         5.35567
     2011.46339        -7.95404         5.45997
     2011.46612       -10.09278         5.30208
     2011.46886        -6.90352         5.34036
     2011.47160        -7.13426         5.40064
     2011.47434       -10.48200         5.38820
     2011.47708        -4.35474         5.37768
     2011.47981        -1.42548         5.37672
     2011.48255        -9.14621         5.30400
     2011.48497       -14.29287         6.13648
     2012.87064        -5.62963         5.33366
     2012.87338        -6.61037         5.40925
     2012.87612        -2.02411         5.34706
     2012.87885        -0.11385         5.29156
     2012.88159        -1.08359         5.30878
     2012.88433         0.48267         5.32792
     2012.88707        -3.09407         5.45136
     2012.88981         2.04020         5.44657
     2012.89254        -2.36554         6.09725
     2014.71869         1.11088         5.38916
     2014.72143        -7.97086         5.57384
     2014.72417         0.62040         5.45901
     2014.72690        -1.13434         5.38533
     2014.72964        -4.99608         5.38055
     2014.73238        -0.16482         5.39394
     2014.73512        -4.00955         5.52695
     2014.73786         2.89971         5.44274
     2014.74059         2.84697         5.46858
     2014.74333         0.74123         5.38150
     2014.74607         8.57749         5.48293
     2014.74881        -2.84925         5.39777
     2014.75154        -1.34199         5.47815
     2014.75428        -2.37172         5.37385
     2014.75702        -7.29846         5.37768
     2014.75976        -0.31820         5.36619
     2014.76250        -3.53494         5.37289
     2014.76523        -3.68368         5.34131
     2014.76797        -3.79042         5.37098
     2014.77071        -4.18816         5.36045
     2014.77345        -9.19389         5.39299
     2014.77619        -4.58763         5.41786
     2014.77892         5.99763         5.44179
     2014.78166        -3.52311         5.34610
     2014.78440        -2.23585         5.38724
     2014.78714         1.87741         5.46475
     2014.78987        -2.40033         5.38437
     2014.79261        -0.49306         5.38629
     2014.79535         0.39020         5.37002
     2014.79809        -1.54154         5.48772
     2014.80083        -3.87128         5.37672
     2014.80356        -4.18602         5.52886
     2014.80630        -4.18876         5.46284
     2014.80904        -0.20249         5.36811
     2014.81178        -0.00223         5.37863
     2014.81452         4.05903         5.37672
     2014.81725         2.67229         5.35662
     2014.81999         3.65055         5.38820
     2014.82273        -0.63419         5.48772
     2014.82547         0.14107         5.40160
     2014.82820        -2.67966         5.41212
     2014.83094        -1.73740         5.40160
     2014.83368        -0.82514         5.39968
     2014.83642        -2.55688         5.41978
     2014.83916         0.12038         5.46762
     2014.84189        -3.79736         5.43892
     2014.84463        -5.38410         5.43987
     2014.84737        -0.60083         5.44083
     2014.85011        -2.54557         5.44944
     2014.85285        -3.29031         5.45136
     2014.85558         0.30895         5.49729
     2014.85832         7.75821         5.53078
     2014.86106        -2.84253         5.41499
     2014.86380        -4.11626         5.45997
     2014.86653        -1.56400         5.51068
     2014.86927         2.47926         5.50877
     2014.87201         0.26752         5.46284
     2014.87475        -4.14122         5.39777
     2014.87749        -3.65496         5.42552
     2014.88022        -2.57470         5.44944
     2014.88296        -1.65043         5.45518
     2014.88570        -0.80517         5.75182
     2014.88844         3.93609         5.81019
     2014.89118         3.17835         5.93458
     2014.91034         9.12618         5.51834
     2015.05818        -2.62170         6.04175
     2015.06366        -1.93818         6.38336
     2015.06640        -3.97391         6.14318
     2015.06914        -6.92565         6.21590
     2015.07735       -10.52887         5.30878
     2015.08556        -3.36208         5.80540
     2015.10473         2.87175         5.85803
     2015.10746         8.88901         6.01209
     2018.55168         1.76397         5.28007
     2018.55442         5.88823         5.41212
     2018.55716         3.16450         5.19395
     2018.55990         3.14876         5.39490
     2018.56263         4.69302         5.40638
     2018.56537         8.98428         5.30974
     2018.56811         5.44354         5.28486
     2018.57085        -2.07820         5.24276
     2018.57358         2.91806         5.35950
     2018.57632        -3.21067         5.44849
     2018.57906        -2.86741         5.49154
     2018.58180         3.05885         5.43700
     2018.58454         7.35711         5.53460
     2018.58727         9.09337         5.24945
     2018.59001         6.75363         5.21788
     2018.59275         7.21890         5.26763
     2018.59549         7.05316         5.26763
     2018.59823         2.54642         5.24180
     2018.60096         2.97668         5.20735
     2018.60370         2.96894         5.25519
     2018.60644         3.75020         5.25902
     2018.60918         5.86046         5.31356
     2018.61191         9.37473         5.43317
     2018.61465         6.93699         5.35184
     2018.61739         9.37725         5.48485
     2018.62013        12.63151         5.71546
     2018.62287        11.83677         5.42743
     2018.62560         5.56003         5.35662
     2018.62834         0.92129         5.26955
     2018.63108         9.77956         5.38437
     2018.63382        11.27482         5.78818
     2018.63656         6.53608         5.48102
     2018.63929        12.58934         5.88004
     2018.64203         5.48360         5.76713
     2018.64477        12.37186         6.51637
     2018.64751        10.33913         6.09916
     2018.65024        12.37239         5.73746
     2018.65298         8.14165         5.23893
     2018.65572         5.84991         5.56331
     2018.65846        10.11917         5.89152
     2018.66120         9.02743         6.92591
     2018.66393        10.69969         6.67521
     2018.66667        10.86396         7.96413
     2018.66941        12.21022         8.02250
     2018.67215        14.64948         8.52199
     2018.67488         4.52774         8.45979
     2018.68036         6.58926         9.56977
     2018.68857        16.52605         8.52008
     2018.69405        10.30057        10.16017
