# ================= DQRFIT RESULTS ================
# INPUT FILE: series/MTCL.rad
# OUTPUT: LDETRENDED
# FILTER FUNCTION: f(t)
# f(t)=+line(t)+annual(t)
# line(t)=+P 1+P 2*t
# annual(t)=+P 3*sin(2*pi*t+P 4)
# heav(t)=(t<0?0:1)
# TOTAL OBSERVATIONS MTOT= 1516
# INITIAL TIME INTERVAL= 2022.7488 - 2017.6673 =  5.0815
# TOTAL OBSERVATIONS AFTER PREFILTER M= 1513
# TIME-SPAN= 2022.7488 - 2017.6673 =  5.0815
# OBSERVATIONS: USED M=  1513 REJECTED MTOT-M=     3 %USED=   99.8021
# N=  4 PARAMETERS
# MAXSIG= 175.00000
# MAXRES=  18.05092
# SCALE FACTOR FOR LENGTHS: SCL=  10.00000
# SCALE FACTOR FOR SIGMAS: SCLSIG=   1.00000
# CHI^2=   1217.127 DOF=  1509 CHI^2/DOF=   0.80658
# RMS=      5.050 SDEV=      5.051 MEAN=    0.00513
#  P #       PARAMETER +-    SIGMA %error PARAMETER NAME
# P 1 =      1658.73052 +-  170.711  10.29 YZERO                              
# P 2 =        -0.82231 +-    0.084  10.28 SLOPE                              
# P 3 =         2.70006 +-    0.180   6.68 ANNUAL AMPLITUDE                   
# P 4 =         2.86109 +-    0.091   3.17 ANNUAL PHASE                       
#       T            LDETRENDED       SIG_OBS
     2017.66735         2.64741         4.90361
     2017.67008         3.68366         4.77608
     2017.67282         5.31791         5.00869
     2017.67556        -2.15884         4.89104
     2017.67830         0.00941         4.83356
     2017.68104         1.04766         4.81201
     2017.68377         3.48692         4.88834
     2017.68651         7.54217         5.09940
     2017.68925         6.45142         4.97815
     2017.69199         0.99167         4.92247
     2017.69472         2.64692         4.80392
     2017.69746         6.38517         4.95480
     2017.70020         4.37142         5.02216
     2017.70294         6.17668         5.08772
     2017.70568        -0.72107         5.01498
     2017.70841         6.17118         4.81021
     2017.71115         3.56443         4.88206
     2017.71389         6.96368         4.96827
     2017.71663        12.77193         4.85511
     2017.71937        10.11218         4.95031
     2017.72210         5.43643         4.83805
     2017.72484        -0.75231         4.82188
     2017.72758         0.64394         4.84434
     2017.73032         3.87719         4.86948
     2017.73305         2.42944         4.88745
     2017.73579         2.77069         4.87218
     2017.73853         0.97194         4.85062
     2017.74127         0.83819         4.87128
     2017.74401         6.40245         5.09491
     2017.74674         1.81470         4.87936
     2017.74948         9.08595         4.90361
     2017.75222        -1.80480         5.04192
     2017.75496         6.49845         4.82727
     2017.75770         0.95670         4.94941
     2017.76043        -1.56605         4.85242
     2017.76317         2.92321         4.83446
     2017.76591         4.22846         4.94762
     2017.76865         0.67871         4.85691
     2017.77138         0.22896         4.89553
     2017.77412         1.52421         4.85332
     2017.77686        -1.55154         4.90271
     2017.77960         3.84571         4.92247
     2017.78234         0.39897         4.82278
     2017.78507        -2.08978         4.91978
     2017.78781        -3.31353         4.82099
     2017.79055        -0.63128         4.80033
     2017.79329         5.21597         4.86230
     2017.79603         1.78122         4.88655
     2017.79876        19.28047         5.03653
     2017.80150         7.74472         5.07245
     2017.80424         7.64798         4.84164
     2017.80698         9.71523         4.94223
     2017.80971        -5.00052         4.87397
     2017.81245        -3.45727         4.83176
     2017.81519         0.58998         4.86589
     2017.81793        -3.67277         4.87397
     2017.82067        -2.19952         4.92876
     2017.82340        -0.57526         4.82548
     2017.82614        -0.65301         4.83087
     2017.82888        -2.12476         4.88026
     2017.83162         2.43049         4.82997
     2017.83436         2.37174         5.03294
     2017.83709         0.67699         4.98893
     2017.83983        -1.62176         4.87218
     2017.84257        -3.42450         4.91798
     2017.84531        -1.26125         4.89194
     2017.84804        -8.30900         4.87128
     2017.85078         1.08525         4.83446
     2017.85352         3.96450         5.04551
     2017.85626         2.75875         5.13263
     2017.85900         2.25800         5.08503
     2017.86173         0.45625         5.00150
     2017.86447         4.33351         4.84344
     2017.86721         4.20576         5.10389
     2017.86995         0.42201         4.99881
     2017.87269         5.95126         4.92966
     2017.87542         4.89451         4.94492
     2017.87816         3.86576         4.99342
     2017.88090         1.42701         4.88565
     2017.88364         0.23127         4.89553
     2017.88637        11.82952         5.02755
     2017.88911         9.09377         5.03743
     2017.89185        10.68802         5.07874
     2017.89459         6.16327         5.02216
     2017.89733         0.43152         4.88745
     2017.90006         4.16577         4.98354
     2017.90280        -5.34097         5.13801
     2017.90554         3.43028         4.94223
     2017.90828         4.16453         4.94762
     2017.91102         0.86078         4.98085
     2017.91375        -4.11697         5.00330
     2017.91649        -1.44172         4.91080
     2017.91923         1.09653         4.89732
     2017.92197         9.26879         4.89194
     2017.92470        -2.56796         4.90810
     2017.92744        -6.52771         4.92876
     2017.93018        -3.74046         4.87038
     2017.93292        -6.31921         4.87667
     2017.93566        -3.45496         4.85871
     2017.93839        -2.19371         4.88385
     2017.94113        -5.27946         4.90810
     2017.94387        -1.78220         4.89104
     2017.94661         0.71705         4.84883
     2017.94935         4.65830         4.87667
     2017.95208        -2.29945         5.00061
     2017.95482        -2.71920         4.88116
     2017.95756         1.34705         4.90451
     2017.96030         5.95530         4.91439
     2017.96303         4.34456         4.86948
     2017.96577        11.22881         4.99073
     2017.96851         4.73006         5.00779
     2017.97125         0.27831         4.77608
     2017.97399         2.80456         4.86859
     2017.97672        -5.04319         4.86230
     2017.97946        -1.70094         4.88924
     2017.98220        -1.43668         4.79404
     2017.98494        -5.81743         4.75004
     2017.98767        -7.84118         4.79853
     2017.99041        -5.93993         4.90181
     2017.99315         5.75832         4.92786
     2017.99589         1.75557         4.91169
     2017.99863        -3.38918         4.81290
     2018.00136        -8.77793         4.80751
     2018.00410        -8.33067         4.85511
     2018.00684        -4.42842         4.85691
     2018.00958        -2.49217         4.95480
     2018.01232         6.06708         4.87128
     2018.01505        -6.89167         4.95840
     2018.01779         0.49258         4.85960
     2018.02053        -3.68417         4.98983
     2018.02327        10.85809         4.89194
     2018.02600         0.50434         4.84434
     2018.02874         5.67259         4.90361
     2018.03148        -4.67616         4.86948
     2018.03422        -6.19391         4.84703
     2018.03696        -8.90966         4.85960
     2018.03969        -3.63841         4.83805
     2018.04243        -6.18815         5.00330
     2018.04517        -6.04090         5.08592
     2018.04791        -3.29465         4.95480
     2018.05065        -0.16440         4.90900
     2018.05338        -1.34115         4.85332
     2018.05612        -0.97090         4.83625
     2018.05886        -4.76465         4.74016
     2018.06160        -3.13439         4.85062
     2018.06433         8.52286         5.10299
     2018.06707        -0.63889         5.03473
     2018.06981         0.86236         4.89104
     2018.07255        -9.44239         4.87667
     2018.07529        -9.83314         4.94223
     2018.07802       -11.20489         4.95480
     2018.08076        -3.54164         5.00599
     2018.08350        -4.55138         4.93325
     2018.08624        -6.44013         4.85062
     2018.08898        -4.95888         4.94133
     2018.09171        -1.15463         4.92606
     2018.09445        -6.80738         4.90002
     2018.09719        -0.15313         5.31045
     2018.09993        -5.32688         5.10029
     2018.10266        -7.97162         4.88655
     2018.10540        -4.13837         4.95929
     2018.10814        -5.13012         4.89104
     2018.11088        -3.97487         4.91080
     2018.11362        -0.85362         4.84973
     2018.11635        -4.73837         4.92696
     2018.11909        -6.44112         4.98534
     2018.12183        -2.59686         5.01498
     2018.12457         0.68139         4.89643
     2018.12731        -7.89936         4.96558
     2018.13004        11.06289         4.94852
     2018.13278        10.10114         4.86499
     2018.13552         2.47839         4.81380
     2018.13826        -1.93736         4.86769
     2018.14099        -1.73210         4.87218
     2018.14373        -5.08085         4.81290
     2018.14647         1.16840         5.05180
     2018.14921        -0.85235         4.91798
     2018.15195         0.20890         4.89553
     2018.15468        -0.31685         4.93415
     2018.15742        -1.73260         4.87846
     2018.16016        -6.05535         4.92606
     2018.16290        -3.64209         5.12275
     2018.16564         0.80116         5.82057
     2018.16837        -2.05759         4.91169
     2018.17111        -2.49834         4.87577
     2018.17385        -6.07709         4.88924
     2018.17659        -2.43584         4.87577
     2018.17932        -1.22759         4.96199
     2018.18206        11.70767         5.14789
     2018.18480         8.48992         5.03922
     2018.18754        -1.39383         4.89104
     2018.19028        -5.75558         4.85871
     2018.19301        -1.15933         4.91888
     2018.19575         8.17792         5.04192
     2018.19849         2.32917         4.84703
     2018.20123         9.21243         4.90451
     2018.20397         6.05368         4.87846
     2018.20670         7.37693         4.82907
     2018.20944         3.12218         4.89014
     2018.21218        -2.57857         4.86859
     2018.21492       -10.21832         4.82368
     2018.21765         0.56293         4.80392
     2018.22039        -2.60982         4.81829
     2018.22313         0.91444         4.82997
     2018.22587        -4.73331         4.85152
     2018.22861        -5.38606         4.76351
     2018.23134        -2.58881         4.71771
     2018.23408        -8.98756         4.80302
     2018.23682        -2.88331         4.87487
     2018.23956        -8.17406         4.84883
     2018.24230        -4.31580         4.77698
     2018.24503        -4.37255         4.79494
     2018.24777        -1.33430         4.75183
     2018.25051         0.23695         4.85152
     2018.25325        -2.43980         4.76890
     2018.25598        -4.77255         4.77698
     2018.25872        -0.07030         4.87397
     2018.26146         0.54296         4.84434
     2018.26420        -3.99979         5.07335
     2018.26694         2.68146         4.74644
     2018.26967        -7.82929         4.75453
     2018.27241         4.09496         4.88206
     2018.27515         3.77221         4.81201
     2018.27789         4.14546         4.90002
     2018.28062        -1.83528         5.00510
     2018.28336        -8.13203         4.81111
     2018.28610        -1.66778         4.72309
     2018.28884        11.81347         4.71321
     2018.29158         4.43772         4.83805
     2018.29431        -3.27403         4.82458
     2018.29705        -1.32678         4.73567
     2018.29979        -3.97153         4.79674
     2018.30253        -8.53427         4.81380
     2018.30527        -5.42702         4.68807
     2018.30800        -3.29377         4.73387
     2018.31074        -5.10652         4.67549
     2018.31348        -4.99827         4.74734
     2018.31622        -5.50402         4.74195
     2018.31895         0.29023         4.97726
     2018.32169         1.67749         4.69974
     2018.32443        -3.05626         4.68807
     2018.32717        -4.27401         4.80841
     2018.32991        -1.00576         4.88565
     2018.33264        -0.19651         4.75183
     2018.33538        -3.29426         4.92606
     2018.33812        -4.64701         4.86589
     2018.34086        -0.84775         4.77788
     2018.34360         0.52350         4.82278
     2018.34633        -2.91025         4.91529
     2018.34907        -0.51900         4.78596
     2018.35181        -0.34275         4.87936
     2018.35455        -0.40250         4.75992
     2018.35728         0.85375         4.70783
     2018.36002         3.82600         4.74644
     2018.36276         2.06026         4.82727
     2018.36550        -1.19849         4.82548
     2018.36824         1.14276         5.02036
     2018.37097        -2.24499         4.77788
     2018.37371        -2.34574         4.87667
     2018.37645        -5.52249         4.95570
     2018.37919         3.72276         4.77339
     2018.38193        -2.34498         4.80572
     2018.38466         4.33327         4.71052
     2018.38740        -0.00748         4.81739
     2018.39014         3.73877         4.85511
     2018.39288         0.61702         4.85511
     2018.39561         7.00427         4.80213
     2018.39835         3.07052         4.73567
     2018.40109        -1.12122         4.71142
     2018.40383        -0.83497         4.86140
     2018.40657         2.99228         4.78686
     2018.40930         7.02753         4.95750
     2018.41204         6.94078         4.77878
     2018.41478        -4.69497         4.75004
     2018.42299        -2.75021         4.94133
     2018.42573         3.58704         4.79225
     2018.42847        -2.17571         4.82368
     2018.43121         5.21954         4.82458
     2018.43394        -1.25621         4.88116
     2018.43668        -6.12896         4.88475
     2018.43942         2.29729         5.28889
     2018.44216        -4.98345         4.84973
     2018.44490        -3.54520         4.74824
     2018.44763         3.24805         4.80123
     2018.45037        -5.15670         4.73567
     2018.45311         1.80755         4.78057
     2018.45585         5.96680         4.84344
     2018.45859         3.92905         4.84973
     2018.46132        -0.36769         5.01138
     2018.46406         0.00256         4.71232
     2018.46680        -2.40919         4.77429
     2018.46954        -4.60494         4.92966
     2018.47227        -5.62669         4.92606
     2018.47501         3.67156         4.82009
     2018.47775         4.05481         4.76081
     2018.48049         6.17507         4.94133
     2018.48323        -2.72468         4.80841
     2018.48596         1.01857         4.81650
     2018.48870         3.62882         4.87667
     2018.49144         2.43407         4.76620
     2018.49418         4.33332         4.85152
     2018.49692        -1.13443         5.01767
     2018.49965         8.28483         4.77429
     2018.50239         1.12708         4.74465
     2018.50513        -0.06667         4.75543
     2018.50787         1.94358         4.82458
     2018.51060         0.54483         4.96109
     2018.51334         3.50308         4.79315
     2018.51608         4.71733         4.74914
     2018.51882         1.61258         4.72758
     2018.52156        -4.31916         4.79315
     2018.52429         4.91209         5.50174
     2018.52703         0.27534         4.84074
     2018.52977        -0.26641         4.74285
     2018.53251         3.56184         4.80841
     2018.53525         4.86609         4.80302
     2018.53798         0.06934         4.83985
     2018.54072         1.49760         4.78506
     2018.54346         0.84685         4.75183
     2018.54620         3.70710         4.74644
     2018.54893         5.44335         4.72399
     2018.55167         1.07260         4.73028
     2018.55441        -0.43115         4.76890
     2018.55715         5.58010         4.89014
     2018.55989         1.27736         4.96289
     2018.56262        -0.09339         4.81560
     2018.56536        -2.90314         4.86140
     2018.56810         5.33511         5.19280
     2018.57084         4.58936         4.85601
     2018.57357         1.22061         4.87038
     2018.57631        -1.74614         4.93954
     2018.57905        -0.27589         5.00599
     2018.58179         5.67937         4.89014
     2018.58453         3.81662         4.88745
     2018.58726         5.81287         4.75183
     2018.59000         2.23712         4.78506
     2018.59274         5.58637         4.74106
     2018.59548         9.01362         4.86409
     2018.59822         6.67887         4.73567
     2018.60095         3.59513         4.77608
     2018.60369         7.25038         4.74644
     2018.60643         2.74363         4.79494
     2018.60917        -3.18712         4.84254
     2018.61190         5.22613         4.71950
     2018.61464         4.51338         4.76441
     2018.61738         2.64363         4.79225
     2018.62012         6.12689         4.75183
     2018.62286        13.04414         4.95211
     2018.62559         8.07839         4.99342
     2018.62833         0.23064         4.77698
     2018.63107         2.92389         4.80213
     2018.63381         3.57414         5.38320
     2018.63655         1.80039         4.71411
     2018.63928         2.94065         4.96378
     2018.64185        -0.17824         5.35266
     2018.64541       -12.87132        15.20658
     2018.64750         7.61040         4.76800
     2018.65023         8.87265         5.00869
     2018.65326         9.29114         5.56102
     2018.65571         5.42215         4.76890
     2018.65845         5.70940         4.84434
     2018.66119        10.93666         5.11287
     2018.66392         5.39591         4.99522
     2018.66666         3.33616         4.74285
     2018.66940         3.44241         4.86230
     2018.67214         0.63566         4.72579
     2018.67488         1.15291         5.22244
     2018.67761         6.18816         4.88475
     2018.68035        -0.13458         4.87128
     2018.68309        -3.43433         4.87846
     2018.68583        -1.73008         4.80841
     2018.68856         1.96217         4.79494
     2018.69130         4.34542         4.84074
     2018.69404         1.72867         4.91259
     2018.69678         2.59492         4.71501
     2018.69826        13.65414        16.46212
     2018.72963        -2.72406         4.91708
     2018.73214        -2.49400         5.30416
     2019.49623         0.29433         4.75093
     2019.49897        -4.17242         4.79315
     2019.50171         0.36883         4.68717
     2019.50444        -5.52092         4.76351
     2019.50718        -1.75467         4.76979
     2019.50992        -4.93342         4.82188
     2019.51266        -4.73117         4.80033
     2019.51540        -0.77892         4.72938
     2019.51813        -6.73866         4.76710
     2019.52087        -1.68841         4.81021
     2019.52361        -4.63016         4.90631
     2019.52635        -3.72691         4.83625
     2019.52908        -1.15566         4.96289
     2019.53182        -6.62141         4.96468
     2019.53456        -6.19716         4.93954
     2019.53730         1.13110         4.92966
     2019.54004         2.75135         4.90361
     2019.54277        -3.25140         5.05539
     2019.54551        -4.35215         5.15059
     2019.54825         4.36310         4.83356
     2019.55099        -2.07065         4.79045
     2019.55373        -0.87740         5.01138
     2019.55646         7.60086         4.96738
     2019.55920        -0.37489         5.09670
     2019.56091         6.75351         9.41116
     2019.56468        -0.60639         4.87577
     2019.56741        -9.28514         4.87757
     2019.57015        -2.73989         4.75992
     2019.57289        -0.09364         4.86859
     2019.57563         1.68162         4.76800
     2019.57837        -4.12213         4.89194
     2019.58110        -1.68188         4.89732
     2019.58384        -1.79263         4.97456
     2019.58658        -8.36138         4.87757
     2019.58932         1.05987         4.77788
     2019.59206         3.03112         4.97456
     2019.59479         1.12537         4.83176
     2019.59753        -2.40537         5.09580
     2019.60027        -0.30712         5.03833
     2019.60301        -0.94987         4.91439
     2019.60574        -0.82362         5.14969
     2019.60848         3.48063         5.02755
     2019.61122         1.82288         4.78596
     2019.61396        -2.94287         4.84164
     2019.61670        -0.09561         4.73836
     2019.61943        -0.00936         4.82637
     2019.62217         2.26089         4.87487
     2019.62491         1.20214         4.76800
     2019.62765         5.26339         4.78057
     2019.63039         7.94064         4.77429
     2019.63312        -2.08211         4.76171
     2019.63586         1.12015         4.85871
     2019.63860        -0.47760         4.84164
     2019.64134        -1.28935         4.93594
     2019.64407        -0.58610         4.82009
     2019.64681        -1.96685         4.83805
     2019.64955        -4.77460         4.84613
     2019.65229         2.08165         4.72130
     2019.65503        -2.88810         4.86320
     2019.65776        -0.64584         5.01138
     2019.66050         1.87641         4.89822
     2019.66324         0.46766         4.81739
     2019.66598         1.10491         4.81201
     2019.66872         2.13016         4.81829
     2019.67145        -4.96859         4.82817
     2019.67419         0.85066         4.79764
     2019.67693        -3.43608         4.95211
     2019.67967        -7.61983         5.17214
     2019.68240        -4.14558         4.87218
     2019.68514        -0.53433         4.85601
     2019.68788         7.93492         4.91888
     2019.69062         3.26417         4.86948
     2019.69336        -1.61458         4.76979
     2019.69609         0.87168         4.77069
     2019.69883        -9.54607         4.84523
     2019.70157        -2.29082         4.83895
     2019.70431        -5.08057         4.94762
     2019.70705         1.08768         4.84793
     2019.70978        -0.33207         4.79764
     2019.71252         4.27418         4.94852
     2019.71526         1.65844         4.74195
     2019.71800        -0.04131         4.97815
     2019.72073         3.03494         4.93055
     2019.72347        -1.17681         4.77967
     2019.72621        -3.12356         4.83985
     2019.72895        -1.90631         4.81201
     2019.73169        -0.54906         4.82099
     2019.73442        -0.15181         4.84254
     2019.73716         3.02545         4.87936
     2019.73990         3.57570         4.92966
     2019.74264         3.48195         4.85152
     2019.74538         1.63820         4.75093
     2019.74811         2.80345         4.86409
     2019.75085         0.87670         4.87936
     2019.75359         1.44395         4.96738
     2019.75633        -0.22779         4.84164
     2019.75906        -1.21054         4.79045
     2019.76180        -2.71229         4.77429
     2019.76454        -0.86504         4.82548
     2019.76728        -1.82079         4.98085
     2019.77002        -3.03054         4.82368
     2019.77275        -1.81129         4.97636
     2019.77549         1.61297         4.85691
     2019.77823        -1.06778         4.88295
     2019.78097         1.09347         4.92157
     2019.78371         4.09772         4.83625
     2019.78644        -0.66003         4.89014
     2019.78918         1.94522         4.95480
     2019.79192        11.26847         4.93954
     2019.79466         6.38773         4.95480
     2019.79739         7.93398         4.93594
     2019.80013         6.11423         4.87936
     2019.80287         3.65248         4.89463
     2019.80561         1.47773         5.10389
     2019.80835        -3.22202         4.94492
     2019.81108        -0.59077         4.91349
     2019.81382         2.32248         4.84344
     2019.81656         3.01274         4.96468
     2019.81930         0.26099         4.88116
     2019.82203        -6.39076         4.90181
     2019.82477        -1.33351         4.89732
     2019.82751        -2.37026         4.89194
     2019.83025         0.98099         4.97366
     2019.83299         0.44424         4.93235
     2019.83572        -0.24450         4.93055
     2019.83846         2.83175         4.90541
     2019.84120         2.70300         4.87667
     2019.84394         1.69225         5.01857
     2019.84668        -2.10750         4.86050
     2019.84941         0.60875         4.90451
     2019.85215         1.63300         4.95390
     2019.85489         1.68426         4.94043
     2019.85763        -1.55049         4.94313
     2019.86036        -2.05224         5.00510
     2019.86310        -4.44199         4.91978
     2019.86584         4.94526         4.97726
     2019.86858         5.97951         4.96558
     2019.87132        -1.42324         5.00420
     2019.87405         1.50901         4.89104
     2019.87679        -1.51973         4.97546
     2019.87953         5.40752         4.87308
     2019.88227        14.67377         4.92786
     2019.88501         6.88502         4.90541
     2019.88774         6.22227         4.96738
     2019.89048        10.47952         4.82278
     2019.89322        11.93977         4.83985
     2019.89596         0.65303         4.87038
     2019.89869         5.22728         4.99971
     2019.90143         4.28653         4.88026
     2019.90417        10.51078         4.83266
     2019.90691         3.93103         4.81380
     2019.90965         6.37628         4.78416
     2019.91238        10.06153         4.85062
     2019.91512        12.16879         5.02036
     2019.91786         8.86404         4.78776
     2019.92060         7.94329         4.81829
     2019.92334         6.56654         4.86409
     2019.92607         6.02379         4.84703
     2019.92881         9.52604         4.95750
     2019.93155        15.00929         4.95480
     2019.93429         5.07155         4.83625
     2019.93702         3.70880         4.87397
     2019.93976         5.61105         4.86769
     2019.94250         1.11430         4.88834
     2019.94524         2.71855         4.90631
     2019.94798        -0.72220         4.90631
     2019.95071         0.55005         5.06527
     2019.95345         4.00630         4.83625
     2019.95619         4.74556         4.87487
     2019.95893         0.29381         4.91439
     2019.96167         4.10206         4.92786
     2019.96440         4.40231         5.01947
     2019.96714        19.31356         5.07694
     2019.96988        13.05781         5.01857
     2019.97262         1.87706         4.85422
     2019.97535         4.74532         4.90720
     2019.97809        -1.49643         4.85242
     2019.98083         1.34882         4.89553
     2019.98357        -1.03493         4.80751
     2019.98631        -0.53668         4.89014
     2019.98904        -1.10243         4.93774
     2019.99178        -1.05818         4.92247
     2019.99452        -1.16792         4.87218
     2019.99726         3.58533         5.02755
     2020.00000        13.04458         4.97276
     2020.00273         4.09983         4.88026
     2020.00547         7.42508         5.10119
     2020.00821        -0.26767         5.12454
     2020.01095         3.72558         5.00510
     2020.01368        -3.53717         4.93594
     2020.01642        -2.35591         5.09670
     2020.01916         1.58234         4.93504
     2020.02190         1.17859         5.03384
     2020.02464        -2.47016         5.02396
     2020.02737         1.90609         4.99342
     2020.03011        -0.07666         4.86589
     2020.03285       -10.44341         4.96648
     2020.03559        -2.15915         4.83176
     2020.03833        -2.02190         4.86948
     2020.04106        -2.26965         4.96289
     2020.04380         1.00460         4.91439
     2020.04654        -3.59515         4.77967
     2020.04928        -3.86590         4.90900
     2020.05201        -3.14765         4.98175
     2020.05475         6.12761         5.01408
     2020.05749         0.81086         4.83087
     2020.06023        -1.82089         4.86589
     2020.06297         4.84036         4.92157
     2020.06570         3.34461         5.07515
     2020.06844         2.82786         4.95660
     2020.07118         1.50411         4.83625
     2020.07392         3.81737         4.93684
     2020.07666        -1.46538         4.82817
     2020.07939        -2.75813         4.85871
     2020.08213        -1.26588         4.88295
     2020.08487         2.13337         4.88924
     2020.08761        -1.25038         4.83715
     2020.09034         0.24487         4.86499
     2020.09308        -1.83888         4.82727
     2020.09582         2.30838         4.84523
     2020.09856        -0.75037         4.94582
     2020.10130        -4.12712         4.90092
     2020.10403         2.11013         4.92966
     2020.10677        -5.90362         4.82278
     2020.10951        -7.28537         4.83895
     2020.11225        -2.42612         4.86948
     2020.11498        -1.94386         4.85242
     2020.11772        -3.12661         4.88655
     2020.12046        -6.87836         4.96558
     2020.12320        -4.16611         4.77339
     2020.12594       -10.00186         4.91708
     2020.12867        -7.92961         4.81560
     2020.13141        -6.56836         4.79045
     2020.13415        -7.82010         4.72938
     2020.13689        -7.51385         4.87757
     2020.13963        -2.45960         4.90541
     2020.14236        -2.51135         4.79404
     2020.14510        -2.24110         5.01857
     2020.14784        -7.69285         4.78776
     2020.15058        -7.77960         4.81739
     2020.15331        -9.86034         4.83985
     2020.15605        -8.36509         4.82637
     2020.15879        -2.19384         4.91708
     2020.16153        -2.71859         4.85242
     2020.16427         0.87766         4.81829
     2020.16700        -6.22809         4.89104
     2020.16974        -1.43684         4.81919
     2020.17248        -1.95559         4.81111
     2020.17522        -3.49033         4.83536
     2020.17796         3.53392         4.88385
     2020.18069        -1.95283         4.80392
     2020.18343        -2.87858         4.79494
     2020.18617        -1.94433         4.83715
     2020.18891        -2.65908         4.92247
     2020.19164        -3.01083         4.94672
     2020.19438        -5.19257         4.91080
     2020.19712        -5.07732         4.90631
     2020.19986        -5.08007         4.96738
     2020.20260        -6.63882         4.84793
     2020.20533        -3.72457         4.89014
     2020.20807        -1.68432         4.94941
     2020.21081        -6.20207         4.96199
     2020.21355        -6.87581         5.40655
     2020.21629        -3.89056         5.18921
     2020.21902        -7.36431         4.99522
     2020.22176        -2.92206         4.86679
     2020.22450        -0.19981         4.95031
     2020.22724         1.34444         4.86050
     2020.22997         1.40469         4.86320
     2020.23271        -0.33406         4.86320
     2020.23545        -1.95480         4.94672
     2020.23819        -2.92555         4.87487
     2020.24093        -2.07130         4.87577
     2020.24366         4.25595         4.98264
     2020.24640        -0.14880         4.90631
     2020.24914        -6.06055         4.85871
     2020.25188        -6.05430         4.89373
     2020.26557        -1.94204         4.95480
     2020.26830        -3.70479         4.85332
     2020.27104        -2.05854         4.88655
     2020.27378        -6.91928         5.03563
     2020.27652        -7.38403         5.01228
     2020.27926        -1.37278         4.89822
     2020.28199        -3.02953         4.96019
     2020.28473        -5.10328         4.88385
     2020.28747        -3.73003         5.02485
     2020.29021        -2.61778         4.88026
     2020.29295        -4.80152         4.88295
     2020.29568         5.97273         4.85960
     2020.29842         1.54898         4.87218
     2020.30116         0.98023         4.84703
     2020.30390         1.02048         4.90092
     2020.30663        -3.68327         4.89373
     2020.30937         0.23598         5.06796
     2020.31211        -6.46477         5.05808
     2020.31485        -8.14951         4.91618
     2020.31759        -0.04626         4.88026
     2020.32032        -2.42201         4.93145
     2020.32306        -1.41476         4.83176
     2020.32580        -1.59151         4.87038
     2020.32854        -3.13526         4.84703
     2020.33128        -3.18601         4.85242
     2020.33401         0.45425         4.84703
     2020.33675         3.14950         4.80033
     2020.33949        -2.14425         4.93774
     2020.34223        -1.27100         4.91439
     2020.34496        -3.88775         4.96468
     2020.34770        -4.11250         4.86320
     2020.35044        -9.45725         4.89104
     2020.35318        -7.31299         4.88295
     2020.35592        -0.67274         4.90271
     2020.35865        -5.49149         4.89373
     2020.36139        -1.62324         4.93415
     2020.36413         2.89801         4.84254
     2020.36687        -4.19074         4.90002
     2020.36961         0.24551         4.84434
     2020.37234         1.04076         4.81111
     2020.37508         4.67302         4.99612
     2020.37782         5.54927         4.92876
     2020.38056       -11.19848         4.84164
     2020.38329        -3.10023         4.84074
     2020.38603        -3.88298         4.84434
     2020.38877         1.34927         4.91349
     2020.39151        -1.39448         4.82009
     2020.39425        -3.42822         4.93055
     2020.39698        -6.44397         4.77698
     2020.39972        -9.25172         4.80033
     2020.40246        -5.10947         4.82368
     2020.40520        -5.07322         4.84883
     2020.40794        -5.18097         4.93954
     2020.41067        -0.20572         5.10389
     2020.41341        -7.81346         4.82637
     2020.41615        -3.14621         4.84164
     2020.41889        -9.76696         4.79584
     2020.42162        -8.29071         4.88834
     2020.42436        -8.20046         5.06617
     2020.42710        -3.30221         5.07964
     2020.42984        -2.14996         4.88385
     2020.43258         0.92430         4.81560
     2020.43531        -7.03745         4.84434
     2020.43805        -2.54620         4.94941
     2020.44079        -0.18395         4.93774
     2020.44353        -3.47070         5.10838
     2020.44626        -5.50645         4.86859
     2020.44900        -4.00820         4.86679
     2020.45174        -0.09095         4.87936
     2020.45448        -5.06569         4.82727
     2020.45722        -3.05944         4.81111
     2020.45995        -1.84519         4.76261
     2020.46269        -6.11894         4.78506
     2020.46543         0.17931         4.82997
     2020.46817         0.01756         4.76800
     2020.47091        -2.70719         4.78416
     2020.47364        -5.79993         4.83536
     2020.47638        -0.89568         4.87128
     2020.47912         0.15757         4.87667
     2020.48186         1.62982         4.78686
     2020.48459        -2.38193         4.83805
     2020.48733         4.66032         5.14700
     2020.49007        -1.41743         5.00599
     2020.49281         7.81883         4.90900
     2020.49555        -0.98492         4.86769
     2020.49828         1.36333         4.78327
     2020.50102         0.48558         4.76261
     2020.50376        -7.75517         4.79764
     2020.50650        -3.77792         4.80482
     2020.50924        -6.49967         4.74734
     2020.51197        -5.52041         4.79135
     2020.51471         0.51884         4.80751
     2020.51745         1.38509         4.75543
     2020.52019         2.96434         4.90631
     2020.52292        -0.11441         4.87936
     2020.52566        -2.21216         4.90990
     2020.52840        -4.52491         4.95031
     2020.53114        -7.03666         4.96199
     2020.53388        -2.32440         4.88116
     2020.53661        -5.52815         4.93235
     2020.53935        -4.02990         4.87308
     2020.54209        -0.63865         4.95660
     2020.54483        -2.35040         4.86589
     2020.54757         0.08785         4.87577
     2020.55030        -2.89490         4.92247
     2020.55304        -1.00964         4.91439
     2020.55578         4.40861         4.94672
     2020.55852         5.26086         4.96917
     2020.56125        -0.83789         4.83895
     2020.56399         1.51136         4.91618
     2020.56673        -3.97639         4.80841
     2020.56947         0.10586         4.93235
     2020.57221         7.02212         5.20807
     2020.57494         0.14137         5.01048
     2020.57768         1.17962         5.01318
     2020.58042         2.81687         4.94313
     2020.58316        -6.04988         4.91708
     2020.58590        -7.69663         4.90271
     2020.58863        -3.69638         4.98264
     2020.59137         2.77387         4.86859
     2020.59411         7.43413         4.85781
     2020.59685        -5.09762         5.11107
     2020.59958        -4.64437         4.95031
     2020.60232        -3.06812         4.86859
     2020.60506         0.12113         4.89553
     2020.60780         1.93438         4.85242
     2020.61054         7.63463         4.87397
     2020.61327         8.30789         4.90361
     2020.61601        -3.18186         4.89283
     2020.61875        -2.50561         4.88206
     2020.62149        -0.19436         4.97995
     2020.62423         1.80089         4.97007
     2020.62696        -7.94586         5.04551
     2020.62970         1.18839         4.91618
     2020.63244         1.46865         4.93774
     2020.63518         4.28390         5.00420
     2020.63791         5.48915         5.01587
     2020.64065        -2.88660         5.00150
     2020.64339        -5.77235         4.90271
     2020.64613         1.06390         4.89822
     2020.64887         2.50315         4.98803
     2020.65160         0.33241         4.91439
     2020.65434         0.85466         4.97097
     2020.65708        -1.74809         4.89194
     2020.65982         2.46316         4.90092
     2020.66256         1.12241         4.91169
     2020.66529         5.69966         4.89463
     2020.66803         2.30691         4.88834
     2020.67077         5.37216         4.93235
     2020.67351        -0.56458         4.93504
     2020.67624         4.38167         4.88295
     2020.67898        -2.88608         4.90002
     2020.68172        -1.23083         4.87218
     2020.68446         2.46342         4.95301
     2020.68720         0.83267         4.94672
     2020.68993         2.13892         4.90990
     2020.69267        -0.02282         4.96827
     2020.69541         1.73243         5.09131
     2020.69815        -0.03532         4.92606
     2020.70089         0.72393         4.92876
     2020.70362        -1.33882         4.90990
     2020.70636        -2.14057         5.09850
     2020.70910         2.94768         5.08233
     2020.71184         1.43494         4.98803
     2020.71457         6.70819         5.17394
     2020.71731        -0.30856         5.04371
     2020.72005        -0.69231         5.08682
     2020.72279         0.55094         4.89373
     2020.72553         2.96919         5.05359
     2020.72826         0.51444         5.14430
     2020.73100         2.44670         5.22603
     2020.73374         6.70095         4.95750
     2020.73648        -0.03880         5.00420
     2020.73921        -4.13055         4.90361
     2020.74195        -3.25430         4.86859
     2020.74469         0.85295         4.93594
     2020.74743         0.24820         4.91798
     2020.75017        -0.78955         4.92606
     2020.75290         0.60171         4.97905
     2020.75564        -2.46404         4.90720
     2020.75838         3.10421         4.82458
     2020.76112        -0.45154         4.88295
     2020.76386         1.49971         4.87667
     2020.76659        -0.31604         4.90092
     2020.76933         3.72321         4.93235
     2020.77207         1.05247         4.84793
     2020.77481         6.23872         4.92427
     2020.77754         4.30497         4.89732
     2020.78028         7.32722         5.14340
     2020.78302         6.13447         4.95301
     2020.78576         4.86072         4.89014
     2020.78850        -5.51403         4.89283
     2020.79123         1.45523         4.92517
     2020.79397         1.87548         4.91798
     2020.79671        -0.88727         5.06078
     2020.79945        -0.56102         4.97726
     2020.80219         2.77423         5.00599
     2020.80492         1.25648         4.89283
     2020.80766         0.47873         4.95390
     2020.81040         0.40098         4.98354
     2020.81314         3.36624         4.98983
     2020.81587        -0.48651         4.86589
     2020.81861         0.14174         4.90631
     2020.82135         2.49999         4.90541
     2020.82409         2.76624         4.89194
     2020.82683         1.64749         4.91888
     2020.82956        -0.99026         4.99701
     2020.83230         1.52500         4.97187
     2020.83504        -2.47075         5.03024
     2020.83778         4.24050         4.85960
     2020.84052         7.21075         4.86859
     2020.84325        -1.64200         5.05988
     2020.84599         9.21425         5.09491
     2020.84873         4.87950         5.01947
     2020.85147         3.51776         4.88026
     2020.85420         6.94601         4.76890
     2020.85694         3.51526         4.82368
     2020.85968         8.27851         4.92427
     2020.86242         8.90976         4.89643
     2020.86516         4.70801         4.98713
     2020.86789        13.05326         5.11107
     2020.87063        13.01452         4.95660
     2020.87337        12.00177         4.96468
     2020.87611        14.43002         5.15687
     2020.87885         1.50327         5.07694
     2020.88158        13.01052         5.16855
     2020.88432        12.13377         4.92876
     2020.88706         1.17802         5.09042
     2020.88980         3.21027         4.97726
     2020.89253         5.29753         4.87487
     2020.89527        10.29578         5.04102
     2020.89801         8.43203         5.05539
     2020.90075        10.71528         4.90361
     2020.90349         7.04753         4.86948
     2020.90622         3.85578         4.97007
     2020.90896         3.13803         5.11377
     2020.91170         5.22129         5.13263
     2020.91444        12.35554         5.02126
     2020.91718         1.89779         4.90002
     2020.91991        -3.17396         4.87577
     2020.92168        -1.71251         9.27196
     2020.92550        -2.79236         5.14789
     2020.92767        -4.32758         6.01366
     2020.93765       -20.45537       144.34489
     2020.93908         1.15280         4.91349
     2020.94182        -2.68795         4.87577
     2020.94455        -3.82870         4.97187
     2020.94729        -5.36845         4.89194
     2020.95003        -7.27220         4.96468
     2020.95277        -6.01294         4.90631
     2020.95551        -8.04569         4.94941
     2020.95824         1.11256         4.91349
     2020.96098        -0.19319         4.93684
     2020.96372        -4.03694         4.94313
     2020.96646         2.50231         4.99971
     2020.96919         2.39656         5.04731
     2020.97193         1.07982         4.81470
     2020.97467        -1.86193         4.97636
     2020.97741        -8.44368         5.01138
     2020.98015        -9.51943         5.10389
     2020.98288         2.26182         5.01048
     2020.98562        11.60507         4.86140
     2020.98836         6.88132         4.81021
     2020.99110         3.14258         4.82458
     2020.99384        -0.39117         4.85781
     2020.99657         2.05108         4.97546
     2020.99931         8.32533         4.84074
     2021.03450        13.96127         6.49594
     2021.04038        -8.03290         4.87487
     2021.04312        -0.92565         4.81290
     2021.04585        -1.77540         4.95211
     2021.04859        -2.98915         4.88565
     2021.05133        -3.82389         4.89194
     2021.05407         3.49836         5.07784
     2021.05681         0.80661         4.98264
     2021.05954        -3.85414         4.85152
     2021.06776         2.86061         4.79045
     2021.07049         2.39287         4.76890
     2021.07323        -0.70188         4.87038
     2021.07597        -0.66063         4.93594
     2021.07871        -0.85238         4.87577
     2021.08145        -0.20913         4.84523
     2021.08418        -0.93988         5.05539
     2021.08692        -8.79763         4.99162
     2021.08966        -2.94937         4.83087
     2021.09240        -3.43812         4.83895
     2021.09514        -6.61587         4.98175
     2021.09787        -8.40962         5.02485
     2021.10061        -5.24937         4.87128
     2021.10335        -6.46312         4.85871
     2021.10609        -0.18987         4.84883
     2021.10882         0.44638         4.84703
     2021.11156        -7.72436         4.83715
     2021.11430        -5.93111         4.85960
     2021.11704        -2.29886         4.81650
     2021.11978        -2.41761         4.82278
     2021.12251       -10.44136         4.85511
     2021.12525        -3.92911         4.86140
     2021.12799        -3.69086         4.84973
     2021.13073        -5.26260         4.86320
     2021.13347        -5.36735         4.87667
     2021.13620        -7.70110         4.92606
     2021.13894        -0.80885         4.83446
     2021.14168        -6.58260         4.82099
     2021.14442        -4.73535         4.91349
     2021.14715        -6.03410         4.97097
     2021.14989       -10.84984         4.88475
     2021.15166        -7.81239        10.42422
     2021.16358        -0.89059         4.91708
     2021.16632         0.96666         4.95211
     2021.16906         1.66091         4.88026
     2021.17180        -1.16183         4.83266
     2021.17453        -9.98758         4.99971
     2021.17727        -2.27533         4.98713
     2021.18001        -1.76508         4.93325
     2021.18275        -1.85283         5.08233
     2021.18548        -9.64058         4.90092
     2021.18822        -2.46033         4.82099
     2021.19079         4.16879         5.23411
     2021.19370        -9.75282         4.85062
     2021.19644        -6.03157         4.75183
     2021.19917        -6.28132         4.87757
     2021.20191         0.87593         4.83895
     2021.20465        -3.07482         4.85332
     2021.20739        -4.64957         4.80392
     2021.21013         0.92669         5.09221
     2021.21286        -5.13206         5.03833
     2021.21560        -5.12181         4.87397
     2021.21834        -6.30956         4.81470
     2021.22108        -4.92531         4.82548
     2021.22381        -8.14606         4.85242
     2021.22655        -4.54681         4.86679
     2021.22929         4.38745         4.91259
     2021.23203         2.62970         4.86859
     2021.23477        -6.69905         4.84254
     2021.23750        -3.95880         4.87757
     2021.24024        -2.13655         4.92966
     2021.24298        -2.44430         4.85601
     2021.24572       -10.12205         4.90720
     2021.25119        -1.99454         4.87936
     2021.25393        -5.70229         4.84883
     2021.25610        -2.02051         6.51929
     2021.26214        -1.53554         4.92517
     2021.26488        -2.18929         4.95211
     2021.26762         1.50696         4.98175
     2021.27036        -2.50478         4.90631
     2021.27310        -0.92353         4.89194
     2021.27583        -2.73528         4.90002
     2021.27857        -5.31403         4.90361
     2021.28131        -2.76378         4.92966
     2021.28405         0.49947         4.92427
     2021.28679        -2.33328         4.95840
     2021.28952         3.77598         4.95929
     2021.29226        -4.19577         4.90361
     2021.29500        -0.79252         4.94672
     2021.29774         2.83673         5.05000
     2021.30047         1.63898         4.91080
     2021.30321         4.16123         4.93684
     2021.30595         3.97048         5.05359
     2021.30869        10.35673         5.07156
     2021.31143         0.99499         4.82099
     2021.31416         6.76224         4.84164
     2021.31690         3.31349         4.88385
     2021.31964         2.56974         4.99701
     2021.33607         3.68525         5.94271
     2021.33880        -8.32350         4.89912
     2021.34154        -2.60125         4.89104
     2021.34428         2.05400         5.06706
     2021.34702        -9.34575         4.99073
     2021.34976        -0.47649         4.90990
     2021.35249        -5.36824         4.88924
     2021.35523        -4.00299         4.88385
     2021.35797        -5.18574         4.85781
     2021.36071        -4.30549         4.93415
     2021.37987        -2.96573         5.01408
     2021.38261        -2.86548         5.13442
     2021.38535        -4.18623         5.00510
     2021.38809         0.38102         4.94492
     2021.39082        -1.89872         4.91169
     2021.39333        -7.25566         5.25117
     2021.39630        -1.84222         5.01318
     2021.39904        -5.19197         4.90092
     2021.40177         4.97728         5.01498
     2021.40451        -0.87047         4.99881
     2021.40725        -1.28322         4.93954
     2021.40999         0.75504         4.90002
     2021.41273        -4.54571         4.89373
     2021.41546        -2.81046         4.90810
     2021.41820        -4.29421         4.91888
     2021.42094         1.83904         5.03653
     2021.42368        -1.80171         4.97995
     2021.42642        -0.62446         4.98534
     2021.42915         4.04280         4.94762
     2021.43189         1.96905         4.93684
     2021.43463        -6.80270         4.90810
     2021.43737        -3.23845         4.91708
     2021.44010        -2.99020         4.94313
     2021.44284        -3.82895         5.04371
     2021.44558        -0.81770         5.00869
     2021.44832         0.10756         5.01228
     2021.45106        -0.49519         5.15777
     2021.45379         2.04206         5.13442
     2021.45653        -2.77469         5.03204
     2021.45927         3.70256         4.91888
     2021.46201        -1.71019         4.93055
     2021.46475        -4.75794         4.97726
     2021.46748         2.19631         5.02575
     2021.47022        -3.74643         5.08772
     2021.47296         4.59982         5.20807
     2021.47570        -0.20193         5.09221
     2021.47843         1.32132         5.05808
     2021.48117        -3.03143         4.94852
     2021.48391        -0.48818         5.00510
     2021.48665        -1.95793         5.01408
     2021.48939        -6.09667         5.08413
     2021.49212        -0.51242         4.95211
     2021.49486         8.36983         5.10029
     2021.49760         9.64508         5.23231
     2021.50034         0.09933         5.16316
     2021.50308        -6.09742         5.09760
     2021.50581        -2.66917         5.12095
     2021.50855        -5.74191         5.16586
     2021.51129        -4.04966         5.15418
     2021.51403         5.00259         5.21166
     2021.51677        -0.79715         5.18292
     2021.51950        -5.12491         5.34009
     2021.52224        -1.24366         5.07605
     2021.52498         0.55159         5.14879
     2021.52772         2.88984         5.09131
     2021.53045         0.85410         4.98354
     2021.53319         1.88735         5.02755
     2021.53593        -3.78140         5.09491
     2021.53867         3.61985         5.34817
     2021.54141        -2.43890         5.13801
     2021.54414        -2.02165         5.07515
     2021.54688        -4.84740         5.16765
     2021.54962        -7.66414         5.03922
     2021.55509        -0.96264         5.10299
     2021.55783        -9.08939         5.20807
     2021.56057         3.67386         4.97276
     2021.56331         1.59611         5.01228
     2021.56605         0.85236         5.01318
     2021.56878        -0.65238         4.96019
     2021.57152        -4.31413         5.05898
     2021.57426        -7.44988         5.03114
     2021.57700         0.25437         5.19370
     2021.57974        -2.76238         5.02755
     2021.58247       -11.27113         5.02306
     2021.58521        -6.28588         5.14161
     2021.58795        -2.37162         5.09221
     2021.59069        -5.15137         5.06168
     2021.59342        -6.34312         5.12454
     2021.59616        -3.05287         5.22064
     2021.59890         0.31138         5.00420
     2021.60164        -4.43537         5.20268
     2021.60438         0.90188         4.97546
     2021.60711         0.17313         4.98983
     2021.60985         0.70339         4.96109
     2021.61259         0.95964         4.87846
     2021.61533        -1.58611         4.96917
     2021.61807        -4.53186         5.01498
     2021.62080         0.27039         5.01767
     2021.62354         3.65164         5.01138
     2021.62628        -2.83211         5.18202
     2021.62902         0.16215         4.97276
     2021.63175         1.46240         5.03653
     2021.63449        -2.99235         5.00061
     2021.63723         3.70290         5.15149
     2021.63997         3.96315         4.99612
     2021.64271         1.05640         5.06976
     2021.64544         1.85265         4.98444
     2021.64818         0.80391         4.99252
     2021.65092         3.85816         5.01587
     2021.65366         5.44341         4.99971
     2021.65639        -0.20434         4.87397
     2021.65913         1.78491         5.01318
     2021.66187        -2.07384         5.08682
     2021.66461         2.78541         4.95840
     2021.66735         6.00366         4.92696
     2021.67008         2.65792         4.96289
     2021.67282         5.54117         5.06347
     2021.67556         8.29442         5.14610
     2021.67830        -0.66333         5.09940
     2021.68104         1.61892         4.92517
     2021.68377         5.41917         4.89373
     2021.68651         3.36142         5.00150
     2021.68925         1.16768         4.92157
     2021.69199         4.93993         4.93594
     2021.69472        -1.63582         5.00061
     2021.69746         2.74643         4.90451
     2021.70020         3.65568         5.03024
     2021.70294         2.02093         4.93504
     2021.70568         4.36418         4.93235
     2021.70841         4.84244         4.89643
     2021.71115        -0.15531         4.99701
     2021.71389         7.39994         5.33200
     2021.71663         8.28219         4.96468
     2021.71937         0.64944         4.92068
     2021.72210        -2.62231         4.88475
     2021.72484         1.79994         4.92876
     2021.72758        -1.59680         4.97276
     2021.73032        -2.91755         5.22782
     2021.73305         2.89670         4.97007
     2021.73579         6.30295         4.97995
     2021.73853        19.89720         5.13083
     2021.74127        10.35145         4.94492
     2021.74401         6.15270         4.97456
     2021.74674         3.29895         4.89373
     2021.74948        -1.45879         5.03024
     2021.75222         4.57346         4.91259
     2021.75496         4.76371         4.98175
     2021.75770         4.54596         5.03743
     2021.76043         6.93921         4.98264
     2021.76317         4.36046         5.10119
     2021.76591        -0.94729         5.00689
     2021.76865        -0.44703         4.90361
     2021.77138         4.17622         4.95750
     2021.77412         9.25447         5.05270
     2021.77686         6.44472         4.95660
     2021.77960         8.67997         4.95750
     2021.78234         4.77022         4.98175
     2021.78507         8.93747         4.92696
     2021.78781         4.16573         4.87397
     2021.79009         5.08160         6.11514
     2021.79603        10.74248         4.92696
     2021.79876         7.31973         4.91259
     2021.80150         3.83698         5.13801
     2021.80424        10.33023         5.32033
     2021.80698         2.60449         5.08862
     2021.80971         3.79874         4.90361
     2021.81519         3.34224         4.99522
     2021.81793        15.65549         4.93774
     2021.82067         4.97774         5.12993
     2021.82340        10.03799         5.00869
     2021.82614        19.35424         4.98444
     2021.82888         9.76750         4.99073
     2021.83162        13.55675         4.96738
     2021.83436        12.53100         4.98354
     2021.83709         4.00325         5.08772
     2021.83943         5.03717         5.77028
     2021.84234        -7.22843         6.08461
     2021.84531         4.66700         5.33380
     2021.84730         1.84265         7.30153
     2021.87365         7.15431         9.89973
     2021.87542         2.78377         5.02036
     2021.87816        -0.86398         4.90002
     2021.88090         1.55427         5.02126
     2021.88364        12.72052         5.03024
     2021.88637        -4.59323         4.92157
     2021.88911        -0.78597         4.85781
     2021.89185        -7.61472         4.93954
     2021.89459         3.73553         4.92337
     2021.89733         1.21578         4.90181
     2021.90006       -10.21897         4.92247
     2021.90280        -1.27772         4.98354
     2021.90554        -1.93147         5.08772
     2021.90828         7.74979         5.00150
     2021.91102         5.81904         4.96468
     2021.91375        -2.29971         4.94852
     2021.91649        -3.00546         4.90092
     2021.91923         3.36879         5.13801
     2021.92197        -1.40896         5.17573
     2021.92470         2.60429         5.18023
     2021.92744         8.11055         5.09401
     2021.93018        -1.08320         5.06078
     2021.93292         6.86105         5.13981
     2021.93566         3.47130         5.22603
     2021.93839         7.15855         5.11466
     2021.94113        12.92980         5.29069
     2021.94387        18.02105         5.15687
     2021.94644        -2.48284         5.57718
     2021.95208         5.88181         5.07694
     2021.95482         1.40606         5.16137
     2021.95756         7.99531         5.12814
     2021.96030         2.03656         5.10119
     2021.96303         2.32481         5.15238
     2021.96851         3.63032         5.24130
     2021.97125         6.39857         5.20986
     2021.97399        16.65682         5.24668
     2021.97672         1.91407         5.19010
     2021.97946        17.76132         5.14251
     2021.98220        16.47657         5.17394
     2021.98494        13.46382         5.12724
     2021.98767         9.96708         5.16675
     2021.99041        12.24433         5.02036
     2021.99315         5.07558         5.01138
     2021.99589         7.94783         4.99701
     2021.99863        -2.23192         4.94762
     2022.00136         1.82833         4.94313
     2022.00410        -0.55042         5.00959
     2022.00684        -0.82416         5.14879
     2022.00958         3.66509         5.13263
     2022.01232        -7.63566         5.05719
     2022.01460        10.56821         6.26962
     2022.01878         8.47466         9.47942
     2022.02053        -4.15091         5.05988
     2022.02327        -2.29866         5.35535
     2022.02600        -8.50741         5.15418
     2022.02874        -4.73915         5.06347
     2022.03148       -11.10590         5.07156
     2022.03422        -5.33765         5.11017
     2022.03696        -7.34440         5.01767
     2022.03969       -13.51815         5.07874
     2022.04243        -6.95290         5.05988
     2022.04517         0.00135         5.01947
     2022.04791         0.12261         4.97097
     2022.05065        -5.25014         5.11017
     2022.05338        -5.15989         5.11466
     2022.05612       -17.60264         5.15059
     2022.05886       -17.68939         5.03024
     2022.06160       -17.11914         5.16675
     2022.06433        -3.48289         5.09221
     2022.06707       -11.06963         5.15418
     2022.06981         0.26462         5.08503
     2022.07255       -13.45613         4.90810
     2022.07529        -6.97788         4.91618
     2022.07802        -1.68663         4.98175
     2022.08076         3.60762         4.98534
     2022.08350         2.05287         5.01498
     2022.08624         3.67813         4.92696
     2022.08898        -0.98562         5.03204
     2022.09171        -3.69837         4.91888
     2022.09445        -8.34512         4.97546
     2022.09719        -6.81687         5.00061
     2022.09993        -7.29862         5.06257
     2022.10266        -9.71637         5.09311
     2022.10540        -7.44912         5.04461
     2022.10814        -0.02286         4.98444
     2022.11088        -0.69061         5.00779
     2022.11362        -4.00736         4.98444
     2022.11635         1.37989         4.98803
     2022.11909        -0.96986         4.90900
     2022.12177        11.41535         5.18202
     2022.13278        -4.91160         4.94762
     2022.13552        -0.05135         5.14879
     2022.13826         3.06190         5.01048
     2022.14099        -0.06785         4.86948
     2022.14373        -5.54260         4.93954
     2022.14647        -6.05734         4.90541
     2022.14921        -5.64109         5.13801
     2022.15195        -3.34684         5.13263
     2022.15468        -4.93059         4.87397
     2022.15742         5.28466         5.11017
     2022.16016        10.00991         5.05449
     2022.16290         5.89816         4.99522
     2022.16564        -1.26658         4.93235
     2022.16837        -3.50733         4.84523
     2022.17111        -5.13108         4.90810
     2022.17385        -0.24083         4.92337
     2022.17659        -0.67258         5.03114
     2022.17932        -4.13433         4.91080
     2022.18206        -2.52208         4.85601
     2022.18480         1.23617         4.92786
     2022.18754         0.58343         4.96558
     2022.19028        -9.76432         4.97546
     2022.19301         2.12193         4.87757
     2022.19575         3.91318         4.99522
     2022.19849        -2.12857         4.89912
     2022.20123         2.31168         4.98175
     2022.20397         3.96093         4.89463
     2022.20670        -4.54781         5.18561
     2022.20944         2.01544         4.98264
     2022.21218         0.31069         4.94403
     2022.21492        -1.53406         4.96468
     2022.21726        -1.22914         5.91756
     2022.22039        -2.57856         4.90271
     2022.22313         0.14769         4.97366
     2022.22587        -4.54605         5.07694
     2022.22861        -0.10880         5.05449
     2022.23134         1.97545         4.92337
     2022.23408         5.58370         4.95211
     2022.23682         4.18295         5.09760
     2022.23956         0.44120         4.88475
     2022.24230         1.79945         4.95121
     2022.24503         7.48970         4.91888
     2022.24777         6.85796         4.92157
     2022.25051        -0.29479         4.92876
     2022.25330         1.98351         4.99971
     2022.25598        13.71471         4.95301
     2022.25872         4.58596         5.07335
     2022.26146        -1.91179         4.95660
     2022.26420        -1.41354         4.98624
     2022.26694        -2.39728         5.06527
     2022.26967        -0.75603         4.98624
     2022.27241         8.53922         4.97995
     2022.27515         4.46347         5.16586
     2022.27783         7.19367         5.02216
     2022.28336         0.54422         5.28171
     2022.28610         3.16148         5.04551
     2022.28884         0.83073         5.02575
     2022.29158        -4.73802         4.91169
     2022.29431         2.39823         4.98085
     2022.29705         6.69248         4.95390
     2022.29979         9.62873         5.00599
     2022.30253         6.99898         5.04910
     2022.30527         4.00124         5.01318
     2022.30800        -0.28151         4.97636
     2022.31074        -1.16326         4.89912
     2022.31348        -1.37101         4.94492
     2022.31622        -7.41576         4.96827
     2022.31895       -19.53551         5.21256
     2022.32169         4.88774         5.08772
     2022.32443         4.49499         4.90990
     2022.32717         0.58325         4.97276
     2022.32991        -1.11450         4.95660
     2022.33264        -7.91625         5.26285
     2022.33538        -3.49800         5.09221
     2022.33812        -0.67675         5.10389
     2022.34086        10.47650         5.31943
     2022.34360        12.87675         5.24579
     2022.34633         3.39001         5.37601
     2022.34907         0.45426         4.88385
     2022.35181         2.73251         4.93594
     2022.35455        -0.31924         4.99701
     2022.35728        -5.31799         4.93774
     2022.36002         3.88726         4.91529
     2022.36276         0.06851         4.99791
     2022.36550         0.86477         4.91259
     2022.36824        -5.40298         4.98534
     2022.37097        -6.37873         4.93235
     2022.37371        -8.48948         4.90541
     2022.37645        -4.59323         5.07605
     2022.37919        -1.56998         5.06437
     2022.38193        -4.20773         5.04910
     2022.38466        -6.73248         4.94852
     2022.38740       -16.07722         4.89553
     2022.39014        -5.09097         4.94043
     2022.39288        -2.65772         5.00689
     2022.39561        -8.85247         4.95840
     2022.39835        -7.03322         5.06168
     2022.40109        -2.70997         5.01498
     2022.40383        -5.19272         4.93235
     2022.40657         1.98954         4.88295
     2022.40930        -9.65421         4.94043
     2022.41204        -1.60296         4.91439
     2022.41478        -2.82371         4.87128
     2022.41752        -0.91846         5.05719
     2022.42026         3.30579         5.01947
     2022.42299        -1.33196         4.88924
     2022.42573         2.68530         5.15059
     2022.42847         2.64455         5.02216
     2022.43121        -4.26920         5.05180
     2022.43394         3.67005         5.07335
     2022.43668       -11.02470         4.88295
     2022.43942        -5.97145         4.96378
     2022.44216         8.29080         5.04192
     2022.44490        11.32606         5.16226
     2022.44763         7.94331         4.91259
     2022.45037         0.00156         4.85422
     2022.45311        -6.89619         4.99073
     2022.45585       -11.07294         4.94582
     2022.45859       -15.20969         5.00150
     2022.46132        -1.49144         4.90541
     2022.46406        -3.86619         4.90810
     2022.46680        -2.41693         4.92157
     2022.46954        -7.05268         4.91708
     2022.47227       -16.97243         4.89373
     2022.47501         6.60882         4.97097
     2022.47775        -3.53093         5.00240
     2022.48049        -7.33368         4.96019
     2022.48323         3.61557         4.98264
     2022.48596        11.72983         5.05359
     2022.48870        -4.54192         5.02306
     2022.49144        -4.24467         4.89194
     2022.49418        -4.85542         5.17124
     2022.49692        -8.30717         5.02485
     2022.49965        -6.27792         4.94941
     2022.50239       -16.52067         4.95301
     2022.50513        -4.85341         5.30147
     2022.50787         7.43484         5.29608
     2022.51060        -8.99091         5.06706
     2022.51334        -8.94566         4.96917
     2022.51608        -3.44941         5.01048
     2022.51882       -13.90416         4.97007
     2022.52156        -9.60991         5.03473
     2022.52429        -5.27365         4.92876
     2022.52703         0.33860         4.93774
     2022.52977         3.23085         4.98893
     2022.53251        -0.12690         5.01498
     2022.53525        -8.69065         5.07156
     2022.53798        -7.19740         4.92696
     2022.54072        -4.52315         4.98534
     2022.54346        -4.17290         4.99162
     2022.54620        -5.11764         5.03922
     2022.54893        -6.14239         5.25656
     2022.55167         3.10986         5.03833
     2022.55441        -3.52489         5.08054
     2022.55715         1.63236         5.01408
     2022.55989        -3.51039         5.02126
     2022.56262        -3.15214         4.97456
     2022.56536       -16.64088         4.99791
     2022.56810        -6.18063         4.97815
     2022.57084        -2.76438         4.93864
     2022.57357         4.25687         5.11107
     2022.57631       -10.56488         4.99073
     2022.57905        -4.03863         4.93325
     2022.58179         0.49462         4.96378
     2022.58453         4.62388         5.24399
     2022.58726        -9.33187         5.37601
     2022.59000        -1.73862         5.24668
     2022.59274       -11.25637         5.27003
     2022.59548        -4.83012         4.96827
     2022.59822       -17.23087         5.28710
     2022.60095       -15.46662         4.97366
     2022.60369         1.41363         5.31045
     2022.60643       -11.93111         5.50264
     2022.60917        -4.78786         5.15149
     2022.61190         2.39639         5.08503
     2022.61464         4.53464         4.88834
     2022.61738         3.15889         4.90810
     2022.62012        -6.37986         5.18202
     2022.62286         0.16639         4.87936
     2022.62559        -0.46035         4.90990
     2022.62833         1.25990         4.87846
     2022.63107        -0.34685         5.00061
     2022.63381         5.51440         5.02575
     2022.63655         1.19065         4.95929
     2022.63928         0.08090         4.90810
     2022.64202        -0.88485         5.26016
     2022.64427        -4.93299         6.58754
     2022.64762         7.15976         5.23950
     2022.65023         2.49191         5.07964
     2022.65297        -1.82584         5.35984
     2022.65571         6.50241         5.10568
     2022.65845        12.30466         4.98354
     2022.66119         6.03891         4.90810
     2022.66392         4.29117         4.93684
     2022.66666         6.16142         4.83985
     2022.66940         5.52367         4.92786
     2022.67214         2.09292         4.97815
     2022.67488         2.37717         4.84434
     2022.67761         9.95242         4.88475
     2022.68035         8.84967         4.87667
     2022.68309         8.87292         4.93504
     2022.68583         9.39418         5.14969
     2022.68856         6.45243         4.97007
     2022.69130         5.97868         4.92068
     2022.69404         9.09793         4.90451
     2022.69678         8.73918         4.94223
     2022.69952         4.66843         5.01947
     2022.70225        12.20068         5.10299
     2022.70499         9.64494         5.13712
     2022.70773         3.18219         4.96648
     2022.71047         5.18344         4.81021
     2022.71321        11.74969         4.94492
     2022.71594         7.14394         4.97187
     2022.71868         7.04819         4.86859
     2022.72142         5.50844         4.90810
     2022.72416         2.50770         4.99162
     2022.72689         5.83995         4.97456
     2022.72963         9.02920         4.90541
     2022.73237         5.69545         4.84254
     2022.73511         5.94470         4.79674
     2022.73785         3.91395         5.02396
     2022.74058        15.71020         5.18651
     2022.74332         8.04046         5.14879
     2022.74606         8.27071         5.00869
     2022.74880         7.53996         4.82009
