# ================= DQRFIT RESULTS ================
# INPUT FILE: series/NAST.rad
# OUTPUT: LDETRENDED
# FILTER FUNCTION: f(t)
# f(t)=+line(t)
# line(t)=+P 1+P 2*t
# heav(t)=(t<0?0:1)
# TOTAL OBSERVATIONS MTOT=  267
# INITIAL TIME INTERVAL= 2015.3210 - 2014.5791 =  0.7420
# TOTAL OBSERVATIONS AFTER PREFILTER M=  263
# TIME-SPAN= 2015.3210 - 2014.5791 =  0.7420
# OBSERVATIONS: USED M=   263 REJECTED MTOT-M=     4 %USED=   98.5019
# N=  2 PARAMETERS
# MAXSIG= 175.00000
# MAXRES= 614.47991
# SCALE FACTOR FOR LENGTHS: SCL=  10.00000
# SCALE FACTOR FOR SIGMAS: SCLSIG=   1.00000
# CHI^2=    656.666 DOF=   261 CHI^2/DOF=   2.51596
# RMS=      9.541 SDEV=      9.559 MEAN=    0.06037
#  P #       PARAMETER +-    SIGMA %error PARAMETER NAME
# P 1 =    213376.29402 +- 5649.303   2.65 YZERO                              
# P 2 =      -106.39965 +-    2.804   2.64 SLOPE                              
#       T            LDETRENDED       SIG_OBS
     2014.57906         5.49969         9.50177
     2014.58179         8.63783         9.67842
     2014.58453        14.54971         9.90768
     2014.58727        16.21192         9.82775
     2014.59001         7.56216         9.44196
     2014.59274       -13.58944         9.45333
     2014.59548         7.59065         9.94570
     2014.59822        11.12282         9.58959
     2014.60096         5.50647         9.69834
     2014.60370        -4.70332        10.81801
     2014.60643         7.41468         9.33687
     2014.60917       -11.36409         9.55688
     2014.61191        12.81938         9.53161
     2014.61465       -12.49459         9.43256
     2014.61739         6.77464         9.62694
     2014.62012        -1.01331         9.84294
     2014.62286        -4.22812         9.43838
     2014.62560         4.25517         9.50771
     2014.62834        -2.91497         9.63280
     2014.63107        -3.28941         9.51846
     2014.63381         2.32976         9.96399
     2014.63655        -1.15290         9.55831
     2014.63929        -6.02265        10.31986
     2014.64203        11.92129         9.81307
     2014.64476         1.28005         9.60111
     2014.64750        -3.37372         9.67333
     2014.65024       -14.69224        10.62371
     2014.65298        -1.26209         9.89068
     2014.65572        -1.04679         9.40974
     2014.65845         5.20132         9.48835
     2014.66119        -3.60308         9.51441
     2014.66393        -0.97922         9.48591
     2014.66667         0.25312         9.42045
     2014.66940         5.53723         9.59643
     2014.67214         3.26192         9.63875
     2014.67488        13.33230        10.65260
     2014.67762        -8.53405         9.60559
     2014.68036        -7.26899         9.79041
     2014.68309         0.90255         9.48726
     2014.68583        14.17647        10.00352
     2014.68857        10.87058         9.54330
     2014.69131        13.99289         9.49716
     2014.69405        -1.93853         9.52224
     2014.69678        -1.55524         9.88152
     2014.69952        -0.24072         9.73442
     2014.70226        -0.37443         9.98135
     2014.70500         4.89194         9.75151
     2014.70773        15.66727        10.01952
     2014.71047        -2.27511        10.08099
     2014.71321        10.63794         9.61388
     2014.71595         3.10825         9.65116
     2014.71869         2.73000         9.46429
     2014.72142        -6.36638         9.42395
     2014.72416        -8.77637         9.51658
     2014.72690        -4.46137         9.55258
     2014.72964        -4.32945         9.42661
     2014.73238         1.99600         9.65920
     2014.73511        -2.43586         9.80917
     2014.73785        -5.03035         9.49953
     2014.74059        -6.17827         9.83715
     2014.74333       -21.48212         9.66103
     2014.74606         3.12907         9.81805
     2014.74880         2.18627         9.54297
     2014.75154         0.59808        10.00918
     2014.75428        10.35225         9.45523
     2014.75975        -6.48168         9.46716
     2014.76249         1.14611         9.94030
     2014.76523         4.70392         9.76833
     2014.76797         1.34361         9.76532
     2014.77070        10.53978         9.44493
     2014.77344        -3.15748         9.46619
     2014.77618        -6.30350         9.42058
     2014.77892       -10.73995         9.39285
     2014.78166         7.41225         9.52085
     2014.78439         7.81231         9.65618
     2014.78713        -6.11823         9.28219
     2014.78987         8.67210         9.29254
     2014.79261         7.34788         9.45514
     2014.79535        -4.09099         9.39101
     2014.79808       -12.96295         9.71755
     2014.80082        -3.41044         9.57147
     2014.80356        -1.31515         9.87399
     2014.80630       -23.28034         9.57239
     2014.80903        -6.83605         9.31015
     2014.81177       -15.94453         9.35871
     2014.81451        -3.82310         9.32080
     2014.81725         7.23542         9.41456
     2014.81999        -7.65987         9.53272
     2014.82272        -6.95945         9.60927
     2014.82546         0.90131         9.40741
     2014.82820        -1.02845         9.33853
     2014.83094        -3.60617         9.77526
     2014.83368       -13.26446         9.43053
     2014.83641        -7.62200         9.46152
     2014.83915        -3.90089         9.43903
     2014.84189        -5.97786         9.45021
     2014.84463        -5.94250         9.42980
     2014.84736         4.45580         9.37460
     2014.85284         1.74810         9.42724
     2014.85558        -4.66089         9.32367
     2014.85832        24.78309         9.34889
     2014.86105         7.93430         9.37310
     2014.86379        12.58586         9.43027
     2014.86653         3.16402         9.40950
     2014.86927        -0.57876         9.34259
     2014.87201        12.84614         9.33635
     2014.87474         6.91345         9.26458
     2014.87748         4.84045         9.44451
     2014.88022        15.43908         9.64965
     2014.88296         0.45463         9.54954
     2014.88569         0.66200         9.62476
     2014.88843        -7.47575         9.68137
     2014.89117        -0.69252         9.50574
     2014.89391         2.28325         9.58374
     2014.89665        -0.35800         9.61223
     2014.89938        -1.61559         9.55989
     2014.90212        12.14321        10.02339
     2014.90486         8.68443         9.53976
     2014.90760         8.29079         9.33230
     2014.91034        18.16815         9.39033
     2014.91307         3.24882         9.32598
     2014.91581         2.54002         9.52682
     2014.91855        -1.76477         9.36450
     2014.92129         3.12924         9.84941
     2014.92402        13.39782         9.46785
     2014.92676         2.47249         9.32449
     2014.92950        11.43585         9.37968
     2014.93224         0.97989         9.34543
     2014.93498        -7.53237         9.24342
     2014.93771        -4.80706         9.28776
     2014.94045       -12.30688         9.32183
     2014.94319        -6.27049         9.56143
     2014.94593        -6.88350         9.45873
     2014.94867       -13.36230         9.34075
     2014.95140        -2.73612         9.50692
     2014.95414       -11.35432         9.42020
     2014.95688       -26.59746         9.36255
     2014.95962       -14.13931         9.51488
     2014.96235       -13.59263         9.19937
     2014.96509       -16.13931         9.55521
     2014.96783       -21.80225         9.17367
     2014.97057       -11.38329         9.24805
     2014.97331        -4.02718         9.18059
     2014.97604        -2.08141         9.13947
     2014.97878        -0.50622         9.24288
     2014.98152         0.48423         9.36183
     2014.98426        11.43014         9.27874
     2014.98700        -5.18255         9.29658
     2014.98973         8.43690         9.08499
     2014.99247         5.50594         9.16476
     2014.99521        -3.02383         9.12476
     2014.99795        -3.86904         9.18666
     2015.00068         3.00081         9.17409
     2015.00342        -3.44057         9.10910
     2015.00616         7.41964         9.42285
     2015.00890        -3.53210         9.60955
     2015.01164         6.02866         9.25447
     2015.01437        17.82472         9.33726
     2015.01711        -0.38865         9.28777
     2015.01985        -0.07016         9.22801
     2015.02259        -3.53486         9.55265
     2015.02533         0.55650         9.35812
     2015.02806       -11.92122         9.35099
     2015.03354       -15.10624         9.23940
     2015.03628        -7.07450         9.29440
     2015.03901        -8.53630         9.33444
     2015.04175       -18.87626         9.35790
     2015.04449       -12.89628         9.36534
     2015.04723        -5.29398         9.43576
     2015.04997       -11.30301         9.25464
     2015.05270         9.77302         9.42558
     2015.05544         3.85876         9.38128
     2015.05818       -22.69822         9.35260
     2015.06092        -2.82561         9.42950
     2015.06366         3.13230         9.77171
     2015.06639        -7.21794         9.30458
     2015.06913        -7.78362         9.32901
     2015.07187         1.71450         9.44427
     2015.07461         0.86931         9.36137
     2015.07734         4.64915         9.82374
     2015.08008        -2.59209         9.41501
     2015.08282         9.76924         9.39040
     2015.08556         5.17218         9.51871
     2015.08830         0.41648         9.46111
     2015.09103        -7.90208         9.75014
     2015.09377        -3.76291         9.60224
     2015.09651        -1.16056        10.20646
     2015.09925        -3.66319         9.76651
     2015.10198         4.57324         9.46707
     2015.10472         1.42754         9.37409
     2015.10746        -9.93846        10.02365
     2015.11020         6.68425        10.24569
     2015.11294         4.75893         9.89148
     2015.11567        -5.65979         9.70864
     2015.11841         3.89124         9.76300
     2015.12115        -2.87107         9.90620
     2015.12389        16.94421        10.13387
     2015.12663        14.40884         9.78884
     2015.12936         9.61010         9.62371
     2015.13210         5.72276         9.38138
     2015.13484        -3.04691         9.74369
     2015.13758         2.85635         9.69412
     2015.14031        10.01535         9.68393
     2015.14305         4.11011         9.92951
     2015.14579        -0.30818         9.54109
     2015.14853        -0.93161         9.37912
     2015.15127        -0.16073         9.44762
     2015.15400         1.76810         9.52013
     2015.15674        -2.08149         9.59183
     2015.15948        -3.82888         9.38208
     2015.16222        -4.37267         9.46561
     2015.16496         5.31517         9.73564
     2015.16769         4.81167         9.04064
     2015.17043         3.09826         9.10656
     2015.17317       -13.95126         9.31899
     2015.17591        -7.07028         9.19345
     2015.17864       -17.33458         9.42259
     2015.18138        -6.59940         9.41230
     2015.18412        -1.19996         9.61131
     2015.18686         1.09585         9.33399
     2015.18960        13.59198         9.15921
     2015.19233         8.67372         9.42973
     2015.19507        -1.77791         9.47469
     2015.19781        -5.38967         9.65337
     2015.20055         6.24435         9.31093
     2015.20329        10.22282         9.38919
     2015.20602        23.27014         9.74202
     2015.20876        15.18713         9.46445
     2015.21150        10.81012         9.51019
     2015.21424         5.66296         9.40578
     2015.21697         1.14606         9.72574
     2015.22245        -4.92246         9.94825
     2015.22519        -2.63525         9.46573
     2015.22793       -19.69640         9.42571
     2015.23066        -5.41117         9.98081
     2015.23340       -17.10416         9.92949
     2015.23614       -13.82347         9.97889
     2015.23888        -3.58712        10.10316
     2015.24435         0.91065         9.67209
     2015.24709         5.13932         9.54965
     2015.24983        20.60480         9.59427
     2015.25257         6.32633         9.49348
     2015.25530         7.57508         9.55600
     2015.25804         5.70686         9.44643
     2015.26078        -7.92529         9.47941
     2015.26352        -1.73677         9.63367
     2015.26626         2.10487         9.93206
     2015.26899        -5.81614         9.66253
     2015.27173       -18.14869         9.59618
     2015.27447       -12.39713         9.53139
     2015.27721       -19.10918         9.66463
     2015.27995        -7.85009         9.57349
     2015.28268        -5.21763         9.49918
     2015.28542       -13.63572         9.89975
     2015.28816       -14.92888         9.77099
     2015.29090        -2.05136         9.39324
     2015.29363        14.01066        10.20690
     2015.29637        11.78520         9.51630
     2015.29911         6.67396         9.55843
     2015.30185        29.51482         9.73676
     2015.30459        35.33471        10.01343
     2015.30732        29.86034         9.72745
     2015.31006        14.61580         9.24926
