# ================= DQRFIT RESULTS ================
# INPUT FILE: series/NCSB.rad
# OUTPUT: LDETRENDED
# FILTER FUNCTION: f(t)
# f(t)=+line(t)+annual(t)
# line(t)=+P 1+P 2*t
# annual(t)=+P 3*sin(2*pi*t+P 4)
# heav(t)=(t<0?0:1)
# TOTAL OBSERVATIONS MTOT= 1079
# INITIAL TIME INTERVAL= 2022.7488 - 2019.7974 =  2.9514
# TOTAL OBSERVATIONS AFTER PREFILTER M=  941
# TIME-SPAN= 2022.7488 - 2019.7974 =  2.9514
# OBSERVATIONS: USED M=   941 REJECTED MTOT-M=   138 %USED=   87.2104
# N=  4 PARAMETERS
# MAXSIG= 175.00000
# MAXRES=  51.36105
# SCALE FACTOR FOR LENGTHS: SCL=  10.00000
# SCALE FACTOR FOR SIGMAS: SCLSIG=   1.00000
# CHI^2=  10224.291 DOF=   937 CHI^2/DOF=  10.91173
# RMS=     22.326 SDEV=     22.282 MEAN=   -1.57551
#  P #       PARAMETER +-    SIGMA %error PARAMETER NAME
# P 1 =    -10536.28577 +- 1372.858  13.03 YZERO                              
# P 2 =         5.25626 +-    0.679  12.92 SLOPE                              
# P 3 =        14.13003 +-    0.857   6.07 ANNUAL AMPLITUDE                   
# P 4 =        -2.35195 +-    0.059   2.50 ANNUAL PHASE                       
#       T            LDETRENDED       SIG_OBS
     2019.79739         9.00376        17.26630
     2019.80013        14.09837        17.33897
     2019.80287        13.09897        17.40174
     2019.80561        20.72358        17.50744
     2019.80835        12.91419        17.48101
     2019.81108        15.40580        17.85759
     2019.81382        23.23841        18.01615
     2019.81656       -12.53898        17.35549
     2019.81930        -2.79837        17.29933
     2019.82203         5.98024        17.47441
     2019.82477         3.93985        17.39843
     2019.82751         5.27246        17.41495
     2019.83025        10.58507        17.70564
     2019.83299         9.85568        17.67921
     2019.83572         9.34128        17.37861
     2019.83846        17.55589        17.45459
     2019.84120        15.15750        17.39843
     2019.84394        11.72811        17.82125
     2019.84668         5.14672        17.26300
     2019.84941         9.90433        17.24978
     2019.85215         8.39494        17.57681
     2019.85489        14.22255        17.43147
     2019.85763        20.10816        17.18702
     2019.86036         8.82477        17.32576
     2019.86310         7.07238        17.39183
     2019.86584        24.14799        17.67591
     2019.86858        12.42759        17.67261
     2019.87132        16.17220        17.66600
     2019.87405        20.51981        17.33897
     2019.87679        11.11242        17.93026
     2019.87953        18.69003        17.30594
     2019.88227        14.11264        17.40504
     2019.88501         9.41625        17.57020
     2019.88774        11.97586        18.13176
     2019.89048        19.23647        17.47441
     2019.89322        26.17908        17.28612
     2019.89596        14.79969        17.45128
     2019.89869       -12.83670        17.68582
     2019.90143       -24.22310        19.46629
     2019.90417       -17.50549        19.22185
     2019.90691        -0.05288        17.52396
     2019.90965         8.15673        17.28282
     2019.91238         9.77334        17.21675
     2019.91512        15.84295        17.37531
     2019.91786        19.34556        17.47110
     2019.92060        18.22917        17.63297
     2019.92334         1.76678        17.66600
     2019.92607        -3.32661        17.58342
     2019.92881        12.50800        17.51074
     2019.93155        25.60360        17.49092
     2019.93429        25.18721        17.43147
     2019.93702        10.14782        17.55699
     2019.93976         8.54143        17.78161
     2019.94250         5.26004        17.69573
     2019.95893       -45.54930        19.78671
     2019.96167       -13.72069        21.32935
     2019.96440         8.82091        22.24766
     2019.96714        19.61452        22.17499
     2019.96988        27.38613        23.46658
     2019.97262         8.06974        23.04045
     2019.97535         5.78435        22.12544
     2019.97809        -6.58704        23.47979
     2019.98083       -12.54143        23.08340
     2019.98357       -14.02482        23.38069
     2019.98631        -6.06921        23.27168
     2019.98904        -5.46060        23.71763
     2019.99178       -14.52199        22.74646
     2020.00000        23.35483        17.47110
     2020.00273        -8.60656        17.35549
     2020.00547       -14.60795        18.28371
     2020.00821        19.08066        17.89062
     2020.01095        -2.73773        17.80804
     2020.01368       -22.76512        17.81465
     2020.01642       -55.67651        18.26389
     2020.01916       -30.31090        17.88071
     2020.02190       -33.63729        19.04677
     2020.02464       -40.12568        20.21614
     2020.02737        -0.80707        19.87590
     2020.03011        -5.48647        21.64977
     2020.03285       -16.27486        21.34586
     2020.03559        -1.61925        20.31524
     2020.03833        -3.73364        20.92304
     2020.04106       -15.37603        21.28971
     2020.04380       -18.53642        21.67950
     2020.04654       -35.09481        22.50532
     2020.04928       -60.51520        22.94135
     2020.05201        -4.47459        18.52155
     2020.05475        -0.17498        17.55369
     2020.05749       -36.94237        17.84768
     2020.06023       -30.92177        19.56209
     2020.06297        10.78184        17.23327
     2020.06570        10.74645        17.39513
     2020.06844       -60.67794        18.55458
     2020.07392       -61.85672        23.58550
     2020.08213        19.03411        24.56327
     2020.08487       -28.40028        17.68582
     2020.09308       -59.38246        19.36059
     2020.09582       -50.29585        20.24587
     2020.09856         4.52576        17.33567
     2020.10130        -2.77163        17.24318
     2020.10403       -37.18202        18.32666
     2020.10677       -17.97041        19.82965
     2020.10951       -33.33180        19.71734
     2020.11225       -41.57819        18.88161
     2020.11498       -33.11558        19.35728
     2020.11772       -35.47697        19.81644
     2020.12046       -32.99836        20.14347
     2020.12320       -32.55475        19.28791
     2020.12594       -40.57315        19.77680
     2020.13415       -29.30232        19.30113
     2020.13689       -14.70971        17.47771
     2020.13963         0.91090        17.29933
     2020.14236        -1.87049        17.12756
     2020.14510         1.30012        17.46119
     2020.16974       -45.57640        22.38970
     2020.17248       -38.95079        22.87859
     2020.17522       -37.52418        22.07589
     2020.17796       -19.20457        21.83475
     2020.18069       -26.62396        21.15758
     2020.18343       -23.73135        21.84796
     2020.18617       -26.37474        21.89091
     2020.18891       -32.03513        22.02634
     2020.19164       -15.52853        21.84136
     2020.19438       -44.45992        23.86628
     2020.19712       -43.40731        25.09510
     2020.19986        -2.27370        21.70262
     2020.20260        30.19891        19.96839
     2020.20533        -5.17048        17.88732
     2020.20807        -2.75587        17.39843
     2020.21081        -5.67526        17.29603
     2020.21355        -6.26465        18.88161
     2020.21629        -1.45704        18.00624
     2020.21902        -5.99443        17.48762
     2020.22176        -3.43483        17.35879
     2020.22450        -2.89722        17.32576
     2020.22724         2.71139        17.19363
     2020.22997        -1.88100        17.23657
     2020.23271         1.89361        17.18372
     2020.23545         3.71622        17.47441
     2020.23819         6.41783        17.37201
     2020.24093         4.21044        17.42816
     2020.24366         3.40305        17.42486
     2020.24640        -1.82934        17.37201
     2020.24914        -8.28373        17.38522
     2020.25188        -5.91312        17.62306
     2020.25462       -17.41452        17.59663
     2020.25735       -20.97591        17.35219
     2020.26009       -10.29030        17.32906
     2020.26283         2.49331        17.21675
     2020.26557       -30.44108        17.74858
     2020.26830       -10.41847        17.36540
     2020.27104        -4.32986        17.34228
     2020.27378         1.25675        17.41495
     2020.27652        -3.38764        17.43147
     2020.27926         0.70697        17.55038
     2020.28199         1.35858        17.73206
     2020.28473        -3.71881        17.47110
     2020.28747        -6.75121        17.61315
     2020.29021         0.02840        17.50744
     2020.29295        -1.99899        17.46119
     2020.29568        11.02062        17.37531
     2020.29842         6.32023        17.30264
     2020.30116         7.76084        17.26630
     2020.30390         9.35845        17.57681
     2020.30663         5.64206        17.46780
     2020.30937         0.91667        17.74528
     2020.31211         1.12328        17.71555
     2020.31485         6.34689        17.67921
     2020.31759         1.07450        17.17711
     2020.32032         9.49210        17.30594
     2020.32306         3.28971        17.22336
     2020.32580         5.81432        17.31585
     2020.32854        14.66693        17.10114
     2020.33128        -0.77246        17.26960
     2020.33401         2.95415        17.19693
     2020.33675         6.45876        17.26300
     2020.33949         4.16637        17.28612
     2020.34223        -4.79802        17.39183
     2020.34496        -0.76241        17.07801
     2020.34770        -6.64280        17.09123
     2020.35044        -2.78020        17.36870
     2020.35318        -3.44559        17.58342
     2020.35592        -5.27098        17.46780
     2020.35865         1.15963        17.09453
     2020.36139         5.68824        17.09453
     2020.36413         7.11685        17.17711
     2020.36687         7.69546        17.46119
     2020.36961         6.14907        17.46780
     2020.37234        -0.27532        17.12426
     2020.37508        10.71929        17.07471
     2020.37782        16.56890        17.22996
     2020.38056         8.47051        17.25969
     2020.38329         9.88011        17.27951
     2020.38603        -4.81128        17.29603
     2020.38877         4.00833        17.45459
     2020.39151         7.20394        17.14078
     2020.39425         8.26655        17.28282
     2020.39698         5.54116        17.33567
     2020.39972        10.09677        17.09453
     2020.40246         0.05838        17.12756
     2020.40520         4.95999        17.30594
     2020.40794         4.67160        17.22336
     2020.41067         1.78621        17.33567
     2020.41341         3.81882        17.10774
     2020.41615         7.27342        17.16390
     2020.41889         4.65703        17.00864
     2020.42162         2.99564        17.07801
     2020.42436         9.07925        17.92366
     2020.42710         3.32586        17.81134
     2020.42984        11.80447        17.16720
     2020.43258         1.96208        17.18702
     2020.43531         3.83469        17.09783
     2020.43805         5.78130        17.27291
     2020.44079         0.43891        17.47771
     2020.44353         9.29852        17.66930
     2020.44626         4.19013        17.70894
     2020.44900         8.53673        17.43477
     2020.45174         6.41834        17.31915
     2020.45448         6.88795        17.50744
     2020.45722         6.74256        17.41825
     2020.45995         4.99317        17.45128
     2020.46269        -2.14422        17.32246
     2020.46543         4.74939        17.19693
     2020.46817        16.68900        17.68912
     2020.47091        12.90561        17.46450
     2020.47364         9.90422        17.58672
     2020.47638        14.89383        17.62306
     2020.47912        14.31443        17.75188
     2020.48186         4.93904        17.32576
     2020.48459        -2.66835        18.40263
     2020.48733         7.72126        17.91705
     2020.49007         1.46287        17.76179
     2020.49281         5.02448        17.82786
     2020.49555         4.89809        17.64618
     2020.49828         0.51470        17.39513
     2020.50102         4.58931        17.40834
     2020.50376         2.70692        17.50083
     2020.50650         3.21753        17.32576
     2020.50924         3.68414        17.27621
     2020.51197         2.00074        17.35219
     2020.51471         6.85435        17.42486
     2020.51745         7.82496        17.48762
     2020.52019        15.36957        18.06900
     2020.52292        11.53918        17.42156
     2020.52566        11.10179        17.44798
     2020.52840         7.86540        17.27951
     2020.53114         3.03301        17.37201
     2020.53388         1.07062        17.35549
     2020.53661        -2.03477        17.87741
     2020.53935         1.89484        17.82786
     2020.54209         7.03745        17.26630
     2020.54483         0.70805        17.42156
     2020.54757         7.03166        17.41165
     2020.55030         9.87927        17.48101
     2020.55304         6.52688        17.43147
     2020.55578        19.08449        17.48101
     2020.55852        13.92510        17.33897
     2020.56125         4.02071        17.42486
     2020.56399         7.48132        17.34558
     2020.56673         4.95193        17.22336
     2020.56947         8.06154        17.61975
     2020.57221         6.55015        18.77260
     2020.57494         5.76076        17.91375
     2020.57768        10.69036        17.95999
     2020.58042         5.01197        17.95008
     2020.58316         0.99258        17.85759
     2020.58590         5.81219        17.70564
     2020.58863        11.38580        17.96660
     2020.59137        15.66641        17.80143
     2020.59411        16.21902        17.79813
     2020.59685         9.11163        18.21104
     2020.59958         7.79324        18.35969
     2020.60232         7.72885        17.77170
     2020.60506         7.87946        17.90053
     2020.60780        14.29506        18.25068
     2020.61054        12.07967        17.66930
     2020.61327        11.93228        17.65609
     2020.61601         9.27489        17.72546
     2020.61875        11.43950        17.78161
     2020.62149        11.46111        17.88732
     2020.62423        10.51572        17.85429
     2020.62696         9.38433        18.11194
     2020.62970        13.61994        18.00954
     2020.63244        15.26055        18.07230
     2020.63518         8.46016        17.84768
     2020.63791         4.48777        18.68672
     2020.64065         7.86537        17.66270
     2020.64339         9.08198        17.70233
     2020.64613        10.83559        17.59002
     2020.64887        14.26620        17.63297
     2020.65160         3.53181        17.58011
     2020.65434         8.59842        17.86750
     2020.65708         9.26403        18.02606
     2020.65982        11.72864        17.95008
     2020.66256         8.01625        17.73867
     2020.66529        12.43286        17.66600
     2020.66803        16.50047        17.80804
     2020.67077         8.74608        18.67020
     2020.67351        11.80468        17.77170
     2020.67624        11.96429        17.72876
     2020.67898         5.18890        17.67261
     2020.68172         6.48351        18.11855
     2020.68446         7.02212        17.77501
     2020.68720         4.81673        17.92696
     2020.68993         7.28334        17.69243
     2020.69267        12.88295        17.84768
     2020.69541         8.75056        18.39272
     2020.69815        10.00717        17.93026
     2020.70089        10.23078        17.68912
     2020.70362         5.68239        17.66930
     2020.70636         4.43199        18.50503
     2020.70910         1.54860        18.42576
     2020.71184        14.13621        18.33326
     2020.71457         9.97482        18.04918
     2020.71731         8.83643        18.12516
     2020.72005         9.02004        18.49182
     2020.72279        13.37465        17.56690
     2020.72553        13.27126        18.01945
     2020.72826        16.07787        18.42576
     2020.73100        19.27548        18.11194
     2020.73374        11.26509        18.05248
     2020.73648        15.96770        17.81465
     2020.73921        14.22030        17.81134
     2020.74195        14.81591        17.87741
     2020.74469        13.26952        17.72215
     2020.74743         7.64213        17.80804
     2020.75017        10.04874        17.65279
     2020.75290         7.53835        17.42486
     2020.75564         8.01096        17.55699
     2020.75838        14.85357        17.83777
     2020.76112        15.08518        17.85759
     2020.76386        12.38179        17.59993
     2020.76659        15.18340        17.50414
     2020.76933        14.00100        17.89723
     2020.77207         8.43661        17.66600
     2020.77481        10.43722        17.63627
     2020.77754         5.00383        17.62306
     2020.78028        10.45644        17.82786
     2020.78302         0.85705        17.86089
     2020.78576        14.83266        17.70233
     2020.78850        11.24027        17.72876
     2020.79123        25.94288        18.12516
     2020.79397        13.52749        17.60324
     2020.79671        12.94310        17.88402
     2020.79945        17.46471        17.79483
     2020.80219        14.27631        18.16480
     2020.80492        -5.92508        17.63957
     2020.81314       -28.66825        18.17140
     2020.81587         5.82036        17.65939
     2020.81861        12.46497        17.67591
     2020.82135        14.13358        17.71224
     2020.82409        15.69519        17.78822
     2020.82683        11.54280        18.02275
     2020.82956         7.33841        18.39603
     2020.83230         8.10602        18.12516
     2020.83504        10.30062        18.18131
     2020.83778        10.27723        18.07230
     2020.84052        20.49084        17.77170
     2020.84325        14.19245        18.33657
     2020.84599        12.37306        18.32335
     2020.84873        10.12367        17.51074
     2020.85147       -28.70472        18.64377
     2020.85420         0.03389        18.29362
     2020.85694         8.28050        17.78161
     2020.85968        11.51911        17.47771
     2020.87611        51.19776        23.11973
     2020.87885        10.32437        19.30443
     2020.88158        16.23398        17.75519
     2020.88432        12.16959        17.59333
     2020.88706        15.30220        18.24077
     2020.88980         5.76681        17.71885
     2020.89253        -8.44858        17.77501
     2020.90622       -18.08354        19.32425
     2020.90896        11.23807        18.03266
     2020.91170         7.28668        18.67020
     2020.92265         3.16912        17.93357
     2020.92539         7.48773        17.99633
     2020.92813         5.42634        17.75849
     2020.93086         9.89294        17.72546
     2020.93360        17.63855        17.98972
     2020.93634        20.12016        17.84768
     2020.93908         7.38777        17.53387
     2020.94182         1.35338        17.46119
     2020.97467      -132.77031        25.76897
     2020.97741      -129.47070        24.44435
     2020.98015      -144.42909        24.66237
     2021.00479      -137.34461        24.31883
     2021.00752      -135.75400        24.45426
     2021.01300      -107.61078        24.33534
     2021.01848       -92.74156        23.56898
     2021.02121      -113.42095        24.65576
     2021.02395      -129.42634        26.18519
     2021.02669      -144.05374        24.59300
     2021.02943      -140.08313        24.03805
     2021.04859      -111.06486        24.27258
     2021.06228      -149.29582        26.11582
     2021.06502       -94.21621        22.53175
     2021.06776      -116.38960        23.54255
     2021.07049      -122.87999        23.48970
     2021.07323      -111.24338        23.98519
     2021.07597      -137.37677        25.32633
     2021.07871      -122.36816        25.40561
     2021.08145      -139.08755        25.04555
     2021.09787      -113.30090        25.90441
     2021.10335      -156.53568        28.26956
     2021.10609      -143.28107        25.72933
     2021.17453       -59.17584        25.65005
     2021.17727       -20.80523        25.38909
     2021.18001       -10.33462        24.39480
     2021.18275       -50.23801        29.12511
     2021.18548       -52.23840        25.01252
     2021.18822       -41.43380        24.49390
     2021.19096       -21.01919        24.50051
     2021.19370         3.80942        26.31071
     2021.19644       -16.34497        24.70201
     2021.19917         9.34164        23.69120
     2021.20191       -19.42875        24.74165
     2021.20465       -17.85614        25.80531
     2021.20739        10.20247        26.40981
     2021.21013       -22.52392        25.45185
     2021.21286        25.99769        27.92932
     2021.21560        23.88530        26.64434
     2021.21834        31.93291        24.57648
     2021.22381        29.12912        23.88610
     2021.28679         4.46313        18.68672
     2021.28952        -0.80426        17.42156
     2021.29226        -1.29965        17.72215
     2021.29500         1.10796        17.55699
     2021.29774        -2.02043        18.03927
     2021.30047         1.06818        17.43147
     2021.30321         3.63779        17.68582
     2021.30595         4.99540        18.46540
     2021.30869         8.27901        18.45549
     2021.31143         8.42162        17.63297
     2021.31416         8.41523        17.43477
     2021.31690        19.19083        17.42486
     2021.31964         9.70644        18.09873
     2021.32238         6.19505        18.28371
     2021.32512        11.74266        17.84107
     2021.32785        12.08227        17.74528
     2021.33059         8.50988        17.60654
     2021.33333         8.41349        17.63627
     2021.33607         3.15510        17.82125
     2021.33880         2.86371        17.93357
     2021.34154         3.00332        17.76840
     2021.34428        -8.14207        18.31014
     2021.34702        -4.21346        17.58011
     2021.34976         0.00414        17.72546
     2021.35249         5.70175        17.73537
     2021.35523        10.60136        17.69903
     2021.35797         6.31797        17.66600
     2021.36071        10.87358        17.56029
     2021.36344         8.04619        17.50744
     2021.36618        -4.10120        17.56690
     2021.36892       -10.17859        17.77831
     2021.37166        -0.19698        17.62636
     2021.37440        11.65963        17.59002
     2021.37713        -3.03176        17.65939
     2021.37987        -2.49715        17.92366
     2021.38261         1.34645        18.61404
     2021.38535        -3.92994        18.16480
     2021.38809        -1.62133        17.90384
     2021.39082         5.97328        17.70894
     2021.39356         1.88389        17.68252
     2021.39630         8.04850        17.39843
     2021.39904         7.56211        17.45789
     2021.40177         9.15572        17.56029
     2021.40451         6.18233        17.84107
     2021.40725         2.43594        17.47110
     2021.40999         7.39855        17.52726
     2021.41273         6.99716        17.54708
     2021.41546         3.59776        17.50414
     2021.41820        -3.01263        17.71224
     2021.42094         5.45198        17.54378
     2021.42368         7.36059        17.86750
     2021.42642         8.98320        17.44468
     2021.42915         9.14781        17.56360
     2021.43189         8.84342        17.55038
     2021.43463         3.65903        17.56690
     2021.43737         9.84964        17.54378
     2021.44010         5.52025        17.80474
     2021.44284         2.13086        17.98972
     2021.44558         2.40846        17.95999
     2021.44832         4.70607        18.13507
     2021.45106         3.19068        18.00624
     2021.45379         3.02329        18.01945
     2021.45653         9.38590        17.90714
     2021.45927         0.89751        17.69903
     2021.46201         4.98412        17.55699
     2021.46475         5.68373        17.48762
     2021.46748         8.95234        17.49753
     2021.47022         8.73895        17.91044
     2021.47296         7.71456        17.58342
     2021.47570        -1.20483        17.51405
     2021.47843         2.47777        17.47441
     2021.48117         1.02438        17.47110
     2021.48391         0.10399        17.51735
     2021.48665         3.78360        17.53387
     2021.48939         9.29321        17.71885
     2021.49212         0.20182        17.55699
     2021.49486         5.69243        17.64948
     2021.49760         2.23604        18.25398
     2021.50034         1.45965        17.90384
     2021.50308        -4.52774        17.64288
     2021.50581       -13.82513        17.41825
     2021.50855         3.98248        17.40504
     2021.51129         9.85408        17.41495
     2021.51403         5.87569        17.44798
     2021.51676         9.51930        17.50083
     2021.51950         7.21391        17.97651
     2021.52224         5.62252        17.65939
     2021.52498         8.02413        17.38192
     2021.52772         8.65874        17.26630
     2021.53045         7.55035        17.62636
     2021.53319         8.37296        17.50744
     2021.53593         6.73857        17.81134
     2021.53867         8.57118        18.49843
     2021.54141        12.28079        17.75188
     2021.54414         7.86439        17.80804
     2021.54688         3.65800        17.58011
     2021.54962         9.47461        17.55699
     2021.55236         8.70622        17.49753
     2021.55509        11.81583        17.68582
     2021.55783         4.14044        17.81795
     2021.56057        11.65605        17.64948
     2021.56331         9.82866        17.60984
     2021.56605        10.86627        17.55699
     2021.56878        11.80188        17.41165
     2021.57152         6.71449        17.46119
     2021.57426         8.26109        17.74528
     2021.57700        10.87370        17.90714
     2021.57974         8.58731        17.47110
     2021.58247         1.06192        17.54378
     2021.58521        -0.46847        17.73206
     2021.58795         5.95014        17.72876
     2021.59069         4.36975        17.85759
     2021.59342         2.03236        18.75939
     2021.59616        14.75497        17.86420
     2021.59890        12.98058        17.75849
     2021.60164         9.07519        17.44137
     2021.60438        11.97780        17.55699
     2021.60711         1.74740        17.81465
     2021.60985         6.68301        17.51074
     2021.61259        13.46862        17.34888
     2021.61533         6.83723        17.42156
     2021.61807         8.61684        17.37861
     2021.62080         3.44145        17.76510
     2021.62354        19.82606        17.67261
     2021.62628         6.73067        17.56360
     2021.62902        15.51528        17.92035
     2021.63175        13.42289        17.93687
     2021.63449        -0.84750        17.76840
     2021.63723        17.43111        18.21104
     2021.63997        10.99871        18.03597
     2021.64271        13.40732        17.75188
     2021.64544         8.27493        17.44468
     2021.64818         8.41254        17.43147
     2021.65092        11.11915        17.61975
     2021.65366         3.51776        17.55038
     2021.65639        16.97137        17.82786
     2021.65913        14.10798        17.45128
     2021.66187        15.31259        17.41165
     2021.66461         4.97420        17.46780
     2021.66735        11.70481        17.28942
     2021.67008         7.96042        17.73867
     2021.67282         8.03702        18.16149
     2021.67556        19.36063        18.62065
     2021.67830        14.80024        17.74528
     2021.68104        11.05785        17.56029
     2021.68377        10.69246        17.72876
     2021.68651        12.07807        17.60984
     2021.68925        17.03268        17.93357
     2021.69199        18.78529        17.57020
     2021.69472        14.27890        17.75849
     2021.69746        17.49351        17.38192
     2021.70020        14.13912        17.46780
     2021.70294        12.61173        17.52726
     2021.70568        14.62033        17.61315
     2021.70841        14.35594        17.54047
     2021.71115        18.01655        17.49092
     2021.71389        19.11116        17.70564
     2021.71663        12.97577        17.40834
     2021.71937        13.80038        17.44468
     2021.72210         5.51999        17.39843
     2021.72484         7.82060        17.55038
     2021.72758        12.18821        17.53387
     2021.73032         0.55882        18.49843
     2021.73305         9.87743        17.68582
     2021.73579        19.77703        17.72546
     2021.73853        14.49564        18.09212
     2021.74127        17.30425        17.66600
     2021.74401        15.30086        17.86089
     2021.74674        18.32647        18.21435
     2021.74948        13.03108        17.43147
     2021.75222        16.02069        17.49423
     2021.75496        16.86930        17.58011
     2021.75770        10.14491        17.50083
     2021.76043        11.21152        17.60984
     2021.76317         7.39713        17.52065
     2021.76591        12.17574        17.44137
     2021.76865        11.84534        17.45459
     2021.77138        16.43795        17.65609
     2021.77412        17.43556        18.08552
     2021.77686        -5.93883        17.77501
     2021.77960        15.38778        17.98311
     2021.78234        11.95639        17.34558
     2021.78507        18.96100        17.50083
     2021.78781        26.15961        17.58342
     2021.79055        27.95222        18.05248
     2021.79329        15.34983        17.39513
     2021.79603        -5.53156        17.47110
     2021.79876        19.93905        17.56029
     2021.80150        25.87465        17.81134
     2021.80424        21.25226        17.92696
     2021.80698        21.39587        17.87411
     2021.80971        22.07248        17.55038
     2021.81245        30.53809        17.98642
     2021.81519        30.92470        17.51074
     2021.81793        28.88831        17.58672
     2021.82067         6.59392        17.77501
     2021.82340        24.00753        17.43807
     2021.82614        13.78114        17.49092
     2021.82888        10.62875        17.46119
     2021.83162        16.35236        17.36540
     2021.83436        13.14496        17.62966
     2021.83709        12.36357        17.55369
     2021.83983         5.56018        17.80804
     2021.84257         9.25879        17.73537
     2021.84531        14.78340        17.59002
     2021.84804        14.12601        17.42816
     2021.85078        13.12062        17.43477
     2021.85352         3.38423        17.34558
     2021.86447        14.50966        18.40594
     2021.86721         8.11127        18.18131
     2021.86995        19.23888        18.13507
     2021.87269        -4.39451        18.02936
     2021.87542       -27.71990        18.92786
     2021.87816         5.27071        18.45879
     2021.88090         4.29432        18.41915
     2021.88364        10.97893        18.58101
     2021.88637         2.36954        18.72305
     2021.88911        -0.17985        18.94768
     2021.89185       -14.06024        19.53236
     2021.89459       -15.73963        18.98401
     2021.89733       -22.38103        20.25248
     2021.90280         8.20819        17.45789
     2021.90554         7.77580        17.46450
     2021.90828        28.05641        17.54047
     2021.91102        25.34602        17.71224
     2021.91375        14.02663        17.50083
     2021.91649        25.00924        17.47110
     2021.91923        -2.71915        17.56360
     2021.92470       -21.80593        17.48432
     2021.92744       -28.50732        18.15158
     2021.93018       -28.93672        17.39183
     2021.93292       -17.76611        18.57771
     2021.93566         6.65750        18.00293
     2021.93839       -15.57689        17.84768
     2021.94113       -25.30128        18.29362
     2021.94387       -25.64567        18.45879
     2021.94661       -43.30106        18.95428
     2021.94935       -43.86845        19.09632
     2021.95208       -53.47384        19.03026
     2021.96030       -58.96801        19.32095
     2021.96851       -56.26819        18.88161
     2021.97125       -32.46558        19.42996
     2021.97399       -31.85297        18.66359
     2021.97672       -32.15836        18.81554
     2021.97946       -20.65175        19.23837
     2021.98220       -16.03814        18.70984
     2021.98494       -17.38453        19.05668
     2021.98767       -23.89792        19.21855
     2021.99041       -24.94031        18.82215
     2021.99315       -24.65571        18.82215
     2021.99589       -12.68910        19.03026
     2021.99863       -22.00049        18.92455
     2022.00136       -13.82288        18.78912
     2022.00410       -20.71827        19.11284
     2022.00684       -29.59166        19.31104
     2022.00958       -33.00905        19.09302
     2022.01232       -46.04244        18.93116
     2022.01505       -29.85383        19.40353
     2022.01779       -22.29722        19.62485
     2022.02053       -12.59461        19.86269
     2022.02327       -11.75700        21.04857
     2022.02600       -13.44140        19.60833
     2022.02874       -15.92779        19.41674
     2022.03148         1.18382        17.66600
     2022.03422        15.31243        17.68252
     2022.03696        10.36104        17.93357
     2022.03969        -6.13035        17.69573
     2022.04243         6.72526        18.23086
     2022.04517         9.55187        18.06570
     2022.04791        11.84748        17.78822
     2022.05065         5.13409        17.92696
     2022.05338       -11.77130        18.74287
     2022.05886       -11.42909        18.05248
     2022.06160        -2.07348        17.84768
     2022.06433        -2.50087        17.95999
     2022.06707         0.72774        17.89723
     2022.06981         1.25535        17.47771
     2022.07255        -7.29604        17.33567
     2022.07529        -0.44143        17.57351
     2022.07802         5.94818        17.56690
     2022.08076         9.42279        17.53717
     2022.08350       -28.13260        18.42245
     2022.08624        27.41601        22.73985
     2022.08898        10.17262        22.24766
     2022.09171        10.73122        20.89992
     2022.09445        -0.42717        17.60324
     2022.10540        -2.59173        17.72546
     2022.10814         8.75588        18.23086
     2022.11088         9.42149        17.59002
     2022.11362         4.70110        17.59663
     2022.11635         1.75471        17.44137
     2022.11909         2.14232        17.47441
     2022.12183         7.39193        17.47771
     2022.12457       -14.01147        18.73296
     2022.12731         5.32614        19.19212
     2022.13004         4.70875        18.57440
     2022.13278        -2.90864        17.38522
     2022.13552         4.12797        17.60324
     2022.13826       -11.36542        19.29122
     2022.14373        12.44780        22.20142
     2022.14647         4.17041        20.59602
     2022.14921         3.97302        20.65878
     2022.15195       -14.29237        18.22425
     2022.15468        -6.09177        17.99302
     2022.15742        -5.88416        17.73537
     2022.16016         7.59345        17.74197
     2022.16290         6.87506        17.68582
     2022.16564         5.35667        17.49753
     2022.16837         1.35028        17.66600
     2022.17385       -40.82450        20.04767
     2022.17659         7.45111        19.96179
     2022.17932        -9.90428        17.72546
     2022.18206        -5.87067        17.87741
     2022.18480       -11.35306        17.97320
     2022.18754        -2.87146        17.59993
     2022.19028        -9.01485        17.59993
     2022.19301        -2.82424        17.54047
     2022.19575        -2.37063        18.02275
     2022.19849       -21.48402        18.12516
     2022.20123        17.17959        17.73867
     2022.20397         7.02220        17.65609
     2022.20670       -13.59619        18.46870
     2022.20944         8.52442        17.87411
     2022.21218        -7.48197        17.60984
     2022.21492       -35.77836        17.66270
     2022.22313         9.89446        17.66600
     2022.22587        -0.12393        17.59663
     2022.22861         6.75368        17.68582
     2022.23134         8.54029        17.57681
     2022.23408        12.71890        17.54708
     2022.23682         0.48051        17.76179
     2022.23956         4.13612        17.40834
     2022.24230        -0.53527        17.51405
     2022.24503       -13.22866        17.65609
     2022.24777       -17.42505        17.63627
     2022.25051       -32.90844        17.55038
     2022.25325       -24.55684        17.61645
     2022.25598        11.31277        17.29603
     2022.25872        -3.49662        17.53056
     2022.26146       -20.70701        17.61315
     2022.26420       -17.11140        17.54378
     2022.26694        -7.08379        18.00954
     2022.26967       -34.10218        18.72305
     2022.27241         3.52643        19.18551
     2022.27515        -6.55896        19.20203
     2022.27789       -18.19035        17.67591
     2022.28062       -24.87774        17.61975
     2022.28336        -9.30314        17.60984
     2022.28610        -3.88153        17.97651
     2022.28884        -7.98992        17.71555
     2022.29158        -1.94031        17.38522
     2022.29431         0.63030        17.53056
     2022.29705         1.69191        17.45459
     2022.29979         7.70452        17.62966
     2022.30253         7.99013        17.50744
     2022.30527         8.37174        17.64618
     2022.30800         1.52935        17.50744
     2022.31074         3.81096        17.38852
     2022.31348         2.77257        17.57020
     2022.31622         0.70217        17.41165
     2022.31895        -8.34022        17.81465
     2022.32169         6.54539        17.79152
     2022.32443         0.06000        17.46450
     2022.32717         0.24661        17.48762
     2022.32991         4.57922        17.49753
     2022.33264         1.75883        17.67261
     2022.33538         0.76644        17.96329
     2022.33812         4.80605        18.09543
     2022.34086         3.71466        17.35549
     2022.34360       -10.69973        17.74858
     2022.34633       -27.84512        17.53056
     2022.35181       -27.28391        18.83536
     2022.35455         0.94970        17.40834
     2022.35728         3.79431        17.54047
     2022.36002         4.26892        17.32906
     2022.36276         3.56053        17.31585
     2022.36550        -3.56586        17.65279
     2022.36824         4.28675        17.43477
     2022.37097        -2.36564        17.51735
     2022.37371        -3.48003        17.39513
     2022.37645         0.46358        17.23657
     2022.37919       -11.19481        17.86089
     2022.38193        -5.02521        17.84768
     2022.38466        -5.06960        17.39513
     2022.38740       -12.79699        17.35879
     2022.39014         1.21062        17.37531
     2022.39288         6.74223        17.47110
     2022.39561         0.40884        17.40174
     2022.39835         0.83545        17.89393
     2022.40109         3.35306        17.99633
     2022.40383        11.64567        17.36870
     2022.40657        10.98328        17.37861
     2022.40930         6.58789        17.79152
     2022.41204        11.87749        17.76179
     2022.41478         3.93710        17.51074
     2022.41752         7.42871        17.76840
     2022.42026         1.48132        17.93357
     2022.42299         6.97793        17.37201
     2022.42573        -2.38246        17.94348
     2022.42847        14.26815        17.72876
     2022.43121         3.89776        18.06239
     2022.43394        16.09137        18.22095
     2022.43668        -5.14902        17.64618
     2022.43942         3.05359        17.93026
     2022.44216         5.14620        17.93026
     2022.44490        16.46380        17.82125
     2022.44763        10.23841        17.38192
     2022.45037         6.27202        17.37201
     2022.45311         0.53963        17.31585
     2022.45585         8.79924        17.32246
     2022.45859        -9.46615        17.36540
     2022.46132         3.76746        17.50083
     2022.46406         1.63607        17.35219
     2022.46680         0.74568        17.43477
     2022.46954         6.48129        17.30264
     2022.47227       -10.86210        17.51405
     2022.47501         8.72351        17.51074
     2022.47775         0.70911        17.84438
     2022.48049         5.17572        17.33567
     2022.48323        13.43733        17.33567
     2022.48596        20.79194        17.28282
     2022.48870         5.11755        17.62306
     2022.49144         6.95716        17.39843
     2022.49418        10.60177        17.77501
     2022.49692         8.47838        17.25969
     2022.49965         3.67699        17.71885
     2022.50239        -9.32140        17.44137
     2022.50513         9.39321        18.31344
     2022.50787        22.45182        18.40263
     2022.51060         6.86742        17.70564
     2022.51334        -0.60197        17.44798
     2022.51608         1.37464        17.34888
     2022.51882        -2.57075        17.39843
     2022.52156        -4.38914        17.49092
     2022.52429         8.25847        17.50744
     2022.52703         5.79408        17.52726
     2022.52977        15.65869        17.36540
     2022.53251         0.77230        17.74197
     2022.53525         1.85591        17.78822
     2022.53798         1.21952        17.36540
     2022.54072         3.99212        17.39843
     2022.54346         6.15073        17.67591
     2022.54620         3.37234        17.46119
     2022.54893        12.65695        17.42156
     2022.55167         9.86356        17.40504
     2022.55441         3.56617        17.47441
     2022.55715        13.85378        17.43477
     2022.55989         2.56439        17.33237
     2022.56262         4.49500        17.32576
     2022.56536        -9.12339        17.30924
     2022.56810         5.41322        17.40174
     2022.57084         7.46783        17.43477
     2022.57357        13.00943        17.77831
     2022.57631        -2.72596        17.28282
     2022.57905         3.69765        17.44468
     2022.58179        10.76026        17.40504
     2022.58453        22.08487        18.11525
     2022.58726         1.74148        17.82456
     2022.59000         2.67909        17.47771
     2022.59274        -0.60530        17.20684
     2022.59548         5.36831        17.25639
     2022.59822        -4.15608        17.52065
     2022.60095        -2.19147        17.45128
     2022.60369         5.43614        17.27291
     2022.60643         8.16974        17.44468
     2022.60917        10.01935        17.95339
     2022.61190        19.89796        17.58342
     2022.61464        15.12857        17.28942
     2022.61738        17.66718        17.25639
     2022.62012         4.50479        17.27621
     2022.62286         7.65340        17.25639
     2022.62559        11.45801        17.01195
     2022.62833         8.93662        17.15729
     2022.63107        15.09723        17.08132
     2022.63381        17.50984        17.20354
     2022.63655        12.12045        17.16060
     2022.63928        19.42105        17.25969
     2022.64202        13.46666        18.27050
     2022.64476        15.51127        17.81134
     2022.64750        18.03488        16.99213
     2022.65023        11.27049        17.84107
     2022.65297        24.40810        17.28612
     2022.65571        18.36671        17.21345
     2022.65845        14.85132        17.37531
     2022.66119        19.15893        16.92606
     2022.66392        18.02154        16.97231
     2022.66666        15.25015        17.11765
     2022.66940        20.87176        17.12756
     2022.67214         8.40536        17.38522
     2022.67488        18.22797        17.19693
     2022.67761        22.92958        17.09123
     2022.68035        16.41919        17.15399
     2022.68309        15.71680        17.21675
     2022.68583        13.93741        17.79483
     2022.68856        15.76202        17.29273
     2022.69130        17.87763        17.13747
     2022.69404        18.96824        17.44137
     2022.69678        16.51485        17.52065
     2022.69952        10.04646        17.50083
     2022.70225        19.07906        17.67591
     2022.70499        12.88767        17.70564
     2022.70773        15.59228        17.52396
     2022.71047        13.11789        17.04168
     2022.71321        20.57650        17.18372
     2022.71594        19.53511        16.89633
     2022.71868        16.38072        16.88312
     2022.72142        21.54433        16.95249
     2022.72416        16.46694        17.15729
     2022.72689        16.88655        17.23657
     2022.72963        31.15316        17.16390
     2022.73237        34.43577        17.02186
     2022.73511        16.63237        17.15729
     2022.73785        17.13498        16.97231
     2022.74058        20.62959        17.67261
     2022.74332        24.52720        17.81134
     2022.74606        23.59081        17.38522
     2022.74880        19.28742        16.84018
