# ================= DQRFIT RESULTS ================
# INPUT FILE: series/NWBG.rad
# OUTPUT: LDETRENDED
# FILTER FUNCTION: f(t)
# f(t)=+line(t)+annual(t)
# line(t)=+P 1+P 2*t
# annual(t)=+P 3*sin(2*pi*t+P 4)
# heav(t)=(t<0?0:1)
# TOTAL OBSERVATIONS MTOT= 4064
# INITIAL TIME INTERVAL= 2022.5270 - 2005.2660 = 17.2610
# TOTAL OBSERVATIONS AFTER PREFILTER M= 4055
# TIME-SPAN= 2022.5270 - 2005.2660 = 17.2610
# OBSERVATIONS: USED M=  4055 REJECTED MTOT-M=     9 %USED=   99.7785
# N=  4 PARAMETERS
# MAXSIG= 175.00000
# MAXRES=  30.16457
# SCALE FACTOR FOR LENGTHS: SCL=  10.00000
# SCALE FACTOR FOR SIGMAS: SCLSIG=   1.00000
# CHI^2=   6449.562 DOF=  4051 CHI^2/DOF=   1.59209
# RMS=     10.004 SDEV=      9.728 MEAN=   -2.34160
#  P #       PARAMETER +-    SIGMA %error PARAMETER NAME
# P 1 =      4185.27158 +-   61.447   1.47 YZERO                              
# P 2 =        -2.07645 +-    0.031   1.47 SLOPE                              
# P 3 =         4.79880 +-    0.173   3.61 ANNUAL AMPLITUDE                   
# P 4 =        -3.05435 +-    0.051   1.67 ANNUAL PHASE                       
#       T            LDETRENDED       SIG_OBS
     2005.26601        -4.04916        23.61802
     2005.26762         9.01918         7.56690
     2005.27310        -6.15445         7.52148
     2005.27583       -10.10576         7.56438
     2005.27857        -2.82208         7.57826
     2005.28131        -5.03039         7.83187
     2005.28405        -6.31371         7.44577
     2005.28679       -10.46702         7.23631
     2005.28952        -7.44534         7.21108
     2005.29226       -11.39365         7.16944
     2005.29500        -3.06197         7.18332
     2005.29774        -3.88528         7.15682
     2005.30047        -6.71460         7.20477
     2005.30321        -8.67391         7.13663
     2005.30595        -7.00223         7.12780
     2005.30869        -3.39654         7.14168
     2005.31143        -7.93386         7.18710
     2005.31416        -3.91817         7.10257
     2005.31690       -15.10149         7.17953
     2005.31964       -15.88580         7.19341
     2005.32238        -1.74312         7.42432
     2005.32512        -1.53443         7.13159
     2005.32785        -4.03875         7.12023
     2005.33059        -1.52806         7.12780
     2005.33333        -3.82838         7.15430
     2005.33607        -7.74669         7.26786
     2005.33880         0.13899         7.29057
     2005.34154        -1.21832         7.17449
     2005.34428        -1.24864         7.16061
     2005.34702        -3.21495         7.13032
     2005.34976        -7.57127         7.16565
     2005.35249        -2.56358         7.12023
     2005.35523        -2.96490         7.29688
     2005.35797        -3.36121         7.39025
     2005.36071        -7.36353         7.38016
     2005.36344        -8.47484         7.40539
     2005.36618        -6.33816         7.36502
     2005.36892        -8.92447         7.71579
     2005.37166         2.45421         7.53914
     2005.37440         0.28390         7.46091
     2005.37713         4.62658         7.75869
     2005.37987         4.02127         7.58583
     2005.38261       -12.80305         7.44451
     2005.38535       -10.90636         7.33852
     2005.38809       -18.89668         7.62242
     2005.39082        -6.13499         7.30445
     2005.39350        -9.47543         7.42937
     2005.39630        -6.52162         7.26155
     2005.39904        -3.73094         7.30950
     2005.40177        -6.95625         7.28300
     2005.40451        -0.14157         7.38394
     2005.40725        -3.37688         7.45334
     2005.40999        -6.17120         7.28174
     2005.41273         0.63949         7.40665
     2005.41546        -5.08083         7.29183
     2005.41820        -6.98114         7.19720
     2005.42094        -3.89746         7.19972
     2005.42368        -3.97777         7.14294
     2005.42642         3.92191         7.24388
     2005.42915        -3.80740         7.18206
     2005.43189        -1.69172         7.26533
     2005.43463       -11.52003         7.14925
     2005.43737        -7.94835         7.36249
     2005.44010         0.74234         7.67163
     2005.44284         6.48402         7.49119
     2005.44558        -5.33129         7.36502
     2005.44826        -0.05373         7.69686
     2005.45100        -5.51704         7.50003
     2005.45379        -5.22624         7.31328
     2005.45653        -1.00155         7.37511
     2005.45927         2.83413         7.28805
     2005.46201        -8.39018         7.13663
     2005.46475       -10.60750         7.23253
     2005.46748        -2.39681         7.36880
     2005.47022        -2.53113         7.34735
     2005.47296        -0.60944         7.24515
     2005.47570        -1.81476         7.13790
     2005.47843        -1.40507         7.23001
     2005.48117        -3.51539         7.49372
     2005.48391        -3.66370         7.19215
     2005.48665        -2.53602         7.11897
     2005.48939        -4.98533         7.13537
     2005.49212        -0.83465         7.15304
     2005.49486        -7.37696         7.18584
     2005.49760        -7.11628         7.25398
     2005.50034        -4.03259         7.13032
     2005.50308        -6.13491         7.12023
     2005.50581        -5.39822         7.16061
     2005.50855        -9.31954         7.31076
     2005.51129        -5.12085         7.40413
     2005.51403        -6.73617         7.15808
     2005.51676         2.60352         7.17449
     2005.51950         4.65520         7.24641
     2005.52224        -1.90311         7.30571
     2005.52498         2.53957         7.23001
     2005.52772        -4.78474         7.11518
     2005.53045        -3.00006         7.13663
     2005.53228        -5.05227        12.88783
     2005.53593        -1.45869         7.29940
     2005.53867         9.32000         7.73472
     2005.54141         4.02368         7.26407
     2005.54414        -1.63463         7.14547
     2005.54688         2.72805         7.32590
     2005.54962        -5.11826         7.16187
     2005.55236         3.49242         7.25019
     2005.55509        -0.75289         7.61990
     2005.55783         0.29579         7.16565
     2005.56057         2.30148         7.32590
     2005.56331        -6.31484         7.37637
     2005.56605         2.10685         7.59214
     2005.56878         4.19853         7.52526
     2005.57152        -8.15878         7.65144
     2005.57426         0.07090         7.33221
     2005.57700        -0.10341         7.43315
     2005.57974        -3.91273         7.34609
     2005.58247         1.46796         7.38773
     2005.58521         5.98664         7.40161
     2005.58795         2.46033         7.29562
     2005.59069         1.89601         7.18080
     2005.59342         4.45570         7.38899
     2005.59616         7.95538         7.17827
     2005.59890         1.22207         7.13032
     2005.60164         1.07375         7.22748
     2005.60438         7.09644         7.21486
     2005.60711        -2.01988         7.30193
     2005.60985         6.32581         7.45839
     2005.61168       -10.33440        13.21085
     2005.62616         6.52568         7.87099
     2005.62902        -0.45740         7.17322
     2005.63175         5.46029         7.31833
     2005.63449         0.07197         7.37132
     2005.63723         6.09366         7.23505
     2005.63997         8.77734         7.33852
     2005.64271        -0.02497         7.24262
     2005.64544        -0.83729         7.17196
     2005.64818         0.25940         7.24388
     2005.65092         5.75408         7.34104
     2005.65366         0.00777         7.21234
     2005.65639        -2.75255         7.15682
     2005.65913         0.45114         7.43946
     2005.66187        -3.50618         7.23001
     2005.66461        -1.37649         7.29688
     2005.66735         6.76019         7.31959
     2005.67008         6.97488         7.16818
     2005.67282        11.68856         7.19972
     2005.67556         5.52225         7.14925
     2005.67830        -4.51007         7.26786
     2005.68104        -1.59938         7.20351
     2005.68377         5.72230         7.26786
     2005.68651         6.66899         7.36375
     2005.68925        -2.70333         7.43063
     2005.69199        -3.93964         7.26912
     2005.69472         2.90004         7.31328
     2005.69746        -0.60627         7.33221
     2005.70020         5.66341         7.44955
     2005.70288         5.38998         7.58204
     2005.70568         6.34578         7.47227
     2005.70836         6.43435         7.60854
     2005.71109         1.26303         7.35997
     2005.71383         0.56272         7.25272
     2005.71657         1.37740         7.60475
     2005.71931         3.10709         7.33095
     2005.72205         4.59377         7.53409
     2005.72478         2.18546         7.38268
     2005.72752         4.46514         7.36880
     2005.73032         5.46895         7.42810
     2005.73300         4.72351         7.45586
     2005.73574         8.59020         7.57195
     2005.73847         3.42288         7.54797
     2005.74121         7.23957         7.46343
     2005.74395        14.75325         7.43441
     2005.74669        -2.32706         7.46596
     2005.74942        14.40062         7.36123
     2005.75216         1.98131         7.65018
     2005.75490        -1.09101         7.51517
     2005.75764         7.10968         7.61863
     2005.76038         4.38736         7.51643
     2005.76311         0.07905         7.48741
     2005.76585         5.80773         7.59971
     2005.76859         5.91042         7.41423
     2005.77133        13.45310         7.42180
     2005.77407         3.52579         7.48488
     2005.77680         6.62747         7.63882
     2005.77869         6.33538        14.33888
     2005.82306        12.23953         8.55614
     2005.82608         8.57880         7.17953
     2005.82882        -5.02551         7.18584
     2005.83156        -3.87683         7.49876
     2005.83430        -2.59114         7.43441
     2005.83704        -8.25646         7.49498
     2005.83977         2.75823         7.49246
     2005.84251        -3.05709         7.57321
     2005.84525        -0.31340         7.72210
     2005.84799        -4.13972         7.71453
     2005.85073         6.34297         7.47731
     2005.85346        -6.00835         7.45082
     2005.85620        -4.90866         7.70822
     2005.85814        -4.36863        12.24432
     2005.99309        -8.46241        11.49987
     2005.99583       -10.09473         7.41170
     2005.99857        -3.68604         7.57321
     2006.00410        -8.88555         7.26533
     2006.00684       -12.05187         7.35618
     2006.00958       -26.66518         7.41044
     2006.01232       -14.38150         7.38647
     2006.01420       -17.75659        12.03108
     2006.02697       -22.47806        15.51991
     2006.02874       -25.56239         7.66406
     2006.03148       -13.25570         7.29940
     2006.03422       -13.68702         7.27164
     2006.03696       -13.62833         7.21991
     2006.03969       -15.00165         7.37763
     2006.04243       -19.29296         7.27417
     2006.04517       -13.36728         7.36754
     2006.04757       -13.51430         8.25457
     2006.05065       -18.08691         7.27038
     2006.05338       -24.43822         7.32716
     2006.05612       -14.05854         7.11140
     2006.05886       -19.93085         7.03695
     2006.06160       -16.23917         7.06093
     2006.06433        -8.84748         7.17449
     2006.06707       -18.36280         6.97513
     2006.06981       -12.29911         6.99531
     2006.07255       -22.56243         7.04074
     2006.07529       -15.23174         6.96629
     2006.07802       -23.61606         6.94106
     2006.08076       -10.45837         7.10004
     2006.08350       -16.85269         7.06597
     2006.08624       -17.70900         6.94610
     2006.08898       -17.41832         6.96251
     2006.09171       -17.01263         6.88302
     2006.09445       -11.75195         7.06471
     2006.09719       -25.92626         7.00793
     2006.09993       -15.84658         7.07354
     2006.10266       -18.43389         6.98522
     2006.10814       -22.93952         7.10130
     2006.11088       -11.49684         7.22748
     2006.11362       -25.47115         7.00667
     2006.11635       -18.38247         7.04074
     2006.11909       -23.68678         7.11392
     2006.12183       -17.40810         7.07102
     2006.12457       -20.42141         7.04705
     2006.12656       -21.82027        10.39077
     2006.13004       -13.88904         7.05588
     2006.13278       -10.57736         7.11897
     2006.13552        -8.28467         7.04200
     2006.13826       -11.67899         7.03948
     2006.14099        -3.08630         7.14420
     2006.14373        -6.43462         7.15682
     2006.14647       -11.35193         7.15177
     2006.14921       -11.69525         7.02938
     2006.15195        -8.48356         7.07481
     2006.15468       -11.49588         7.10635
     2006.15742       -12.89819         7.16061
     2006.16016        -2.83251         7.15051
     2006.16290       -17.68282         7.39530
     2006.16564        -9.03414         7.03948
     2006.16837        -4.73945         7.21486
     2006.17111        -7.81277         6.97639
     2006.17385        -1.48908         7.08742
     2006.17659       -13.81740         7.06471
     2006.17932        -4.42071         7.13663
     2006.18206        -4.22603         7.14673
     2006.18480       -15.29734         7.14294
     2006.18754       -12.42966         7.13916
     2006.19028       -15.31997         7.11518
     2006.19301        -7.49629         7.25398
     2006.19575        -4.24560         7.17070
     2006.19849        -9.69792         7.19594
     2006.20123        -9.46823         7.36628
     2006.20397       -15.68255         7.50760
     2006.20767        -3.04385        13.05817
     2006.20944       -20.44618         7.24767
     2006.21218        -8.56349         7.25019
     2006.21492       -15.57181         7.27417
     2006.21765       -16.60012         7.22874
     2006.22039       -15.33544         7.23884
     2006.22313       -21.90275         7.46091
     2006.22587       -14.23907         7.53914
     2006.22861        -4.61938         7.38142
     2006.23134       -13.21970         7.26660
     2006.23402       -13.88713         8.83751
     2006.23699        -0.83797         9.98069
     2006.23956        -2.89164         8.15237
     2006.24230        -7.80296         6.98143
     2006.24503       -15.70427         7.22748
     2006.24777       -13.41059         7.02181
     2006.25051       -12.75090         7.07481
     2006.25325        -3.82722         7.23758
     2006.25598        -0.26053         7.11392
     2006.25872        -7.60385         7.14294
     2006.26146        -7.06416         7.38268
     2006.26420        -4.92348         7.42937
     2006.26694        -8.81579         7.32969
     2006.26967       -12.72011         7.16944
     2006.27241        -4.56242         7.07354
     2006.27515         2.58626         7.28300
     2006.27789        -7.95105         7.30193
     2006.28062        -4.58537         7.20603
     2006.28336        -5.37168         7.15430
     2006.28519        -2.93489        12.54210
     2006.28981         3.25870        16.10790
     2006.29158         1.32437         7.12023
     2006.29431       -17.57894         7.09373
     2006.29705       -10.20626         7.16439
     2006.29979         1.19543         7.27291
     2006.30253        -9.84389         7.13916
     2006.30527        -1.31420         7.11897
     2006.30800        -4.23452         7.02307
     2006.31074        -4.03083         7.12528
     2006.31348        -6.30715         7.33347
     2006.31622       -15.49546         7.16061
     2006.32169        -8.55309         7.18837
     2006.32443        -5.09841         7.18710
     2006.32717        -8.68472         7.30445
     2006.32991        -1.36704         7.27921
     2006.33264       -13.49935         7.14420
     2006.33538        -1.05467         7.08111
     2006.33812        -3.12498         7.09752
     2006.34086        -0.90830         7.17575
     2006.34360        -9.12261         7.19089
     2006.34633        -9.89393         7.15051
     2006.34907        -3.44524         7.12654
     2006.35181        -3.73856         7.25903
     2006.35455       -14.43987         7.17196
     2006.35728        -3.07919         7.17575
     2006.36002        -5.00650         7.12149
     2006.36276        -6.04082         7.15808
     2006.36550        -7.47413         7.17196
     2006.36824       -11.10545         7.15935
     2006.37080        -3.70012         7.84197
     2006.37371        -6.28908         7.34230
     2006.37645        -1.94439         7.21360
     2006.37919        -2.65671         7.33095
     2006.38193         1.39598         7.26533
     2006.38466         5.79566         7.30824
     2006.38740         6.25235         7.32338
     2006.39014         2.72903         7.31707
     2006.39288         2.69472         7.44829
     2006.39544        -5.45895         7.89370
     2006.39835         2.25809         7.45334
     2006.40109        -3.23223         7.24515
     2006.40383         0.19146         7.26786
     2006.40657        -1.97386         7.28931
     2006.40930        -5.62117         7.42684
     2006.41204        -0.66649         7.30824
     2006.41478        -6.39580         7.35618
     2006.41752        -0.75012         7.54671
     2006.42026         2.40857         7.41801
     2006.42299         3.41325         7.80033
     2006.42573         4.28394         7.43189
     2006.42847        -6.07638         7.43063
     2006.43121        -5.99669         7.42810
     2006.43394        -3.03501         7.18837
     2006.43668        -5.71932         7.24893
     2006.43942        -2.33264         7.27417
     2006.44216         0.86505         7.32716
     2006.44490         3.27173         7.26533
     2006.44763        -4.27358         7.20603
     2006.45037         1.66010         7.30571
     2006.45311        -0.79421         7.26029
     2006.45585         9.09947         7.69056
     2006.45859        -2.93284         7.21739
     2006.46132        -3.10416         7.37132
     2006.46406        -1.75747         7.41170
     2006.46680         0.70021         7.43063
     2006.46954         4.40690         7.39656
     2006.47227         2.88158         7.41675
     2006.47501        -2.01973         7.40413
     2006.47775         0.02595         7.39782
     2006.48049        -1.24836         7.46722
     2006.48323         3.00332         7.50507
     2006.48596         5.19501         7.61359
     2006.48870        -4.89931         7.60349
     2006.49144         1.78638         7.38016
     2006.49418        -1.76094         7.53157
     2006.49692         1.69075         7.45965
     2006.49965        -1.11557         7.47227
     2006.50239       -11.08788         7.46596
     2006.50513        -4.51320         7.50381
     2006.50787        -2.01651         7.41170
     2006.51060        -2.09283         7.41675
     2006.51334        -5.08214         7.26660
     2006.51614        -4.30834         7.91894
     2006.51876         2.40011         8.41608
     2006.52156        -7.36709         7.51895
     2006.52429         0.41160         7.41170
     2006.52703         5.58828         7.52400
     2006.52977         1.45597         7.47101
     2006.53251        -4.30335         7.47101
     2006.53525         0.56334         7.42558
     2006.53798        -6.10098         7.38520
     2006.54072         1.07371         7.54293
     2006.54346         4.77039         7.17449
     2006.54620         3.13508         7.19972
     2006.54893        -1.54824         7.12780
     2006.55167        -0.75155         7.31202
     2006.55441        -3.44587         7.24010
     2006.55715         0.62982         7.30950
     2006.55989         0.27950         7.27543
     2006.56262         2.30719         7.21234
     2006.56536         2.28987         7.23001
     2006.56810        -5.59944         7.19720
     2006.57084         4.68524         7.29183
     2006.57357        -0.34607         7.23001
     2006.57631         3.60761         7.19846
     2006.57905        -0.74170         7.11266
     2006.58179        -0.16902         7.14420
     2006.58453        -2.12433         7.36249
     2006.58675        -1.12771         9.31194
     2006.59645         1.29042        18.55827
     2006.59822        -0.75791         7.41927
     2006.60095        -9.18822         7.38520
     2006.60369         3.14646         7.29309
     2006.60643         6.06415         8.76307
     2006.60917         2.27083         7.19594
     2006.61190        -2.05748         7.19972
     2006.61464         5.35720         7.17953
     2006.61738         3.32989         7.21486
     2006.62012        -2.31443         7.26155
     2006.62286         1.16426         7.10383
     2006.62559        -2.30006         7.15682
     2006.62833         0.02663         7.34987
     2006.63107        -3.02569         7.23127
     2006.63381         1.87900         7.17953
     2006.63655        -2.93632         7.22496
     2006.63928         1.95037         7.27921
     2006.64202         2.66405         7.27291
     2006.64476         4.29374         7.63756
     2006.64750         7.20642         7.54166
     2006.65023         4.34111         7.51517
     2006.65297         0.86579         7.66910
     2006.65571         7.40448         7.72210
     2006.65845         6.45716         7.79402
     2006.66119         5.98885         7.60475
     2006.66392        -1.23247         7.54166
     2006.66666         4.41322         7.57573
     2006.66940         3.21990         7.63125
     2006.67214         6.07859         7.64261
     2006.67488        -4.78373         7.77636
     2006.67761        -2.32704         7.68803
     2006.68035        -1.92036         7.65018
     2006.68309         5.81033         7.99464
     2006.68583         4.73201         7.95931
     2006.68856         4.01870         7.66280
     2006.69130         4.71338         7.43694
     2006.69404         7.30707         7.47227
     2006.69678         1.87575         7.44198
     2006.69952         6.47944         7.45208
     2006.70225         7.39112         7.74860
     2006.70499         5.12581         7.41549
     2006.70773         5.58249         7.26912
     2006.71047         6.56118         7.38647
     2006.71680        13.78933        14.30229
     2006.71868         1.66223         7.41044
     2006.72142         9.68192         7.48615
     2006.72416         6.56560         7.55807
     2006.72689        13.24229         7.38268
     2006.72963         8.47997         7.38899
     2006.73237         6.54966         7.32464
     2006.73511         0.54034         7.29940
     2006.73785        -0.80397         7.29183
     2006.74058         5.82971         7.28426
     2006.74332        11.70240         7.28174
     2006.74606         9.81208         7.37511
     2006.74880         7.47277         7.44451
     2006.75154         7.17945         7.58330
     2006.75444         4.25749         7.91641
     2006.75701         7.83382         7.39530
     2006.75975         8.62651         7.34357
     2006.76249         1.60519         7.72715
     2006.76522         0.25588         7.46974
     2006.76796        -3.95144         7.54419
     2006.77070         0.66725         7.41044
     2006.77344         3.33993         7.25272
     2006.77618         6.10462         7.57952
     2006.77891         7.35730         7.29309
     2006.78165         5.79099         7.14294
     2006.78439         1.01067         7.15304
     2006.78713         1.88836         7.74355
     2006.78987         4.67104         7.35744
     2006.79260         6.41473         7.11644
     2006.79534        -7.29259         7.28679
     2006.79808         0.12810         7.23253
     2006.80082         3.33278         7.36628
     2006.80355         0.48147         7.14294
     2006.80629         7.42915         7.15430
     2006.80903         2.57984         7.25272
     2006.81177         5.88052         7.28679
     2006.81451         4.77421         7.34735
     2006.81724        -4.15411         7.34987
     2006.81998        -3.27542         7.22117
     2006.82272         1.49726         7.10004
     2006.82546        10.34095         7.29057
     2006.82820         1.25563         7.20982
     2006.83093         2.62132         7.08995
     2006.83367         8.66400         7.12780
     2006.83641         1.13869         7.25398
     2006.83915         3.83437         7.37890
     2006.84188        -3.86594         7.34104
     2006.84462         4.26774         7.59718
     2006.84730        -7.21069         7.65396
     2006.85010         0.51711         7.54040
     2006.85284         5.42280         7.68298
     2006.85557         9.51648         7.64008
     2006.85831         1.26617         7.37132
     2006.86105         0.20485         7.66280
     2006.86379        -5.67546         7.46217
     2006.86653        -0.14078         7.55176
     2006.86926         7.30291         7.16944
     2006.87200         6.97259         7.19341
     2006.87474        -0.68872         7.25524
     2006.87748        -2.52104         7.14294
     2006.88021        -2.42535         7.07607
     2006.88295        -0.95867         7.42558
     2006.88569         7.53802         7.31202
     2006.88843         0.82571         7.26786
     2006.89117        -6.11261         7.18332
     2006.89390        -9.24292         7.37890
     2006.89664        -6.37524         7.40035
     2006.89938         0.25945         7.18710
     2006.90212        -2.32687         7.29940
     2006.90485        -5.39318         7.38647
     2006.90759         2.40450         7.23127
     2006.91033        -2.59281         7.16313
     2006.91307         4.47387         7.27291
     2006.91581        -3.94344         7.20729
     2006.91854       -13.11476         7.10509
     2006.92128        -5.12507         7.06597
     2006.92402        -6.02939         7.28048
     2006.92676        -1.15470         7.29562
     2006.92950        -7.69902         7.21613
     2006.93223        -6.00933         7.24767
     2006.93497         6.36735         7.42937
     2006.93771         4.00504         7.37006
     2006.94045         2.86372         7.45334
     2006.94318         1.90041         7.25146
     2006.94592         2.26709         7.34609
     2006.94866        -0.93322         7.57321
     2006.95140        -6.35954         7.16818
     2006.95414        -2.91185         7.69560
     2006.95687        -2.60917         7.26533
     2006.95961        -3.50348         7.18458
     2006.96235        -4.65280         7.37637
     2006.96509        -6.65311         7.31833
     2006.96783         3.05157         7.26533
     2006.97056        -7.57774         7.36375
     2006.97330        -4.89406         7.17070
     2006.97604        -6.52837         7.25146
     2006.97878       -11.55469         7.21991
     2006.98151        -5.42100         7.23505
     2006.98425        -0.32132         7.26786
     2006.98699        -4.95263         7.51391
     2006.98973       -14.19595         7.37385
     2006.99247        -7.18326         7.77257
     2006.99520        -8.21458         7.39025
     2006.99794        -5.53589         7.37385
     2007.00342        -7.54852         7.91641
     2007.00616       -12.75484         7.43820
     2007.00889        -0.84415         7.43063
     2007.01163        -7.05847         7.30066
     2007.01437        -7.45878         7.38520
     2007.01711        -9.86110         7.30824
     2007.01984       -10.24141         7.17070
     2007.02258        -9.39073         7.12906
     2007.02532        -8.94004         7.10761
     2007.02806       -14.39136         7.23505
     2007.03080       -10.14567         7.01550
     2007.03353       -12.56099         6.91077
     2007.03627       -10.66430         6.90699
     2007.03901        -8.42162         6.86283
     2007.04175       -20.13493         6.98017
     2007.04449       -15.79925         6.88932
     2007.04722       -14.89656         7.14799
     2007.04996        -8.45688         7.22622
     2007.05214         7.68165         9.44317
     2007.05544        -4.26951         6.88302
     2007.05817        -7.50782         6.90320
     2007.06091       -16.45314         6.97008
     2007.06365        -9.91445         6.90068
     2007.06639        -5.40377         7.02560
     2007.06913        -5.01108         6.82497
     2007.07186         4.62660         6.83633
     2007.07460        -5.29871         6.83128
     2007.07734       -10.75903         6.83128
     2007.08008        -0.02734         6.94737
     2007.08282         0.30734         6.83002
     2007.08555         0.54303         6.97386
     2007.08829        -4.85429         6.92339
     2007.09103        -0.85460         6.98396
     2007.09377        -3.52592         6.90320
     2007.09650        -4.54823         6.95872
     2007.09924        -1.87055         6.89816
     2007.10198        -6.75986         6.80352
     2007.10472        -6.01018         6.96125
     2007.10746        -7.89449         7.16313
     2007.11019        -2.85981         6.94737
     2007.11293         4.86588         6.91708
     2007.11567        -2.50344         6.87544
     2007.11841        -2.56775         6.74674
     2007.12115        -4.86107         6.87923
     2007.12388        -9.77338         7.07354
     2007.12662        -5.16770         6.90573
     2007.12936        -1.19801         7.13790
     2007.13210        -1.59933         6.90194
     2007.13483        -1.18264         6.89563
     2007.13757        -4.23096         7.15935
     2007.14031         2.54873         7.01172
     2007.14305        -3.91559         6.93980
     2007.14579        -2.54090         7.01550
     2007.14852        -5.94922         6.88554
     2007.15126         1.12647         6.97639
     2007.15400         2.39015         6.93096
     2007.15674        -0.37416         6.93980
     2007.15948        -5.07648         6.97891
     2007.16221        -7.46079         7.11518
     2007.16495        -5.37911         7.18206
     2007.16769        -0.26342         7.09373
     2007.17043        -2.96274         7.07354
     2007.17316        -1.00405         7.24136
     2007.17590        -6.08137         7.08364
     2007.17864         0.24732         7.25650
     2007.18138        -2.64300         7.09878
     2007.18412        -1.57431         7.07481
     2007.18685         0.15437         7.20982
     2007.18959        -2.62194         7.19089
     2007.19233       -10.83126         7.24893
     2007.19507        -5.64357         6.97765
     2007.19780       -10.53189         6.99153
     2007.20054        -3.91520         7.03821
     2007.20328        -7.07452         7.02433
     2007.20602        -5.80583         6.97891
     2007.20876        -4.80715         7.13916
     2007.21149       -14.70746         7.00919
     2007.21423         0.86922         7.08869
     2007.21697         0.97991         6.98522
     2007.21971        -1.31841         6.93601
     2007.22245        -2.68172         7.05462
     2007.22518        -6.06704         6.98522
     2007.22792         1.54065         6.97513
     2007.23066        -4.54967         6.91835
     2007.23340        -2.00598         7.03948
     2007.23613        -9.92730         7.05462
     2007.23887        -8.96861         6.93601
     2007.24161        -7.69093         7.06850
     2007.24435         1.40476         7.00415
     2007.24709        -3.61656         6.90951
     2007.24982        -0.11487         6.87671
     2007.25256        -4.59219         6.94232
     2007.25530        -1.06150         7.18584
     2007.25804        -6.90182         7.07859
     2007.26078        -2.94313         7.04074
     2007.26351        -0.93645         6.99784
     2007.26625         0.11924         7.04452
     2007.26899         2.82492         6.97513
     2007.27173         1.64061         7.05588
     2007.27446         9.09729         6.91456
     2007.27720         2.97098         6.90699
     2007.27994         2.14766         6.92592
     2007.28268         5.73335         6.96755
     2007.28542         0.92203         6.93980
     2007.28815        -1.14828         6.92465
     2007.29089         5.02540         6.93222
     2007.29363         0.48409         6.92213
     2007.29637        -7.08623         6.88049
     2007.29911        -2.96454         6.92970
     2007.30184         2.59614         6.95241
     2007.30458         1.47883         6.89185
     2007.30732        -2.04549         7.04705
     2007.31006         3.25320         7.13790
     2007.31279        -0.90912         7.05588
     2007.31553        -1.74543         6.92970
     2007.31827        -4.51675         6.93980
     2007.32101        -1.36206         6.98900
     2007.32375        -0.23238         7.07481
     2007.32648        -2.55269         6.96377
     2007.32922         2.57299         6.97386
     2007.33196         2.08068         7.21865
     2007.33470         2.17236         7.19215
     2007.33744         0.02405         7.01803
     2007.34017        -7.50627         7.00667
     2007.34291        -6.02558         6.95620
     2007.34565        -8.22390         6.93980
     2007.34839         2.46579         7.42432
     2007.35112        -1.87453         7.12402
     2007.35386        -8.97184         7.40287
     2007.35660       -12.58016         7.41296
     2007.35934        -1.08347         7.06471
     2007.36208        -1.04479         7.02433
     2007.36481        -6.97210         7.13285
     2007.36755        -1.73142         7.02686
     2007.37029        -4.85073         7.10383
     2007.37303        -0.32605         7.21486
     2007.37577         0.06464         7.25903
     2007.37850        -7.59768         7.14673
     2007.38124         2.15601         7.05588
     2007.38398        -6.37131         7.14042
     2007.38672        -7.11162         6.99910
     2007.38945        -8.98594         7.10383
     2007.39219        -3.36225         7.25524
     2007.39493        -0.39057         7.02433
     2007.39767        -4.06988         6.94106
     2007.40041        -0.96020         6.95746
     2007.40314        -8.16751         6.94737
     2007.40588        -3.45683         6.96882
     2007.40862        -3.59314         7.02812
     2007.41136        -7.64446         7.08238
     2007.41410        -6.45077         7.01929
     2007.41683        -3.29609         6.98774
     2007.41957        -3.94840         7.23253
     2007.42231        12.82328         7.29183
     2007.42505         0.26697         7.23127
     2007.42778         1.83465         7.04452
     2007.43052        -0.33466         6.88680
     2007.43326        -0.11498         6.93475
     2007.43600        -2.66429         7.07354
     2007.43874         8.47639         7.12023
     2007.44147        -0.03692         7.12275
     2007.44421        -9.46824         7.04452
     2007.44695        -4.03855         7.08616
     2007.44969        -4.02587         7.00036
     2007.45243        -2.71118         7.01803
     2007.45516         1.62850         6.95115
     2007.45790         4.39719         6.98774
     2007.46064         3.02787         6.92213
     2007.46338        -2.50344         6.92213
     2007.46611        -3.30376         6.99153
     2007.46885         4.52193         6.96503
     2007.47159         5.37661         6.99658
     2007.47433        -2.97370         6.95872
     2007.47707        -7.99702         7.15304
     2007.47980       -10.21833         6.86914
     2007.48254        -5.19165         6.99279
     2007.48528        -6.30896         7.03821
     2007.48802        -3.71628         7.04957
     2007.49076         1.70241         7.08364
     2007.49349        -6.35391         6.95115
     2007.49623        -6.04022         7.02433
     2007.49897         0.46846         7.07102
     2007.50171        -2.87785         7.00541
     2007.50444        -4.85717         7.00793
     2007.50718         1.14052         6.99910
     2007.50992         0.40720         7.17196
     2007.51266        -0.66011         7.15430
     2007.51540         3.53257         7.12906
     2007.51813         1.39326         7.00288
     2007.52087        -0.17906         7.00541
     2007.52361         0.83863         6.99279
     2007.52635         6.07431         7.13411
     2007.52908         0.20700         7.12023
     2007.53182         3.06668         7.17449
     2007.53456         1.68237         7.35871
     2007.53730         2.49505         7.05336
     2007.54004        -0.75926         7.09247
     2007.54277        -3.68858         7.16439
     2007.54551         4.06111         7.09752
     2007.54825         4.40679         7.10383
     2007.55099        -2.39052         6.98774
     2007.55373        -0.95184         7.17322
     2007.55646         1.63885         7.09626
     2007.55920         8.68853         7.09626
     2007.56194         6.78122         7.04957
     2007.56468        -0.11610         6.96377
     2007.56741        -4.07041         6.98143
     2007.57015        10.08527         7.18710
     2007.57289         0.27196         7.14420
     2007.57563         1.72464         7.00288
     2007.57837        -3.07167         7.10383
     2007.58110         6.59301         6.99531
     2007.58384         2.01170         7.17196
     2007.58658        -0.54662         7.03191
     2007.58932         4.02007         6.96125
     2007.59206         7.25575         6.99027
     2007.59479         8.07244         7.11897
     2007.59753         2.62912         7.12402
     2007.60027         4.39281         7.09373
     2007.60301         6.55349         7.00667
     2007.60574         4.31318         6.97765
     2007.60848         5.79386         7.00288
     2007.61122        14.06155         7.08616
     2007.61396         5.44823         7.04957
     2007.61670        -2.33608         7.68046
     2007.61943         4.26360         7.54797
     2007.62217         9.41329         7.33221
     2007.62491         4.11697         7.39404
     2007.62765        10.97366         7.45965
     2007.63039         9.12434         7.43946
     2007.63312         8.52403         7.40539
     2007.63586         2.78371         7.19215
     2007.63860         7.29540         7.24010
     2007.64134         7.78208         7.10887
     2007.64407         6.43677         7.48236
     2007.64681        -9.58455         7.52779
     2007.64955        10.20814         7.46596
     2007.65229         5.75582         7.42684
     2007.65503         9.08751         7.29562
     2007.65776         7.55019         7.37132
     2007.66050        10.11388         7.43820
     2007.66324         5.69756         7.47353
     2007.66598        10.62225         7.32464
     2007.66872        15.99893         7.59592
     2007.67145         1.53662         7.39908
     2007.67419        14.66330         8.05269
     2007.67693        14.90099         7.37132
     2007.67967        16.36467         7.50886
     2007.68240        16.55936         7.36249
     2007.68514        10.35404         7.44955
     2007.68788        12.17773         7.38394
     2007.69062         8.84841         7.27038
     2007.69336         8.84910         7.30697
     2007.69609         5.37878         7.31959
     2007.69883         7.23247         7.28552
     2007.70157        13.56715         7.42810
     2007.70431         8.95884         7.57195
     2007.70705        12.41952         7.38268
     2007.70978        11.31021         7.63377
     2007.71252        11.01789         7.22622
     2007.71526        14.51558         7.09626
     2007.71800        13.66026         7.03948
     2007.72073         5.46395         7.08742
     2007.72347        19.36963         7.18206
     2007.72621         9.29432         7.15935
     2007.72895         9.50800         7.09752
     2007.73169         7.57169         7.15682
     2007.73442         3.27537         7.14294
     2007.73716         7.88006         7.33978
     2007.73990        13.20674         7.34735
     2007.74264         9.65543         7.12528
     2007.74538         2.22311         7.16565
     2007.74811        11.28480         7.33852
     2007.75085         6.85348         7.47984
     2007.75359        15.19217         7.64513
     2007.75633         7.88685         7.20855
     2007.75906         5.88854         7.05336
     2007.76180         3.55622         7.11266
     2007.76454         1.45691         7.09373
     2007.76728        13.11559         7.66406
     2007.77002         7.52028         7.72210
     2007.77275         3.61896         7.54671
     2007.77549         5.37065         7.11014
     2007.77823         9.49433         7.08616
     2007.78097         4.06802         7.01803
     2007.78371         7.29570         7.09247
     2007.78644         7.83339         7.14168
     2007.78918         8.63307         7.27164
     2007.79192        10.23576         7.34861
     2007.79466        12.26044         7.29940
     2007.79739        11.28713         7.41549
     2007.80013         8.20581         7.35114
     2007.80287         2.16450         7.14673
     2007.80561        -0.90582         7.13159
     2007.80835         1.04087         7.21991
     2007.81108         7.00655         7.35240
     2007.81382        -0.35276         7.51391
     2007.81656         2.57292         7.38773
     2007.81930         0.35861         7.11897
     2007.82203        -5.04771         7.15682
     2007.82477         0.30298         7.31454
     2007.82751        -5.31634         7.19972
     2007.83025        -3.25665         7.14168
     2007.83299        -4.27897         7.35114
     2007.83572        -1.81128         7.11266
     2007.83846        -2.33760         7.03191
     2007.84120         1.38009         7.03948
     2007.84394        -6.72023         7.07733
     2007.84668        -8.26754         7.12906
     2007.84941        -1.24586         7.37637
     2007.85215         2.45783         7.31454
     2007.85489        13.75951         7.55933
     2007.85763        -3.33980         7.41170
     2007.86036         0.96588         7.14547
     2007.86310         0.69357         7.25524
     2007.86584         1.84325         7.35492
     2007.86858         0.01994         7.10761
     2007.87132         3.11562         7.41801
     2007.87405        -0.32469         7.32969
     2007.87679         3.89699         7.28931
     2007.87953        -6.57932         7.10004
     2007.88227        -0.76164         7.11392
     2007.88501        -4.07595         7.03317
     2007.88774        -9.10727         7.12528
     2007.89048        -3.43358         7.15935
     2007.89322        -5.25390         7.27417
     2007.89596         2.29679         7.26533
     2007.89869        -5.85453         7.11644
     2007.90143        -2.42184         7.15430
     2007.90417        -1.46216         7.22117
     2007.90691        -7.72247         7.16818
     2007.90965        -6.31379         7.18710
     2007.91238        -6.13610         7.09121
     2007.91512         1.95558         7.08742
     2007.91786        -0.90373         7.15304
     2007.92060       -11.77505         7.27669
     2007.92334       -13.64036         7.45586
     2007.92607        -2.42968         7.16818
     2007.92881        -1.86399         7.22117
     2007.93155        -4.58631         7.12906
     2007.93429       -11.62462         7.14547
     2007.93702       -11.09794         7.41423
     2007.93976        -7.12325         7.17575
     2007.94250        -0.17657         7.19846
     2007.94524         0.94912         7.42432
     2007.94798        -8.35320         7.20351
     2007.95071        -4.64651         7.22117
     2007.95345         2.00417         7.40665
     2007.95619        -0.50014         7.30445
     2007.95893         5.85854         7.29183
     2007.96167         3.23723         7.30824
     2007.96440         2.37691         7.34357
     2007.96714        -2.02140         7.41675
     2007.96988        -7.96372         7.27921
     2007.97262        -1.47403         7.32842
     2007.97535        -6.09435         7.36754
     2007.97809       -10.34566         7.22748
     2007.98083        -8.98698         7.22748
     2007.98357        -4.43629         7.15682
     2007.98631        -0.33361         7.34987
     2007.98904        -0.70292         7.54671
     2007.99178        -3.20424         7.42432
     2007.99452        -9.25355         7.45460
     2007.99726        -6.38687         7.06219
     2008.00000        -7.11218         7.19468
     2008.00273        -4.78450         7.23505
     2008.00547         9.97219         7.03317
     2008.00821         7.20887         7.24388
     2008.01095        -1.29444         7.04452
     2008.01368         1.83124         6.99153
     2008.01642         1.84393         7.00415
     2008.01916       -23.65039         7.22748
     2008.02190        -2.33770         7.27795
     2008.02464        -2.81202         7.19215
     2008.02737       -13.28233         7.08742
     2008.03011        -3.97965         7.18837
     2008.03285       -11.74296         7.05336
     2008.03559        -4.54128         7.08869
     2008.04106       -13.90691         7.18837
     2008.04380       -13.35422         7.22117
     2008.04654       -13.99554         7.17953
     2008.04928        -3.65285         7.16565
     2008.05201        -9.91517         7.03317
     2008.05475        -5.41348         7.00036
     2008.05749       -11.03980         7.03821
     2008.06023        -7.44611         7.04074
     2008.06297        -0.88943         7.06597
     2008.06570        -1.15174         6.98648
     2008.06844        -6.28006         7.00919
     2008.07118        -2.33237         7.05840
     2008.07392        -6.42569         7.05966
     2008.07666        -4.31700         7.42810
     2008.07939       -11.61132         7.32969
     2008.08213        -8.68463         7.06345
     2008.08487        -8.44295         7.22748
     2008.08761       -11.16226         7.00667
     2008.09034        -4.43058         7.06219
     2008.09308        -6.62889         7.03695
     2008.09582        -1.27321         7.30066
     2008.09856       -10.73752         7.25776
     2008.10130        -4.82284         7.28048
     2008.10403        -8.60515         7.08364
     2008.10677        -5.09947         7.09752
     2008.10951        -1.64778         7.05462
     2008.11225        -5.14910         6.97134
     2008.11498       -15.24641         7.08616
     2008.11772        -5.54873         7.05966
     2008.12046        -4.11904         7.02307
     2008.12320       -12.46536         7.24136
     2008.12594        -3.71267         7.03948
     2008.12867        -4.37399         7.00288
     2008.13141         5.95370         7.03569
     2008.13415         1.60038         7.05083
     2008.13689         4.73807         7.05714
     2008.13963        -1.05425         7.02938
     2008.14236        -4.08656         7.03064
     2008.14510         1.82012         6.98648
     2008.14784         3.22781         7.04705
     2008.15058        -4.50451         6.96882
     2008.15331        -9.72082         7.06597
     2008.15605        -4.66214         7.01172
     2008.15879        -3.16045         6.97891
     2008.16153        -4.09477         7.10761
     2008.16427        -5.85908         6.98396
     2008.16700        -9.71840         7.03317
     2008.16974        -5.90271         7.14673
     2008.17248        -6.22903         7.01298
     2008.17522        -7.79534         7.05588
     2008.17796        -9.62066         7.00288
     2008.18069        -8.58297         6.99784
     2008.18343        -1.94929         7.04705
     2008.18617        -6.83060         7.03569
     2008.18891        -6.52392         7.19215
     2008.19164        -5.35423         7.21234
     2008.19438        -6.34755         7.03695
     2008.19712       -11.13486         7.10761
     2008.19986         0.77282         7.04705
     2008.20260        -1.52849         7.04326
     2008.20533         2.81519         7.00036
     2008.20807        -1.43012         7.25650
     2008.21081       -12.27744         7.30193
     2008.21355        -4.24875         9.66020
     2008.21629        -0.34507         7.16818
     2008.21902        -6.90738         7.11897
     2008.22176        -8.68370         7.16692
     2008.22450        -9.29401         7.12906
     2008.22724        -4.92833         7.09499
     2008.22997        -3.85464         7.24515
     2008.23271        -0.77796         7.27795
     2008.23545        -7.28727         7.28300
     2008.23819        -1.80659         7.12780
     2008.24093        -4.79290         7.08995
     2008.24366        -3.25022         7.07102
     2008.24640        -3.69253         7.09878
     2008.24914        -2.56885         7.01424
     2008.25188        -1.54316         7.10887
     2008.25462        -5.03348         6.94863
     2008.25735        -6.66679         7.10887
     2008.26009        -2.50311         6.96251
     2008.26283        -1.43342         6.98900
     2008.26557        -7.37174         6.97891
     2008.26830        -5.01205         6.99027
     2008.27104        -1.54937         6.95494
     2008.27378         1.35332         6.99531
     2008.27652        -9.25500         7.04074
     2008.27926        -5.18731         7.15177
     2008.28199         6.16937         7.04705
     2008.28473         1.03406         7.10509
     2008.28747        -3.66526         7.18332
     2008.29021        -3.94357         7.15808
     2008.29295        -1.61389         6.99531
     2008.29568         2.82380         7.00667
     2008.29842        -3.23252         7.04579
     2008.30116        -5.13883         6.94358
     2008.30390         1.10685         7.20477
     2008.30663        -5.02446         6.98774
     2008.30937        -7.90478         7.17196
     2008.31211        -1.44809         7.07102
     2008.31485        -7.53241         6.93349
     2008.31759        -7.42572         7.16313
     2008.32032       -10.16504         7.19468
     2008.32306        -6.54635         7.21991
     2008.32580         4.22333         7.33726
     2008.32854         1.09902         7.07607
     2008.33128        -7.47830         7.09121
     2008.33401        -3.09161         7.08238
     2008.33675        -5.45893         7.04705
     2008.33949        -1.98324         7.14925
     2008.34223        -1.45356         7.08238
     2008.34496        -3.56487         6.94232
     2008.34770         1.41481         6.96377
     2008.35044        -3.86950         6.94737
     2008.35318         0.37418         6.99784
     2008.35592        -1.19413         6.94358
     2008.35865        -1.95145         6.90447
     2008.36139        -2.48876         6.97639
     2008.36413         0.09692         6.85652
     2008.36687        -5.49139         7.48488
     2008.36961        -8.02071         6.92465
     2008.37234        -2.46302         6.89311
     2008.37508        -8.86634         6.92970
     2008.37782       -10.13665         7.16692
     2008.38056        -4.26797         7.08490
     2008.38329        -4.78028         7.55554
     2008.38603         6.50040         6.87797
     2008.38877         1.19609         7.04957
     2008.39151        -2.85623         7.11897
     2008.39425        -3.31054         6.91456
     2008.39698         1.11914         6.95998
     2008.39972         5.70183         6.93980
     2008.40246         4.66751         6.89563
     2008.40520        -6.94980         6.93601
     2008.40794        -5.10412         6.90447
     2008.41067         0.80557         6.88428
     2008.41341       -12.42875         6.98648
     2008.41615        -1.52106         6.87797
     2008.41889         0.78762         6.90573
     2008.42162        -5.49269         7.00288
     2008.42436         1.46099         6.90194
     2008.42710        -4.42632         6.93475
     2008.42984       -11.37164         6.99279
     2008.43258         0.54205         7.04957
     2008.43531        -5.40327         7.02055
     2008.43805       -10.94358         7.26533
     2008.44079        -6.84790         6.97639
     2008.44353        -7.15621         6.83633
     2008.44626        -5.22453         6.98143
     2008.44900        -5.51984         6.95746
     2008.45174        -4.06116         7.16818
     2008.45448        -7.61847         7.13663
     2008.45722        -5.61079         7.00541
     2008.45995        -8.89910         6.88806
     2008.46269        -3.35042         6.92970
     2008.46543       -10.74373         6.95746
     2008.46817       -12.87005         7.01298
     2008.47091        -9.70336         7.06345
     2008.47364       -12.03668         7.00288
     2008.47638         6.90901         7.07354
     2008.47912        -6.35831         6.96251
     2008.48186        -4.66962         6.96377
     2008.48459        -3.38794         7.04831
     2008.48733        -2.09625         6.93349
     2008.49007         0.56343         6.94863
     2008.49281         4.25312         7.11644
     2008.49555        -3.06720         7.14673
     2008.49828        -7.30751         7.15051
     2008.50102        -4.35683         7.10257
     2008.50376         0.46986         7.21486
     2008.50650         3.31754         7.16313
     2008.50924         3.41723         7.18710
     2008.51197        -6.33909         6.94358
     2008.51471       -10.89440         6.92970
     2008.51745        -0.10272         6.95115
     2008.52019         5.54797         7.04074
     2008.52292         7.27365         7.24641
     2008.52566         1.72334         7.19846
     2008.52840        -0.94198         6.94863
     2008.53114         4.67271         7.04200
     2008.53388        -1.62461         7.00162
     2008.53661         3.85608         7.02433
     2008.53935         4.54776         6.97260
     2008.54209        -4.48955         6.93475
     2008.54483         2.77113         7.10509
     2008.54757         3.63182         7.08111
     2008.55030         2.22850         6.95998
     2008.55304         4.92019         7.05209
     2008.55578         7.38887         7.01298
     2008.55852         2.05956         6.97008
     2008.56125         0.05024         6.90825
     2008.56399         2.60293         7.05966
     2008.56673         2.92061         6.94232
     2008.56947        12.84230         6.96125
     2008.57221         5.24198         7.18584
     2008.57494         5.38867         7.33599
     2008.57768         2.58935         7.11644
     2008.58042         3.95704         6.96755
     2008.58316        15.85472         7.19720
     2008.58590         9.87741         6.99910
     2008.58863         4.30709         7.18332
     2008.59137         1.16678         6.88680
     2008.59411         4.68446         6.91456
     2008.59685         4.89515         7.17070
     2008.59958         8.84683         7.32338
     2008.60232         2.38752         7.32842
     2008.60506         2.75520         7.21613
     2008.60780         3.83989         7.14042
     2008.61054        -4.65543         7.05083
     2008.61327         1.14826         7.02686
     2008.61601         8.68594         7.06850
     2008.61875         8.37163         7.13916
     2008.62149        10.23531         7.30445
     2008.62423         6.35100         7.08995
     2008.62696         9.75868         7.19341
     2008.62970        11.10837         7.24136
     2008.63244        11.97805         7.15682
     2008.63518         6.43574         7.26533
     2008.63791         8.24142         7.14799
     2008.64065         8.42111         7.04831
     2008.64339        -3.93521         7.07228
     2008.64613        16.61048         7.31833
     2008.64887        19.55416         7.45586
     2008.65160        11.38485         7.04579
     2008.65434         4.57753         7.32338
     2008.65708         1.09922         7.44955
     2008.65982         1.13990         7.12149
     2008.66256        13.03559         7.69308
     2008.66529         5.17827         7.28048
     2008.66803         0.24596         7.08995
     2008.67077        -1.46736         7.23884
     2008.67351        -2.12767         7.12275
     2008.67624         4.20001         7.77509
     2008.67898        20.42170         7.21234
     2008.68172         4.98538         7.28552
     2008.68446         4.37707         7.21108
     2008.68720         8.20875         7.12528
     2008.68993         8.96644         7.27164
     2008.69267         4.09712         7.20225
     2008.69541        10.52981         7.10509
     2008.69815         8.17949         7.14799
     2008.70089         7.99618         7.30571
     2008.70362        10.72086         7.07733
     2008.70636         7.34855         7.14925
     2008.70910         6.79623         7.27164
     2008.71184         5.72292         7.21613
     2008.71457         0.84260         7.00415
     2008.71731         3.53829         7.01172
     2008.72005         6.59197         7.09499
     2008.72279         7.26166         7.06219
     2008.72553         2.33734         7.17575
     2008.72826         4.63403         7.03821
     2008.73100        12.74071         7.30571
     2008.73374         6.35340         7.33852
     2008.74469         6.66914         7.16061
     2008.74743         9.36082         7.15177
     2008.75290        15.28419         7.19846
     2008.75564         8.25888         6.97765
     2008.75838         7.82256         7.12149
     2008.76112         5.52925         7.05714
     2008.76386         3.08293         7.18206
     2008.76659         7.43162         7.59845
     2008.76933         6.58031         7.12528
     2008.77207         4.56199         6.93727
     2008.77481        -0.63932         6.90320
     2008.77754        -1.20964         6.97134
     2008.78028        -1.07695         7.03064
     2008.78302         5.35373         6.93601
     2008.78576         3.62742         6.88428
     2008.78850         2.07410         7.02433
     2008.79123        11.53479         7.12149
     2008.79397        -5.25053         7.00415
     2008.79671        11.78116         7.19341
     2008.79945         0.71184         6.85526
     2008.80219         7.96153         7.40539
     2008.80492         2.22921         7.19972
     2008.80766         4.72290         7.00919
     2008.81040         7.41458         7.26786
     2008.81314         2.06627         6.98017
     2008.81587         8.14795         7.12149
     2008.81861         5.31864         6.94610
     2008.82135         0.51832         7.03317
     2008.82409         0.34101         7.11392
     2008.82683         3.21169         7.06345
     2008.82956         2.71238         7.02433
     2008.83230         3.65106         7.07228
     2008.83504         9.46475         6.98900
     2008.83778         5.97143         7.26533
     2008.84052         0.66412         7.04452
     2008.84325         6.91280         6.95872
     2008.84599         6.15549         6.96629
     2008.84873        -5.69483         7.03695
     2008.85147         6.05086         7.08995
     2008.85420       -12.88246         7.28931
     2008.85694         8.38323         7.05714
     2008.85968         3.27191         7.15430
     2008.86242         2.56560         7.00162
     2008.86516         5.57128         7.16061
     2008.86789        -3.17203         7.12654
     2008.87065        -2.61432         7.16439
     2008.87337        -4.99566         6.99658
     2008.87611         0.97502         7.05083
     2008.87885         0.76971         6.98017
     2008.88158        -7.63761         6.95241
     2008.88432        -4.73992         7.01424
     2008.88706        -2.46524         7.27417
     2008.88980        -3.42755         7.18458
     2008.89253         8.61713         7.17449
     2008.89527        -6.06118         7.09247
     2008.89801        -0.82350         7.15177
     2008.90075        -0.59381         7.05714
     2008.90349        -1.84713         7.12149
     2008.90622         4.07856         7.22748
     2008.90896         4.20724         7.03191
     2008.91170        -4.44607         7.10130
     2008.91444         2.06461         7.06850
     2008.91718         5.82030         7.18458
     2008.91991         2.28298         7.15682
     2008.92265        -1.42233         7.04326
     2008.92539        -3.56665         7.06219
     2008.92813         3.81604         7.11392
     2008.93086        -1.06428         7.07859
     2008.93360         0.77941         7.31328
     2008.93634         4.63509         7.16061
     2008.93908        -7.09622         7.02307
     2008.94182        -9.03854         7.11140
     2008.94455        -5.89985         7.10887
     2008.94729         5.78483         7.26281
     2008.95003        -1.31648         7.07859
     2008.95277         5.42520         6.97639
     2008.95551        -0.10711         6.91330
     2008.95824        -2.26243         6.93727
     2008.96098        -5.18974         7.05966
     2008.96372        -5.58006         7.04200
     2008.96646        -5.53737         7.18458
     2008.96919        -9.07569         6.97765
     2008.98288         1.67974         7.07859
     2008.98562        -5.42558         7.05588
     2008.98836        -5.97889         6.92339
     2008.99110        -6.98621         7.17953
     2008.99384        -0.25552         7.06471
     2008.99657       -11.96784         7.00919
     2008.99931        -6.14015         7.12149
     2009.00479        -4.45678         7.07481
     2009.00752        -1.09710         6.95872
     2009.01026        -3.90441         6.95872
     2009.01300         0.21727         7.07859
     2009.01574        -1.41704         7.08111
     2009.01848       -11.19536         7.21360
     2009.02121        -6.89667         7.20855
     2009.02395       -10.12399         7.13411
     2009.02669       -10.26130         7.19594
     2009.02943       -10.37462         7.14042
     2009.03216       -14.91493         6.92970
     2009.03490       -11.99925         6.98270
     2009.03764       -10.70156         6.97765
     2009.04038       -11.03788         6.93853
     2009.04312        -9.45519         6.94232
     2009.04585        -8.19951         6.94989
     2009.04859        -8.13882         6.93601
     2009.05133        -5.38014         6.94737
     2009.05407       -11.73245         6.94610
     2009.05681        -4.04977         6.94737
     2009.05954         1.72892         6.99658
     2009.06228        -3.82840         7.05209
     2009.06502        -6.41871         6.96882
     2009.06776        -8.73503         7.02181
     2009.07049        -5.80934         6.96503
     2009.07323        -6.96866         6.95998
     2009.07597        -9.33397         6.97386
     2009.07871       -12.66729         6.93096
     2009.08145       -10.17660         6.92339
     2009.08418        -7.91292         7.01424
     2009.08692        -8.34623         6.96882
     2009.08966        -3.70955         7.01929
     2009.09240        -3.19386         7.15808
     2009.09507        -5.98531         7.77888
     2009.09787        -3.78649         7.06219
     2009.10061         5.32819         7.11014
     2009.10335         1.59688         6.98396
     2009.10609         3.55056         7.08490
     2009.10882        -3.48775         6.91456
     2009.11156        -5.27307         6.93222
     2009.11430        -1.14638         7.12275
     2009.11704        -0.23370         7.04957
     2009.11978         5.99799         6.90825
     2009.12251         0.68167         6.91330
     2009.12525         3.81336         6.95241
     2009.12799         5.22904         6.95872
     2009.13073         6.65573         6.98017
     2009.13347        -1.92259         6.93727
     2009.13620        -1.07790         7.01298
     2009.13894        -6.95822         6.96503
     2009.14168        -3.63853         6.97639
     2009.14442         3.16215         6.99531
     2009.14715       -10.63916         7.21108
     2009.14989        -1.61948         7.24262
     2009.15263        -3.40879         6.97260
     2009.15537        -5.79611         7.14420
     2009.15811        -6.84342         7.11518
     2009.16084        -6.08374         7.00288
     2009.16358         3.20095         7.06219
     2009.16632         3.79363         7.11518
     2009.16906         3.06632         7.16439
     2009.17180         2.43700         6.96125
     2009.17453        -6.67031         6.95241
     2009.17727         2.97437         7.19089
     2009.18001         2.18406         6.98648
     2009.18275        -6.32326         6.92087
     2009.18548        -5.39557         6.99910
     2009.18822        -7.04389         6.96251
     2009.19096        -4.67720         6.96251
     2009.19370         2.05748         6.97639
     2009.19644         4.27917         6.97386
     2009.19917         4.42285         6.92844
     2009.20168        -3.03894         7.51138
     2009.20465        -8.86878         7.15430
     2009.20739        -3.95609         6.98522
     2009.21013        -7.95641         6.95494
     2009.21286         2.10628         6.93222
     2009.21560         0.20096         6.87544
     2009.21834        -1.24635         6.95368
     2009.22108         2.74433         6.94232
     2009.22381        -5.32598         6.91456
     2009.22655        -2.97130         6.97513
     2009.22929        -1.82761         6.87797
     2009.23203        -3.25693         6.95115
     2009.23477        -6.29924         7.00288
     2009.23750        -5.96956         7.07859
     2009.24024        -1.91787         7.07733
     2009.24298        -4.52419         6.97386
     2009.24572        -3.40850         7.06597
     2009.24846        -1.67282         7.02307
     2009.25119        -0.66113         7.33221
     2009.25393         2.75455         7.22496
     2009.25667        -5.24876         7.05714
     2009.25941        -1.27908         6.99027
     2009.26214         0.40761         6.95494
     2009.26488        -3.84171         7.06093
     2009.26762         4.14098         7.06471
     2009.27036         3.70366         7.06597
     2009.27310        -5.79865         7.02686
     2009.27583        -4.65597         7.10257
     2009.27857        -7.74028         7.06850
     2009.28131        -3.07560         7.23631
     2009.28405        -0.58091         7.19972
     2009.28679         1.04277         7.10635
     2009.28952        -6.70754         7.11644
     2009.29226       -12.16386         7.18710
     2009.29500        -7.06717         7.09247
     2009.29774        -2.94649         7.07985
     2009.30047        -6.01480         7.06093
     2009.30321        -7.19012         7.06850
     2009.30595        -4.65443         7.11771
     2009.30869         2.26625         7.09878
     2009.31143        -0.48206         7.06850
     2009.31416         0.64362         7.03443
     2009.31690        -3.14369         7.03695
     2009.31964        -4.26801         7.03191
     2009.32238        -2.07732         7.01046
     2009.32512        -2.21464         7.21739
     2009.32785        -4.08395         7.18332
     2009.33059         0.78373         7.01424
     2009.33333        -4.42658         7.22117
     2009.33607         2.37810         7.12528
     2009.33880        -1.93321         7.05840
     2009.34154        -1.24653         7.19215
     2009.34428        -3.09884         7.07859
     2009.34702        -4.54116         7.09499
     2009.34976       -10.84347         7.00162
     2009.35249        -8.09679         7.06471
     2009.35523        -8.39010         7.05336
     2009.35797         1.39858         7.11518
     2009.36071        -3.08073         7.21613
     2009.36344       -12.50305         7.08238
     2009.36618        -5.58936         7.36754
     2009.36892        -9.13168         7.08995
     2009.37166        -7.35499         7.16061
     2009.37440       -10.61831         6.99027
     2009.37713       -11.50562         6.97134
     2009.37987       -10.62394         7.32969
     2009.38261        -2.81325         6.95998
     2009.38535        -0.69057         6.94863
     2009.38809       -10.37888         6.97891
     2009.39082       -11.37120         6.94737
     2009.39356        -7.59451         6.91961
     2009.39630        -5.07883         6.95998
     2009.39904        -9.23514         7.00793
     2009.40177         0.16454         7.02433
     2009.40451        -1.83477         7.04326
     2009.40725         2.61391         7.01298
     2009.40999        -5.97540         7.05336
     2009.41273        -2.89772         7.07607
     2009.41546         3.07697         7.05840
     2009.41820        -0.58035         7.10887
     2009.42094        -7.31066         7.13411
     2009.42368        -7.49998         7.22243
     2009.42642        -1.99129         7.07859
     2009.42915        -2.36961         7.09878
     2009.43189        -1.76392         7.02181
     2009.43463         3.03576         6.99405
     2009.43737        -1.91755         7.00793
     2009.44010        -0.95787         6.99531
     2009.44284        -0.37718         7.00288
     2009.44558        -2.86550         7.05083
     2009.44832         0.34919         7.06219
     2009.45106         0.00487         7.13032
     2009.45379        -5.09444         7.00288
     2009.45653        -3.89076         7.02686
     2009.45927         0.45693         7.08869
     2009.46201        -0.78939         6.99405
     2009.46475         0.63030         7.38899
     2009.46748        -1.25402         7.10130
     2009.47022        -3.06933         7.04705
     2009.47296        -6.80165         7.08364
     2009.47570         3.98504         7.01803
     2009.47843         1.24072         7.20603
     2009.48117        -3.30059         7.03317
     2009.48391         1.32009         7.04705
     2009.48665        -6.72122         7.20098
     2009.48939        -0.38454         7.52148
     2009.49212         6.19215         7.17322
     2009.49486         7.79883         7.19341
     2009.49760         4.02652         7.13790
     2009.50034         2.35120         6.95115
     2009.50308        -4.04911         7.10257
     2009.50581        -2.66743         7.00415
     2009.50855        -1.90274         7.16692
     2009.51129         3.13294         6.98522
     2009.51403         6.70163         6.97386
     2009.51676         2.98831         6.98270
     2009.51950        -8.27000         7.14547
     2009.52224         2.23768         7.08490
     2009.52498        -0.41963         7.06976
     2009.52772         3.43405         7.17070
     2009.53045        -1.72426         7.02938
     2009.53319        -1.48658         6.94358
     2009.53593        -5.10089         7.02686
     2009.53867        -3.73021         7.12275
     2009.54141         5.39248         7.10761
     2009.54414         2.14916         7.04074
     2009.54688        -3.36715         7.14294
     2009.54962         1.28553         7.10383
     2009.55236         1.49922         6.98900
     2009.55509         2.73890         7.06597
     2009.55783        10.72059         7.03821
     2009.56057        -5.51273         7.33095
     2009.56331         0.11796         7.42180
     2009.56605         0.73164         7.50255
     2009.56878        -6.69967         6.97513
     2009.57152        -0.15699         7.08616
     2009.57426        -7.02430         7.46343
     2009.57700         4.51638         7.25146
     2009.57974         7.28307         7.29183
     2009.58247         6.20775         7.19720
     2009.58521         2.68044         7.28174
     2009.58795         6.01412         7.16818
     2009.59069         5.22781         7.16944
     2009.59342        -3.40651         7.20982
     2009.59616        10.79718         7.02938
     2009.59890         3.45386         7.30824
     2009.60164        -9.54345         7.30193
     2009.60438        -1.85577         7.01803
     2009.60711         7.96992         7.16061
     2009.60985         4.94060         7.23001
     2009.61259         5.44529         7.25272
     2009.61533        -6.59403         7.19215
     2009.61807         2.73966         7.06724
     2009.62080         2.75434         7.05714
     2009.62354        -1.49997         7.05588
     2009.62628         7.53571         7.20982
     2009.62902         1.81840         7.30950
     2009.63175         2.65908         7.08238
     2009.63449        -0.25323         7.32842
     2009.63723         3.43045         7.33221
     2009.63997         2.26214         7.28552
     2009.64271         0.29282         7.17449
     2009.64544         4.98351         7.09247
     2009.64818         3.64019         7.35240
     2009.65092         3.92088         7.19594
     2009.65366         1.91656         7.15808
     2009.65639         4.36925         7.10887
     2009.65913         0.76893         7.02307
     2009.66187         2.97862         6.98396
     2009.66461         3.51530         7.03821
     2009.66735         6.53299         7.28931
     2009.67008        -0.87233         7.16187
     2009.67282         3.29236         7.39404
     2009.67556         2.78804         7.00919
     2009.67830        -0.46527         7.38142
     2009.68104         7.08841         7.48488
     2009.68377        -4.66290         7.09626
     2009.68651         4.48978         6.96755
     2009.68925         2.60647         7.46848
     2009.69199        -6.32985         7.16187
     2009.69472         0.85684         7.46722
     2009.69746        -0.75048         7.02560
     2009.70020         7.28021         7.27038
     2009.70294         7.98689         7.06597
     2009.70568        -0.36842         7.10130
     2009.70841        -9.21874         7.22748
     2009.71115        -2.23305         7.28174
     2009.71389         4.24163         7.36628
     2009.71663         3.35732         7.33978
     2009.71937        -5.05000         7.06850
     2009.72199        -3.50255         7.26407
     2009.93292         1.57043         7.04831
     2009.93566        -2.10788         7.06093
     2010.03422       -10.20422         7.25524
     2010.03696       -13.77454         7.56312
     2010.03969        -3.86585         7.21234
     2010.04243        -8.12317         7.01550
     2010.04517         0.36452         7.13159
     2010.04791         4.55220         7.08995
     2010.05065         1.31189         7.18458
     2010.05338         0.25757         7.26786
     2010.05612         4.35926         7.12780
     2010.05886        -1.56006         6.96251
     2010.06160        -1.79137         6.98143
     2010.06433       -10.43169         7.01298
     2010.06707        -7.34600         7.06219
     2010.06981        -7.76632         7.14925
     2010.07255       -11.38163         7.17070
     2010.07529        -8.94095         7.17701
     2010.07802        -6.90626         7.03443
     2010.08076        -6.30758         6.93096
     2010.08350        -1.19589         6.96755
     2010.08624        -2.68321         6.97765
     2010.08898         7.47448         7.32590
     2010.09171         4.77516         7.02307
     2010.09445         0.32085         7.11140
     2010.09719         0.93853         7.23001
     2010.09993        -3.41478         6.94610
     2010.10266        -0.63310         6.99658
     2010.10540         1.46259         7.08995
     2010.10814         3.63227         7.08238
     2010.11088        -8.16504         7.20603
     2010.11362         0.70264         7.14673
     2010.11635        -1.71067         7.28426
     2010.11909         4.21601         6.96629
     2010.12183         1.47070         7.07859
     2010.12457        -0.02062         6.94737
     2010.12731        -6.93693         7.15935
     2010.13004        -6.79825         7.07733
     2010.13278         1.84844         7.05209
     2010.13552         2.71612         7.02938
     2010.13826         1.05781         6.94863
     2010.14099        -2.36051         6.88049
     2010.14373        -2.14782         7.16818
     2010.14647        -6.59514         7.23505
     2010.14921        -0.97845         7.06093
     2010.15195        -0.56377         6.98270
     2010.15468        -3.28308         6.96882
     2010.15742        -0.91240         6.98017
     2010.16016        -1.66871         6.99910
     2010.16290         1.95597         7.09752
     2010.16564        -0.56634         6.97639
     2010.16837        -2.61366         6.92970
     2010.17111        -5.01097         6.92592
     2010.17385        -9.51629         6.93980
     2010.17659         0.35940         6.98017
     2010.17932         7.85108         6.91330
     2010.18206         3.75277         6.90194
     2010.18480         3.56045         6.88554
     2010.18754        -3.83086         6.97891
     2010.19028        -0.40118         6.97891
     2010.19301         1.37551         6.98774
     2010.19575         1.62419         6.91835
     2010.19849        -0.32112         6.90194
     2010.20123        -6.08244         6.91330
     2010.20397        -4.64975         7.17322
     2010.20670        -0.49207         7.21865
     2010.20944         3.57362         6.94610
     2010.21218        -0.58770         6.87671
     2010.21492        -0.37201         6.94610
     2010.21765        -8.00533         7.08111
     2010.22039        -0.18764         7.08616
     2010.22313        -9.52196         6.97386
     2010.22587        -4.74027         7.01803
     2010.22861        -3.81359         7.09499
     2010.23134       -13.53290         7.30950
     2010.23408        -8.77522         7.19594
     2010.23956        -0.69085         7.15935
     2010.24230         0.78784         7.33473
     2010.24503         0.74652         7.20603
     2010.24777         1.17921         7.22622
     2010.25051         0.11089         7.45586
     2010.25325         0.69758         7.11771
     2010.25598         9.11126         7.06471
     2010.25872        10.88595         7.19341
     2010.26146        -3.06937         7.29183
     2010.26420         1.57332         7.41675
     2010.26694         3.44400         7.22243
     2010.26967         3.00369         7.13411
     2010.27241         1.58537         7.23127
     2010.27515         1.18606         7.13411
     2010.27789         1.21174         7.25776
     2010.28062         9.90943         7.11266
     2010.28336        -2.07589         7.10761
     2010.28610        -6.48920         7.12402
     2010.28884        -0.24452         7.10004
     2010.29158        -0.86983         7.19215
     2010.29431         0.67785         7.16313
     2010.29705        -2.68746         7.12149
     2010.29979         4.09622         7.04200
     2010.30253         6.85291         7.12402
     2010.30527         6.24859         7.29436
     2010.30800         2.39128         7.13159
     2010.31074        -1.69004         7.22243
     2010.31348        -2.38335         6.99027
     2010.31622         9.44833         7.05840
     2010.31895         0.76002         7.33095
     2010.32169        13.01670         7.31328
     2010.32443         4.19939         7.11518
     2010.32717         6.28507         6.97260
     2010.32991         1.58876         6.99784
     2010.33264        10.14744         6.97386
     2010.33538         5.91113         7.44451
     2010.33812         0.85781         6.99784
     2010.34086        -2.74550         6.96755
     2010.34360        -2.81282         6.96377
     2010.34633        -0.94513         7.02560
     2010.34907         3.06355         7.10257
     2010.35181         3.76624         6.97639
     2010.35455         0.84492         6.94989
     2010.35728        -2.69939         6.92213
     2010.36002         1.75329         7.03821
     2010.36276         1.14298         6.99910
     2010.36550         1.12966         7.26660
     2010.36824         3.77235         7.21360
     2010.37097        -0.26097         7.02433
     2010.37371        10.17472         7.05209
     2010.37645        11.07840         6.98900
     2010.37919        10.41309         7.45460
     2010.38193        -2.96423         7.34104
     2010.38466        -2.91854         7.05840
     2010.38740         1.41214         7.04074
     2010.39014         1.83383         7.05336
     2010.39288         4.89951         7.09247
     2010.39561        -3.09980         7.08995
     2010.39835        -2.41712         6.85021
     2010.40109        -1.15943         6.89563
     2010.40383         1.46825         6.89185
     2010.40657         8.61094         6.90699
     2010.40930         3.40762         6.95368
     2010.41204        -2.43169         6.96377
     2010.41478         5.45999         6.98017
     2010.41752         4.65068         6.95620
     2010.42026        -0.10664         6.86156
     2010.42299         5.76805         7.02307
     2010.42573        -5.08227         6.91835
     2010.42847        -5.54658         7.09499
     2010.43121        -3.46290         6.94106
     2010.43394         2.69779         6.89059
     2010.43668        -2.45453         7.03695
     2010.43942        -1.75284         6.96503
     2010.44216        -4.73116         6.86283
     2010.44490        -7.13647         6.88049
     2010.44763        -2.32779         7.05209
     2010.45037        -1.50410         6.92087
     2010.45311         1.29058         6.97008
     2010.45585        -3.81773         6.98143
     2010.45859        -4.12105         7.00793
     2010.46132        -4.03936         7.05462
     2010.46406         0.73132         6.85904
     2010.46680        -5.12299         6.87040
     2010.46954        -1.70731         6.97639
     2010.47227        -6.88862         6.88049
     2010.47501        -7.32594         6.90825
     2010.47775        -3.99025         7.02433
     2010.48049         1.11943         7.11771
     2010.48323         0.95512         7.07228
     2010.48596         0.60480         6.94106
     2010.48870         4.34249         6.93222
     2010.49144         8.58017         6.89059
     2010.49418         4.22786         6.83128
     2010.49692         0.69654         6.87418
     2010.49965         1.79723         6.91204
     2010.50239        -2.17409         7.06471
     2010.50513         0.25960         6.89816
     2010.50787         4.32428         6.82371
     2010.51060        -0.88103         6.80857
     2010.51334         4.54265         6.92465
     2010.51608         0.85234         6.93349
     2010.51882         6.16302         7.02560
     2010.52156        11.45071         7.09121
     2010.52429         3.08239         7.05966
     2010.52703         9.17208         6.99027
     2010.52977         1.98476         6.96125
     2010.53251        -0.64955         6.90825
     2010.53525         9.53713         6.94610
     2010.53798        -5.49918         7.05209
     2010.54072         0.06150         6.94232
     2010.54346        -2.24981         6.89689
     2010.54620        -1.61113         6.94484
     2010.54893         1.07556         6.92087
     2010.55167        -2.39976         6.94989
     2010.55441         1.74893         7.02686
     2010.55715         5.91661         6.96125
     2010.55989         4.39330         6.91582
     2010.56262         3.80498         6.99027
     2010.56536         0.02167         6.91961
     2010.56810        -1.08365         6.96377
     2010.57084         6.89004         6.97513
     2010.57357        -0.05528         7.09121
     2010.57631         8.15941         7.13285
     2010.57905         4.83109         6.90825
     2010.58179        -8.69722         7.06976
     2010.58453        -0.37154         7.02938
     2010.58726         0.62415         7.04326
     2010.59000         4.48783         7.09752
     2010.59274         1.48752         6.84516
     2010.59548         6.24320         6.98143
     2010.59822         6.46289         7.11392
     2010.60095         7.65757         6.86535
     2010.60369         7.20026         6.87797
     2010.60643         5.75894         6.89563
     2010.60917         8.39363         6.92970
     2010.61190         2.31931         6.92213
     2010.61464         6.18700         6.88428
     2010.61738         4.43668         6.87418
     2010.62012         2.95637         6.83381
     2010.62286         0.65505         6.89563
     2010.62559         7.81274         7.07607
     2010.62833         2.01942         6.93096
     2010.63107         7.90111         7.32590
     2010.63381         7.66879         6.99279
     2010.63655         8.74048         6.91330
     2010.63928         8.94416         6.97260
     2010.64202         7.38385         6.95115
     2010.64476        -6.61247         6.99027
     2010.64750         2.64922         6.90951
     2010.65023         2.58290         7.06850
     2010.65297         1.84759         7.16565
     2010.65571        12.24328         6.88302
     2010.65845        10.05696         6.79091
     2010.66119         3.86465         6.89059
     2010.66392         5.71433         6.94484
     2010.66666         8.14402         6.85273
     2010.66940        11.01470         6.85399
     2010.67214         6.71639         6.94610
     2010.67488         3.43107         6.97386
     2010.67761         7.72476         6.77198
     2010.68035         2.69544         6.90194
     2010.68309        11.46613         6.92465
     2010.68583        11.87181         6.87292
     2010.68856         8.04450         6.88175
     2010.69130         3.28518         6.86661
     2010.69404         2.45287         6.96755
     2010.69678        -5.20945         6.84138
     2010.69952        -0.29476         6.80352
     2010.70225         3.11592         6.95115
     2010.70499        12.96761         6.92970
     2010.70773         1.53129         6.97134
     2010.71047        10.13398         6.86787
     2010.71321         6.88966         7.07354
     2010.71594         7.06035         7.27921
     2010.71868        11.78703         6.91582
     2010.72142         5.55472         7.14547
     2010.72416         6.84840         6.95746
     2010.72689         5.70809         7.03317
     2010.72963        -4.98923         6.95872
     2010.73237         4.63246         6.99027
     2010.73511         1.42114         7.11897
     2010.73785         9.15483         7.14294
     2010.74058        -0.12449         7.00667
     2010.74332         0.42120         6.90194
     2010.74606        10.72088         7.00288
     2010.74880         6.27957         7.09121
     2010.75154        12.77425         6.89689
     2010.75427         4.82594         7.07228
     2010.75701         3.99762         7.18080
     2010.75975         2.33931         6.85778
     2010.76249         9.16699         6.97386
     2010.76522        14.60668         6.83381
     2010.76796         9.04736         7.23884
     2010.77070         5.48805         7.06976
     2010.77344         8.49173         7.28174
     2010.77618         5.82942         6.94484
     2010.77891         0.34310         6.80226
     2010.78165         5.37479         6.79848
     2010.78439         6.74947         7.04200
     2010.78713        15.68116         7.43441
     2010.78987         9.93884         6.73665
     2010.79260         5.32253         6.81362
     2010.79534        -2.79379         6.74927
     2010.79808         6.22790         6.77955
     2010.80082         5.25158         6.75936
     2010.80355         5.17727         6.99405
     2010.80629        15.70695         6.81236
     2010.80903        15.21864         6.85526
     2010.81177        12.83532         7.57447
     2010.81451         3.85201         7.14420
     2010.81724         6.80369         7.03317
     2010.81998         0.65338         6.83128
     2010.82272         8.41706         6.98143
     2010.82546         0.56075         6.92592
     2010.82820         5.56843         6.96377
     2010.83093         3.93012         7.21360
     2010.83367         4.69080         7.32464
     2010.83641        -4.78951         6.96251
     2010.83915         0.80117         6.89689
     2010.84188         1.33686         6.88932
     2010.84462         4.48654         6.91204
     2010.84736         7.81223         7.03191
     2010.85010         1.66391         7.01803
     2010.85284        13.28660         7.01550
     2010.85557         7.86728         6.86283
     2010.85831         1.61597         6.73665
     2010.86105        -9.64335         6.85147
     2010.86379        -7.48766         6.83759
     2010.86653        -8.97498         6.81236
     2010.86926        -1.28529         6.84895
     2010.87200        -0.10061         6.76062
     2010.87474        -4.74092         7.15430
     2010.87748         0.65676         6.91708
     2010.88021         3.51645         6.92718
     2010.88295         3.06313         7.06093
     2010.88569         3.62882         6.87292
     2010.88843        -1.67150         7.07102
     2010.89117         4.06219         7.09878
     2010.89390        10.63987         6.83254
     2010.89664         0.31656         6.82371
     2010.89938         2.13524         6.86914
     2010.90212         0.56193         6.82750
     2010.90485         0.97361         6.79974
     2010.90759         7.55030         6.74674
     2010.91033         3.17698         6.81236
     2010.91307        -8.36533         6.83254
     2010.91581         1.78135         6.88932
     2010.91854         1.91204         6.73034
     2010.92128        -0.26028         6.71141
     2010.92402         2.74441         6.73665
     2010.92676         5.42209         6.72908
     2010.92950         3.37178         6.76693
     2010.93223        -0.64854         6.81740
     2010.93497         0.90115         6.93980
     2010.93771        -9.11217         6.95241
     2010.94045        -3.05948         6.89311
     2010.94318        -0.05480         6.72908
     2010.94592         0.47189         6.82371
     2010.94866         3.63957         6.85652
     2010.95140        -1.73574         7.10130
     2010.95414         2.23694         6.82371
     2010.95687        -0.15237         6.75179
     2010.95961        -1.04069         6.92465
     2010.96235         4.38600         6.88428
     2010.96509        10.10968         6.83381
     2010.96783         3.22737         6.84264
     2010.97056         2.27305         6.79091
     2010.97330         3.71674         6.81109
     2010.97604         0.39342         6.80605
     2010.97878         3.06711         6.92087
     2010.98151         4.51579         6.83254
     2010.98425        -0.12652         6.88806
     2010.98699        -1.81684         6.77072
     2010.98973        -1.23015         6.85147
     2010.99247         9.48353         7.00162
     2010.99520         5.42022         6.87292
     2010.99794        -0.02410         6.78964
     2011.00342         4.01427         6.79974
     2011.00616         3.90396         6.68744
     2011.00889         3.27964         6.87418
     2011.01163        -0.10167         6.77576
     2011.01437         2.64301         6.74296
     2011.01711        -2.05030         7.00793
     2011.01984         1.97138         6.78333
     2011.02258        -4.54793         6.70763
     2011.02532        -6.67425         6.87292
     2011.02806        -0.37556         7.12275
     2011.03080        -5.19888         6.74043
     2011.03353        -6.92719         6.74296
     2011.03627        -4.75851         6.93980
     2011.03901        -4.12382         6.82624
     2011.04175        -4.01214         6.93601
     2011.04449       -11.29745         6.83885
     2011.04722        -2.18977         6.92465
     2011.04996        -6.99508         6.82245
     2011.05270        -4.16140         6.77324
     2011.05544        -4.32971         6.80478
     2011.05817        -3.37903         6.73539
     2011.06091        -1.29134         6.79721
     2011.06365        -1.26566         6.80857
     2011.06639        -2.31397         6.77703
     2011.06913        -4.27429         7.21360
     2011.07186        -3.82760         6.78207
     2011.07460        -2.86192         6.85021
     2011.07734        -0.28923         6.78712
     2011.08008        -1.33555         6.70384
     2011.08282        -3.53486         6.80478
     2011.08555       -11.57518         6.81993
     2011.08829        -2.07549         6.77450
     2011.09103        -7.67881         6.77450
     2011.09377         0.99688         6.89311
     2011.09650        -4.80244         6.84264
     2011.09924        -2.17475         6.82876
     2011.10198         3.81893         7.06471
     2011.10472         0.05262         6.78712
     2011.10746        -6.06570         6.70889
     2011.11019         0.41499         6.79721
     2011.11293        -5.64433         6.82245
     2011.11567        -0.05564         6.90068
     2011.11841         2.69504         6.84264
     2011.12115         0.47073         7.07481
     2011.12388        -7.84759         7.01803
     2011.12656         0.85998         7.16565
     2011.12936         0.20178         6.77576
     2011.13210        -0.93753         6.75179
     2011.13461         1.32668        12.72506
     2011.14048        -2.96112         7.41927
     2011.14293         0.01097         7.14925
     2011.14871        -4.75304         7.38142
     2011.15126         8.21526         6.70258
     2011.15400         5.92295         6.75684
     2011.15674         3.49163         6.74800
     2011.15948        -3.22268         6.86787
     2011.16221        -1.77800         6.70889
     2011.16495        -4.61931         6.80983
     2011.16769        -3.32363         6.80478
     2011.17043        -8.08094         6.77829
     2011.17316        -7.72026         6.83885
     2011.17590        -9.25157         6.78964
     2011.17864         1.85811         6.71772
     2011.18138        -3.30620         6.79091
     2011.18412        -1.91352         6.90825
     2011.18685        -0.89783         6.82371
     2011.18959        -2.94515         6.77198
     2011.19233        -2.36846         6.81993
     2011.19507         3.92622         6.75431
     2011.19780         3.97691         6.99784
     2011.20054         3.91859         6.88302
     2011.20328        -1.84072         6.96755
     2011.20602        -3.86304         6.97891
     2011.20876        -0.90135         6.82750
     2011.21149         0.84333         6.84769
     2011.21423         5.20602         6.75684
     2011.21697        -0.86730         7.00415
     2011.21971         2.27639         6.92970
     2011.22245         1.21107         6.84264
     2011.22518         8.95276         6.83381
     2011.22792         1.72444         6.79217
     2011.23066         2.49713         6.83633
     2011.23340         4.05981         6.88932
     2011.23613         1.67550         6.81236
     2011.23887         0.33118         6.83633
     2011.24161        -4.33813         6.83507
     2011.24435         0.79655         6.95115
     2011.24709        -0.58076         6.78712
     2011.24982         4.83992         6.90068
     2011.25256         2.30761         6.83128
     2011.25530         2.92929         6.76567
     2011.25804         2.83498         6.99910
     2011.26078        -2.06034         6.99784
     2011.26351         4.92435         6.80352
     2011.26625         2.85003         6.86409
     2011.26899        -0.44828         6.86409
     2011.27173         1.52940         6.85904
     2011.27446        -1.17991         7.08238
     2011.27720        -2.63323         7.09878
     2011.27994        -1.45754         6.90951
     2011.28268        -1.52486         6.78964
     2011.28542        -7.76617         6.77324
     2011.28815         2.42651         6.77450
     2011.29089         1.30820         6.77703
     2011.29363         3.48488         6.84138
     2011.29637        -2.82643         6.80857
     2011.29911        -0.62875         6.80226
     2011.30184         4.66694         6.94989
     2011.30458         1.03962         6.76567
     2011.30732         5.51631         6.76819
     2011.31006         6.89999         6.78081
     2011.31268        -6.75856         7.27795
     2011.31650         5.53738        12.76922
     2011.31827         1.71705         6.79721
     2011.32101         1.77573         6.80478
     2011.32375        -2.80358         6.76441
     2011.32648        -6.21090         6.75053
     2011.32922        -7.78521         6.76567
     2011.33196        -6.96653         6.86661
     2011.33470        -3.87684         6.88806
     2011.33744        -3.39916         6.85273
     2011.34017        -0.52147         7.04705
     2011.34291         1.17821         6.92718
     2011.34565        -1.37010         6.82876
     2011.34839        -1.67042         6.93349
     2011.35112        -3.88273         6.91835
     2011.35386        -3.06105         6.85399
     2011.35660        -5.81436         6.80100
     2011.35934       -11.89268         6.77072
     2011.36208       -14.52899         6.75179
     2011.36481        -8.68131         7.05336
     2011.36755         1.16038         6.93853
     2011.37029         3.54606         6.94232
     2011.37303        -4.40025         6.88049
     2011.37577        -2.43757         6.93222
     2011.37850        -4.10688         6.96251
     2011.38124        -7.77720         6.96125
     2011.38398        -2.21051         6.89437
     2011.38672        -7.07083         6.94737
     2011.38945        -5.84314         6.90068
     2011.39219        -2.27346         6.92970
     2011.39493        -0.71677         6.99153
     2011.39767        -1.66209         7.00919
     2011.40041         2.48160         7.01676
     2011.40314        -6.64372         7.06976
     2011.40588         3.82397         6.87166
     2011.40862         1.35865         6.95620
     2011.41136        -3.69566         6.96125
     2011.41410         2.85702         6.97008
     2011.41683        -3.70229         6.92087
     2011.41957        -4.43061         6.92970
     2011.42231        -9.71892         6.94106
     2011.42505        -0.73324         6.98017
     2011.42778        -6.21055         7.07985
     2011.43052        -3.90387         6.96251
     2011.43326       -11.57918         6.85147
     2011.43600        -9.26450         6.88806
     2011.43874        -6.93381         7.11140
     2011.44147        -3.71313         6.97765
     2011.44421        -2.13844         6.90194
     2011.44695        -6.86076         6.94989
     2011.44969        -5.20107         6.91835
     2011.45243        -7.98139         6.96377
     2011.45516        -7.70070         6.98648
     2011.45790       -13.10602         6.93980
     2011.46064        -8.26933         7.00288
     2011.46338       -11.45465         7.05714
     2011.46611        -2.48096         6.98396
     2011.46885        -6.97728         7.05714
     2011.47159        -2.48159         7.15935
     2011.47433        -9.86391         6.95872
     2011.47707         1.59578         6.95494
     2011.47980         2.06746         6.91582
     2011.48254        -3.51885         7.05588
     2011.48528        -3.12417         6.98774
     2011.48802        -2.37948         7.03695
     2011.49076        -0.26880         7.01929
     2011.49349         2.13289         6.94989
     2011.49623        -0.58343         6.95746
     2011.49897         3.35026         7.08616
     2011.50171        -3.31806         7.09373
     2011.50444        -8.57937         7.00919
     2011.50718        -3.63469         6.99405
     2011.50992        -0.37500         6.98648
     2011.51266         3.65768         7.00541
     2011.51540        -1.95163         7.01676
     2011.51813         4.48105         7.07102
     2011.52087         1.73274         7.01298
     2011.52361         0.53142         6.91961
     2011.52635         3.00011         6.98900
     2011.52908         9.50779         6.95368
     2011.53182         1.11748         6.99027
     2011.53456        -5.98384         7.11392
     2011.53730        -4.33515         6.99405
     2011.54004        -4.93147         6.92970
     2011.54277        -7.82078         6.98396
     2011.54551        -3.18610         7.02307
     2011.54825        -4.58941         7.03191
     2011.55099        -0.03073         7.06850
     2011.55373       -14.88504         7.11771
     2011.55646        -1.91136         6.91961
     2011.55920        -1.23967         7.18458
     2011.56194         0.49601         7.28300
     2011.56468         5.27270         6.97639
     2011.56741        -0.80762         6.90194
     2011.57015        -2.64093         7.04452
     2011.57289       -10.78225         7.04326
     2011.57563        -1.21156         6.99531
     2011.57837        -0.98188         6.93349
     2011.58110        -6.69119         7.20729
     2011.58384        -6.80451         7.13411
     2011.58658        -6.88782         7.24767
     2011.58932        -1.43014         6.94737
     2011.59206        -4.64945         7.05966
     2011.59479        -0.16577         6.93853
     2011.59753         1.70492         6.96882
     2011.60027        -3.84540         6.91330
     2011.60301        -1.83971         7.01424
     2011.60574         3.41897         7.12528
     2011.60848         3.28366         7.36502
     2011.61122        -2.36166         7.42053
     2011.61396         2.45903         7.07481
     2011.61670         0.94371         7.08995
     2011.61943        -1.73560         7.05840
     2011.62217         2.74708         7.12906
     2011.62491        -3.17823         7.19594
     2011.62765        -8.82855         7.09499
     2011.63039        -1.06586         7.04326
     2011.63312         5.06582         7.11771
     2011.63586         8.89151         7.05966
     2011.63860         4.19119         7.23631
     2011.64134         7.61388         7.55681
     2011.64407        -7.96344         7.32464
     2011.64681         8.04825         7.21234
     2011.64955         5.27493         7.28679
     2011.65229        -5.43538         7.11014
     2011.65503        -2.40870         7.43063
     2011.65776        -2.84101         7.15304
     2011.66050         8.14067         7.43441
     2011.66324         7.92336         7.08616
     2011.66598         0.62804         7.09752
     2011.66872         4.82473         7.55176
     2011.67145         8.28841         7.05336
     2011.67419         5.10810         6.91077
     2011.67693         8.60178         7.07481
     2011.67967         5.63247         6.96629
     2011.68240         3.85215         7.13790
     2011.68514         0.39484         7.17449
     2011.68788        -1.61848         7.04831
     2011.69062         3.96321         7.12654
     2011.69336         2.50389         7.16313
     2011.69609         4.47158         7.12654
     2011.69883         3.42326         7.15430
     2011.70157         4.45895         7.00288
     2011.70431         9.16863         7.06850
     2011.70705         2.27332         7.24893
     2011.70978         2.50100         7.41296
     2011.71252        15.02169         7.31833
     2011.71526        -6.05763         7.27795
     2011.71800         4.82306         7.19846
     2011.72073         8.22074         7.02307
     2011.72347         6.09343         7.41675
     2011.72621         7.96511         7.09626
     2011.72895        12.73880         7.19846
     2011.73169        13.77948         7.34230
     2011.73442        12.21417         7.13916
     2011.73716        15.68285         7.13537
     2011.73990         6.11554         6.98648
     2011.74264         8.73522         7.04705
     2011.74538         6.25491         7.30193
     2011.74811        14.40859         7.26029
     2011.75085        10.88628         7.20982
     2011.75359         7.54296         7.22370
     2011.75633         9.11165         7.14547
     2011.75906        17.13633         7.14547
     2011.76180         9.14402         7.07102
     2011.76454         4.29670         7.16187
     2011.76728         2.78539         7.07481
     2011.77002        10.97907         7.27038
     2011.77275         8.25776         7.44955
     2011.77549        23.50744         7.40665
     2011.77823         8.22613         7.22622
     2011.78097         9.44681         7.24641
     2011.78371         7.71750         7.11014
     2011.78644        13.02218         7.03821
     2011.78918         6.40187         7.07102
     2011.79192         3.24155         7.06471
     2011.79466         5.76924         7.08995
     2011.79739         2.99592         7.04326
     2011.80013         8.27961         7.00288
     2011.80287         5.17529         7.04705
     2011.80561         8.13698         7.06345
     2011.80835         7.11266         7.06219
     2011.81108         4.76635         7.17701
     2011.81365         0.91768         7.54671
     2011.81656         0.59372         7.13285
     2011.81930         5.42040         7.08111
     2011.82203        -2.47691         7.22117
     2011.82477         5.39077         7.15935
     2011.82751         1.14146         7.03317
     2011.83025         8.91814         7.12402
     2011.83299        -0.34317         6.97008
     2011.83572         0.73551         6.95241
     2011.83846         1.99720         7.09499
     2011.84120        13.70188         7.02560
     2011.84394         5.30557         6.95115
     2011.84668         7.13725         6.84390
     2011.84941         1.92194         6.95368
     2011.85215         0.89162         7.10004
     2011.85489         0.93431         7.18963
     2011.85763         3.85099         7.05588
     2011.86036         6.41668         6.94484
     2011.86310        13.82036         7.19215
     2011.86584        12.64605         7.02181
     2011.86858        12.38473         6.93349
     2011.87132         5.02742         6.98522
     2011.87405         1.61010         6.92970
     2011.87679         2.23379         7.09247
     2011.87953         5.52447         7.06345
     2011.88227         9.00316         6.94484
     2011.88501         5.09984         6.94989
     2011.88774         0.41853         7.01298
     2011.89048         5.58421         6.94610
     2011.89322         6.40990         7.15304
     2011.89596         8.56458         7.01172
     2011.89869        -0.68973         7.09499
     2011.90143         1.75195         7.06597
     2011.90417         1.03864         7.10887
     2011.90691         6.84332         7.00288
     2011.90965         1.24201         6.98270
     2011.91238         3.03969         7.23127
     2011.91512        -3.47062         6.93349
     2011.91786        -0.56194         7.12528
     2011.92060        -3.95725         6.97765
     2011.92334        -1.36257         7.03695
     2011.92607        -3.41388         7.09752
     2011.92881        -3.25420         7.04200
     2011.93155         6.20849         7.04200
     2011.93429         5.62217         7.03821
     2011.93702         6.49286         7.10257
     2011.93976         4.04454         7.06597
     2011.94250         1.22323         7.02181
     2011.94524         6.88391         7.03443
     2011.94798        11.73860         7.07102
     2011.95071        12.40028         7.00541
     2011.95345         6.49697         7.07607
     2011.95619         2.49865         7.12275
     2011.95893         4.90034         6.81362
     2011.96167        -1.46098         7.18080
     2011.96440         7.55071         6.89942
     2011.96714         3.66439         6.88806
     2011.96988         7.52808         6.76188
     2011.97262         0.07076         6.78964
     2011.97535         0.50745         6.84516
     2011.97809         2.96413         6.93222
     2011.98083         6.02882         7.05209
     2011.98357         5.26850         6.82119
     2011.98631         1.83819         6.83507
     2011.98904         1.67987         6.81866
     2011.99178         9.81456         6.84138
     2011.99452         1.04124         6.88175
     2011.99726         1.91893         6.79343
     2012.00273         7.18330         6.83254
     2012.00547         6.50098         6.90194
     2012.00821         0.15067         6.92213
     2012.01095         8.55735         7.15177
     2012.01368         1.06004         6.73413
     2012.01642         7.79172         6.77955
     2012.01916         3.56541         6.78081
     2012.02190        11.12409         6.90320
     2012.02464         4.87978         6.78333
     2012.02737         0.87246         6.73413
     2012.03011         3.39915         6.68365
     2012.03285        -1.08717         6.89311
     2012.03559         3.77552         6.86535
     2012.03833        -0.60380         6.86787
     2012.04106         5.36689         6.83885
     2012.04380        -3.56443         6.80226
     2012.04654        -7.91974         6.87166
     2012.04928         6.71494         6.86409
     2012.05207        11.30975         7.04957
     2012.05475        11.95731         6.92592
     2012.05749        -0.95500         6.84138
     2012.06023         3.72868         6.85021
     2012.06297         2.84637         6.95368
     2012.06570         6.92705         7.02812
     2012.06844        -0.20726         7.06724
     2012.07118        -2.48658         6.80352
     2012.07392        -2.72889         6.79469
     2012.07666         5.70679         7.20982
     2012.07939         4.26448         7.82809
     2012.08213        10.94016         7.19594
     2012.08487         9.12285         6.87040
     2012.08761        -4.33147         6.86535
     2012.09034         0.03322         6.78838
     2012.09308         3.34390         6.84895
     2012.09582         7.87359         6.82750
     2012.09856        10.42927         6.87797
     2012.10130         5.42296         6.95620
     2012.10403        -2.60136         6.87923
     2012.10677        -0.43667         7.01803
     2012.10951        11.98801         7.51012
     2012.11225         7.14370         6.93096
     2012.11498         5.70838         7.00288
     2012.11772         6.41007         6.89185
     2012.12046         2.27175         6.95115
     2012.12320         4.52144         6.94106
     2012.12594         1.49112         6.89816
     2012.12867         1.91181         6.91582
     2012.13141        -0.18651         7.08490
     2012.13415         1.88518         6.92213
     2012.13689         2.52186         6.97134
     2012.13963         5.22555         7.15304
     2012.14236         8.10623         7.50507
     2012.14510         1.01492         6.97639
     2012.14784        -3.04040         6.81740
     2012.15058        -5.23571         7.01298
     2012.15331        -5.88703         6.84390
     2012.15605         3.38766         6.97765
     2012.15879         4.16934         6.98774
     2012.16153        -0.22097         6.85147
     2012.16427        -8.52929         7.04200
     2012.16700         3.84140         6.97891
     2012.16974         1.56208         6.84642
     2012.17248        -0.67823         6.94484
     2012.17522        -1.62555         6.98396
     2012.17796         2.77314         6.92339
     2012.18069         2.10082         6.92339
     2012.18343        -3.30449         6.86914
     2012.18617        -3.03781         6.95998
     2012.18891         0.05888         6.94358
     2012.19164         6.43656         6.93727
     2012.19436        12.00420         7.06724
     2012.19712        -6.19707         6.84011
     2012.19986         2.04162         6.91077
     2012.20260         0.85730         6.96125
     2012.20533         4.20099         6.91077
     2012.20807         6.28567         6.88175
     2012.21081         5.37536         6.85021
     2012.21355         3.84404         6.83128
     2012.21629        -6.65527         6.86030
     2012.21902        -0.66359         6.89563
     2012.22176        -9.36490         6.76188
     2012.22450        -7.58622         6.77324
     2012.22724         6.71247         6.88932
     2012.22997         4.30615         6.83002
     2012.23271         2.85884         6.93601
     2012.23545         5.69152         6.85652
     2012.23819         4.48821         6.82245
     2012.24093         3.04789         6.76441
     2012.24366         3.23158         6.97386
     2012.24640         0.96326         6.89689
     2012.24914        -0.40005         6.92970
     2012.25188        -6.97837         6.79721
     2012.25462         2.77532         6.96125
     2012.25735        -5.30100         6.84264
     2012.26009         0.92769         6.91708
     2012.26283        -1.95763         6.87040
     2012.26557        -3.27394         6.82119
     2012.26830        -2.24426         6.76567
     2012.27104        -2.05957         6.91708
     2012.27378         6.15711         6.86787
     2012.27652         4.42080         6.85021
     2012.27926         6.01348         7.04074
     2012.28199         9.37317         6.80731
     2012.28473         3.11485         6.81362
     2012.28747        -9.44846         6.85147
     2012.29021        -2.11378         7.04957
     2012.29295        -3.23809         6.94989
     2012.29568         3.39159         6.80731
     2012.29842        -3.39872         6.78838
     2012.30116        -2.71304         6.85778
     2012.30390        -6.85535         6.83633
     2012.30663        -3.28567         6.77324
     2012.30937         3.15702         6.85273
     2012.31211         1.17070         6.90573
     2012.31485         1.00539         6.87166
     2012.31759        -3.17093         6.84011
     2012.32032        -5.51624         6.90951
     2012.32306        -3.78956         6.76188
     2012.32580        -0.14787         6.76945
     2012.32854        -6.65019         6.84516
     2012.33128        -5.58050         6.92718
     2012.33401        -1.57082         7.02812
     2012.33675        -1.82613         6.90320
     2012.33949        -1.00945         6.77576
     2012.34223       -10.75776         6.76693
     2012.34496       -12.69208         6.78964
     2012.34770        -3.74439         6.86535
     2012.35044        -3.96471         6.93349
     2012.35318         1.57698         6.90825
     2012.35592        -0.42734         6.79595
     2012.35865        -0.80365         6.75431
     2012.36139        -2.36097         6.72655
     2012.36413         2.27072         6.78712
     2012.36687        -1.49460         6.78460
     2012.36961         0.61609         6.77829
     2012.37234        10.58277         6.91077
     2012.37508        -4.22554         6.85399
     2012.37782        -3.23886         6.97134
     2012.38056        -1.22817         7.00415
     2012.38329         3.28551         7.04831
     2012.38603        -1.45780         7.08238
     2012.38877        -4.90112         7.05462
     2012.39151         1.52757         6.96629
     2012.39425         0.35225         6.92592
     2012.39698         6.05494         7.01172
     2012.39972         6.08762         6.79469
     2012.40246        -0.53869         6.81236
     2012.40520         1.45699         6.80857
     2012.40794        -3.65332         6.83254
     2012.41067        -1.56564         6.84895
     2012.41341         3.77005         6.83885
     2012.41615         2.00273         6.84895
     2012.41889         6.98542         7.05966
     2012.42162         1.65510         6.84390
     2012.42436         2.06079         6.90068
     2012.42710         0.71347         6.79848
     2012.42984         2.52016         6.75431
     2012.43258         0.48584         6.80857
     2012.43531        -2.89247         6.86409
     2012.43805        -6.36979         6.80857
     2012.44079        -4.59410         6.84769
     2012.44353        -2.87342         6.79848
     2012.44626         4.48127         6.93222
     2012.44900        -3.07905         6.79469
     2012.45174         1.05264         6.89563
     2012.45448         2.03632         6.80100
     2012.45722         6.76501         6.84769
     2012.45995         4.95669         6.93096
     2012.46269         2.12538         6.84390
     2012.46543         0.80406         6.89563
     2012.46817        -0.55825         6.81993
     2012.47091         5.32643         6.98774
     2012.47364         0.88312         6.91330
     2012.47638         4.25280         6.85021
     2012.47878        -1.34822         8.02745
     2012.48186        -0.08683         6.99279
     2012.48459         3.76886         6.95241
     2012.48733         0.42354         6.79974
     2012.49007         4.72823         6.87923
     2012.49281        -1.21509         6.81866
     2012.49555        -1.41940         6.82245
     2012.49828        -4.93672         6.83507
     2012.50102         6.29197         6.81488
     2012.50376         5.83265         6.90699
     2012.50650         5.39434         6.78081
     2012.50924         3.83002         6.95241
     2012.51197        -0.62729         7.04326
     2012.51471        -5.36361         6.83254
     2012.51745        -0.44492         6.82497
     2012.52019         1.10276         6.91835
     2012.52292        -1.73555         6.84138
     2012.52566        -0.65187         6.87544
     2012.52840         3.78482         6.85273
     2012.53114        -0.05950         6.92213
     2012.53388         2.25019         6.98143
     2012.53661         2.64688         7.10635
     2012.53935         7.41656         6.88175
     2012.54209         5.39525         6.86535
     2012.54483         5.21493         6.90573
     2012.54757        11.70562         6.82371
     2012.55030         5.81730         7.12275
     2012.55304         8.12299         6.92718
     2012.55578        -1.60533         6.89059
     2012.55852         0.04236         6.79848
     2012.56125         8.00004         6.78460
     2012.56399        -1.35627         6.79091
     2012.56673         3.66341         6.82119
     2012.56947         6.89110         6.86030
     2012.57221         9.47378         6.77955
     2012.57494         7.34347         6.80857
     2012.57768         3.58815         6.87797
     2012.58042         6.55784         6.78207
     2012.58316        -6.53648         6.83002
     2012.58590         4.92321         6.82497
     2012.58863        13.56789         6.89437
     2012.59137        14.53858         6.82371
     2012.59411         4.35426         6.80352
     2012.59685         5.16095         6.92718
     2012.59958         0.59963         6.88175
     2012.60232         1.52032         7.06850
     2012.60506         6.85500         6.80352
     2012.60780         8.00569         6.80857
     2012.61054         5.96237         6.83633
     2012.61327         5.15006         6.88049
     2012.61601        10.31774         6.88554
     2012.61875        15.94443         7.01676
     2012.62149        13.82111         6.89563
     2012.62423         8.62980         6.91582
     2012.62696         7.27348         6.91961
     2012.62970         6.00417         7.02433
     2012.63244         6.83085         7.01172
     2012.63518        10.54954         6.87671
     2012.63791        10.33222         6.77450
     2012.64065         4.12191         6.81109
     2012.64339        14.89559         6.79974
     2012.64613        11.69328         6.87797
     2012.64887        12.67996         6.87166
     2012.65160        17.52865         6.95115
     2012.65434         7.30433         6.92970
     2012.65708        13.41702         7.02433
     2012.65982        15.01470         7.06345
     2012.66256        13.26539         6.78712
     2012.66529        10.20707         6.81614
     2012.66803         6.66576         6.87797
     2012.67077        11.78944         6.88049
     2012.67351         9.54313         6.78207
     2012.67624        14.82981         6.84895
     2012.67898        12.26750         6.85778
     2012.68172         5.28018         6.81993
     2012.68446         8.09787         6.80983
     2012.68720        10.06655         7.04452
     2012.68993        12.01324         6.97008
     2012.69267        18.07592         7.02055
     2012.69541         6.98161         6.95998
     2012.69815         9.64829         6.98270
     2012.70089        13.84098         6.97008
     2012.70362        10.09066         6.93096
     2012.70636        16.39135         6.94610
     2012.70910         7.51903         6.94863
     2012.71184         9.27372         6.82876
     2012.71457        12.31540         6.83759
     2012.71731        13.87509         6.77576
     2012.72005        13.14677         6.84011
     2012.72279        12.34646         6.80983
     2012.72553        10.81914         6.83002
     2012.72826        11.06683         7.00667
     2012.73100         8.75351         7.01046
     2012.73374        17.46920         7.03317
     2012.73648        10.65788         6.83002
     2012.73921        10.68857         6.98900
     2012.74195        16.61025         7.01676
     2012.74469        12.45694         6.86283
     2012.74743        12.02862         6.88680
     2012.75017        13.59831         6.85778
     2012.75290        12.49599         7.13411
     2012.75564        14.14268         6.98017
     2012.75838         9.72736         6.79848
     2012.76112        11.47105         6.82119
     2012.76386        14.09473         6.78207
     2012.76659        16.27142         6.93475
     2012.76933        16.87710         6.91835
     2012.77207        15.72979         6.91582
     2012.77481        10.35347         6.91204
     2012.77754         7.87416         6.85399
     2012.78028        11.50384         6.99531
     2012.78302        13.89653         7.00415
     2012.78576        11.62821         7.01298
     2012.78850        10.87590         6.98522
     2012.79123        17.30658         7.52021
     2012.79397         8.59027         6.91708
     2012.79671        12.80895         6.93096
     2012.79945        25.24664         7.42306
     2012.80219        11.82732         7.17701
     2012.80492         5.22301         6.96503
     2012.80766         7.85369         6.93222
     2012.81040         5.68438         6.95746
     2012.81314         9.29506         6.92718
     2012.81587         8.50275         6.99784
     2012.81861         2.55443         7.23127
     2012.82135        -2.29788         7.05336
     2012.82409         6.78780         7.23127
     2012.82683         9.60849         7.04200
     2012.82956         8.56917         7.04957
     2012.83230         7.03886         6.93727
     2012.83504         2.15054         6.94484
     2012.83778        -5.15077         7.12654
     2012.84052        12.09891         7.01929
     2012.84325         6.90860         7.18837
     2012.84599         7.83528         7.20729
     2012.84873         0.67297         6.94610
     2012.85147        10.28165         7.23758
     2012.85420         2.80734         7.02181
     2012.85694         9.74602         6.99784
     2012.85968         7.08271         6.94358
     2012.86242        -1.11161         6.95746
     2012.86516         1.67608         6.99784
     2012.86789         4.09076         7.19846
     2012.87063         6.90145         6.88302
     2012.87337         5.14613         6.96503
     2012.87611        12.02182         6.99784
     2012.87885         7.03950         6.91835
     2012.88158         7.40919         6.89689
     2012.88432        12.19787         6.92970
     2012.88706         5.08256         7.20982
     2012.88980         9.53624         7.23884
     2012.89253         3.50393         6.90825
     2012.89527         0.38961         6.98143
     2012.89801         2.61330         7.02181
     2012.90075         5.12798         6.98017
     2012.90349         6.27667         6.91330
     2012.90622         6.18435         6.95368
     2012.90896        10.62704         7.11140
     2012.91170        11.42972         7.08364
     2012.91444         6.30941         6.95368
     2012.91718        15.51709         6.91204
     2012.91991        11.14678         6.87797
     2012.92265         6.23446         6.92213
     2012.92539         3.82815         6.92718
     2012.92813         2.11083         6.91077
     2012.93086        -0.17948         6.99784
     2012.93360         6.90120         6.99658
     2012.93634         5.53489         6.86661
     2012.93908        -0.47443         6.87671
     2012.94182         3.58426         6.88049
     2012.94455         9.31494         6.83381
     2012.94729         9.84463         7.04831
     2012.95003         7.47831         6.92213
     2012.95277        10.41300         6.77955
     2012.95551         7.75068         6.81362
     2012.95824        10.09237         6.78964
     2012.96098         9.56805         7.21360
     2012.96372         0.93974         6.99405
     2012.96646         8.73242         6.80731
     2012.96919         1.00911         6.88806
     2012.97193         5.90879         6.88932
     2012.97467        12.17848         6.83002
     2012.97741         7.08416         6.84516
     2012.98015         0.19185         6.87040
     2012.98288         2.98953         6.89437
     2012.98562         6.20822         6.78964
     2012.98836         9.58090         6.79217
     2012.99110         8.97159         6.80100
     2012.99384         8.17927         6.83507
     2012.99657         6.36196         6.86283
     2012.99931         2.45464         6.84011
     2013.00205         9.01833         6.82245
     2013.00479         8.22101         6.82624
     2013.00752         8.43170         6.94989
     2013.01026         5.59238         6.90699
     2013.01300         1.94907         6.91204
     2013.01574         8.24475         6.79217
     2013.01848         3.00744         7.01424
     2013.02121         4.09312         6.84516
     2013.02395         4.07381         6.96882
     2013.02669         4.70749         6.96125
     2013.02943         6.10318         6.84011
     2013.03216        -1.46814         6.81109
     2013.03490         2.34755         6.87544
     2013.03764        -3.79977         6.89816
     2013.04038        -7.81808         6.77450
     2013.04312        -1.44840         6.97386
     2013.04585         2.83329         6.97891
     2013.04859         0.06397         7.02307
     2013.05133        -1.41734         6.86409
     2013.05407         0.95234         6.92213
     2013.05681         1.89103         6.86156
     2013.05954         3.85971         6.84516
     2013.06228         2.69240         7.07733
     2013.06502         4.01208         7.07354
     2013.06776         0.36677         6.98648
     2013.07049         5.18445         6.93222
     2013.07323         5.19714         6.83633
     2013.07597         2.10482         6.83507
     2013.07871         0.08351         6.84138
     2013.08145         5.76219         6.91456
     2013.08418        -2.26512         6.91077
     2013.08692        -0.04144         6.76819
     2013.08966        -0.74675         6.81614
     2013.09240        -0.43807         6.83633
     2013.09514         7.32462         6.90699
     2013.09787        12.53330         7.39151
     2013.10061        11.27699         7.35240
     2013.10335         2.19867         6.89816
     2013.10609         1.55336         6.80226
     2013.10882         0.26504         6.77072
     2013.11156        -0.97627         6.97513
     2013.11430         5.03241         6.89437
     2013.11704        -1.89290         6.92213
     2013.11978         2.81178         7.12654
     2013.12251        -3.60753         6.79595
     2013.12525        -7.32185         6.86156
     2013.12799         0.75284         6.89942
     2013.13073         5.55552         6.91835
     2013.13347         1.81921         6.94610
     2013.13620         3.24489         6.87040
     2013.13894         3.16558         6.86787
     2013.14168         5.91326         6.97513
     2013.14442         6.14095         7.16061
     2013.14715         8.50863         7.28048
     2013.14989       -10.04968         6.82624
     2013.15263        -2.08400         6.94106
     2013.15537       -10.73231         6.88175
     2013.15811        -4.46863         6.84895
     2013.16084        -3.32894         6.89311
     2013.16358         0.39674         6.96251
     2013.16632        -4.93257         6.88049
     2013.16906         3.14511         6.81488
     2013.17180         4.21480         6.80983
     2013.17453         0.68748         6.93980
     2013.17727         1.62717         7.00036
     2013.18001        -1.15715         7.00667
     2013.18275        -0.43046         6.81488
     2013.18548        -0.07278         6.79217
     2013.18822        -3.66609         6.89437
     2013.19096         0.31759         6.81109
     2013.19370         2.03228         6.90699
     2013.19644        -0.66704         6.90825
     2013.19917        -7.44435         7.29688
     2013.20191         3.77033         6.81488
     2013.20465        -0.34098         6.90573
     2013.20739         0.60970         6.83885
     2013.21013         2.43039         6.89563
     2013.21286         2.85507         6.81614
     2013.21560         2.05076         6.93853
     2013.21834        -0.33956         6.85652
     2013.22108        -0.35087         6.91582
     2013.22381         0.11881         6.78207
     2013.22655         3.03250         6.80983
     2013.22929         0.74718         6.81993
     2013.23203         0.68487         6.78333
     2013.23477         2.01555         6.77072
     2013.23750         0.14424         6.96125
     2013.24024         1.38192         6.93853
     2013.24298         3.01561         6.92592
     2013.24572         7.53929         6.89185
     2013.24846         7.43998         6.99405
     2013.25119         1.20066         7.03948
     2013.25393         4.37935         6.96377
     2013.25667         3.11803         7.19215
     2013.25941         6.92372         6.96377
     2013.26214         1.99940         7.07607
     2013.26488         6.11209         6.95746
     2013.26762         5.86777         6.90951
     2013.27036        -4.69654         6.91456
     2013.27310         4.13614         7.16061
     2013.27583        -0.62717         7.05462
     2013.27857         6.16451         6.97639
     2013.28131         1.90320         7.11897
     2013.28405         1.00988         7.01172
     2013.28679         3.06757         6.92087
     2013.28952        -0.80475         6.96629
     2013.29226         0.96494         6.91835
     2013.29500         1.89862         6.89311
     2013.29774        -6.11069         6.98900
     2013.30047        -4.22101         6.95872
     2013.30321         3.94968         6.94106
     2013.30595        -5.30264         6.92339
     2013.30869        -1.88895         6.93980
     2013.31143        -0.88927         6.91456
     2013.31416         0.45442         6.93096
     2013.31690         4.54310         7.00793
     2013.31964         0.73279         6.94737
     2013.32238         4.08247         6.98143
     2013.32512        -3.45384         7.11897
     2013.32785        -1.59816         6.96629
     2013.33059         1.14253         6.90825
     2013.33333         0.18421         6.93980
     2013.33607         0.41890         6.96377
     2013.33880         5.16958         6.99027
     2013.34154        -2.76873         6.96125
     2013.34428         2.94995         6.90699
     2013.34702         3.91264         7.00036
     2013.34976         3.72232         6.85399
     2013.35249        -2.67699         6.88175
     2013.35523        -5.07331         7.03191
     2013.35797         5.87338         7.03569
     2013.36071         2.22006         6.96251
     2013.36344         3.71675         7.25398
     2013.36618         2.84343         6.94610
     2013.36892         6.78812         6.90951
     2013.37166         0.16280         7.03191
     2013.37440         5.98349         7.00288
     2013.37713        -0.35683         6.95746
     2013.37987         4.61586         6.92844
     2013.38261        -0.33546         6.94737
     2013.38535        -1.15877         6.98522
     2013.38809         1.59691         6.87040
     2013.39082         4.54660         6.87923
     2013.39356         1.54728         6.87671
     2013.39630         2.43797         6.93222
     2013.39904         5.01065         6.90573
     2013.40177         2.23234         6.98143
     2013.40451         3.46202         6.89563
     2013.40725         8.26771         7.15304
     2013.40999         5.00639         6.90447
     2013.41273         5.52208         6.93222
     2013.41546         5.69576         7.07228
     2013.41820         0.97945         6.88932
     2013.42094         9.67013         6.95368
     2013.42368        -1.45218         7.06850
     2013.42642         8.28150         7.00667
     2013.42915         7.71919         6.97260
     2013.43189         0.55687         6.98017
     2013.43463         7.65956         7.09878
     2013.43737         4.40124         6.99910
     2013.44010         6.17593         6.95368
     2013.44284         2.91961         6.95115
     2013.44558         6.34830         7.07607
     2013.44832        -0.54302         7.02307
     2013.45106         2.44667         6.86914
     2013.45379        -1.20465         6.95115
     2013.45653         1.55004         6.94737
     2013.45927        -1.83628         7.05083
     2013.46201         7.80841         6.94484
     2013.46475         9.10309         6.94106
     2013.46748         5.38778         6.88680
     2013.47022         3.11146         6.93349
     2013.47296        -0.92385         6.92339
     2013.47570         0.68383         7.03191
     2013.47843        10.09552         7.07607
     2013.48117         0.60520         7.07859
     2013.48391         4.98289         6.94484
     2013.48665         5.07957         7.04957
     2013.48939        -4.20474         6.91077
     2013.49212         2.92394         7.19341
     2013.49486         5.38063         6.91961
     2013.49760        -6.11369         7.12654
     2013.50034         1.53800         7.02812
     2013.50308         1.86568         7.04326
     2013.50581         4.77137         7.00415
     2013.50855         7.17805         6.88175
     2013.51129         7.79974         6.87923
     2013.51403         7.65242         6.84769
     2013.51676         4.26011         6.97260
     2013.51950         2.89779         6.89437
     2013.52224         7.72948         6.98143
     2013.52498         5.05316         7.26912
     2013.52772        11.84585         6.94737
     2013.53045         5.64753         6.98396
     2013.53319        -2.31078         6.96251
     2013.53593         7.76790         7.15682
     2013.53867         8.33559         7.12906
     2013.54141         3.56227         7.00288
     2013.54414         7.10896         6.96629
     2013.54688        -0.09836         6.96251
     2013.54962         7.24233         6.96377
     2013.55236        11.51401         7.07859
     2013.55509         3.07570         6.91961
     2013.55783         7.97238         6.94358
     2013.56057        -1.29893         7.13159
     2013.56331         5.09075         7.10635
     2013.56605         3.38844         7.17701
     2013.56878        11.09012         7.00162
     2013.57152         5.85581         6.91330
     2013.57426         9.20349         6.91204
     2013.57700         5.25518         6.92970
     2013.57974         1.09686         6.96755
     2013.58247        11.64055         6.94989
     2013.58521         8.31023         6.89059
     2013.58795        11.19092         6.93222
     2013.59069         9.18060         6.94737
     2013.59342         3.66329         6.95998
     2013.59616         8.02797         7.05966
     2013.59890         8.24066         6.98143
     2013.60164         9.93434         7.06850
     2013.60438         2.88403         7.21865
     2013.60711        10.98171         7.05083
     2013.60985        10.72840         7.05336
     2013.61259         9.82808         6.93853
     2013.61533        10.33777         7.07985
     2013.61807        11.40745         7.28048
     2013.62080        12.68114         7.07228
     2013.62371        12.45818         7.82430
     2013.62628         7.04651         7.19720
     2013.62902         4.70319         7.09373
     2013.63175         8.97788         7.04074
     2013.63449         6.27256         7.24641
     2013.63723        10.33525         6.94484
     2013.63997         7.06693         7.25272
     2013.64271        11.71162         7.32842
     2013.64544        11.60830         7.03443
     2013.64818         7.76099         7.08490
     2013.65092        10.96367         7.08616
     2013.65366         9.02236         6.96125
     2013.65639        13.50304         7.09752
     2013.65913        12.46273         7.36375
     2013.66187         9.97341         7.02307
     2013.66461         4.64610         7.00288
     2013.66735         7.17278         7.11644
     2013.67008        15.98047         7.13032
     2013.67282        21.60615         7.25524
     2013.67556        16.82984         7.20982
     2013.67830        16.81452         7.15935
     2013.68104         5.89521         7.10761
     2013.68377         3.01189         6.98900
     2013.68651         9.99858         7.08238
     2013.68925         7.53126         7.02307
     2013.69199        10.33995         6.96503
     2013.69472        12.03363         6.92718
     2013.69746         4.53732         6.94106
     2013.70020        13.28700         6.93727
     2013.70294        15.76769         6.98648
     2013.70568        15.60637         7.23884
     2013.70841        14.38806         7.03569
     2013.71115        13.31774         7.00162
     2013.71389         7.57743         6.97134
     2013.71663        12.16711         7.03821
     2013.71937        10.97280         7.05209
     2013.72210        21.91248         6.97891
     2013.72484        21.36517         7.10509
     2013.72758         4.87385         7.15682
     2013.73032        18.40254         7.23001
     2013.73305        16.16422         6.97639
     2013.73579        11.72491         6.93475
     2013.73853        10.63059         7.01172
     2013.74127         8.17628         7.02812
     2013.74401        12.79896         7.26029
     2013.74674        11.49765         7.38520
     2013.74948        -2.95967         7.01550
     2013.75222         8.95902         6.95872
     2013.75496         6.12570         6.98900
     2013.75770        -0.77661         6.90573
     2013.76043         0.84207         6.95872
     2013.76317         6.43576         6.94358
     2013.76591        21.20644         7.44577
     2013.76865         3.12213         7.01046
     2013.77138         4.91481         6.96503
     2013.77412         6.31950         7.08364
     2013.77686         7.84518         7.04452
     2013.77960         3.48787         6.98522
     2013.78234         3.32455         6.93980
     2013.78507         0.17224         7.01046
     2013.78781         1.98892         6.99658
     2013.79055         7.77161         7.06219
     2013.79329         3.86329         6.97386
     2013.79603        10.15798         6.96251
     2013.79876         7.16666         6.87923
     2013.80150         3.55935         7.03443
     2013.80424        10.76503         7.11771
     2013.80698         9.84672         6.99405
     2013.80971         9.65340         6.98143
     2013.81245        12.95809         6.98270
     2013.81519         3.12977         6.91204
     2013.81793         4.00946         6.94863
     2013.82067         2.70114         7.14673
     2013.82340        16.96083         7.00667
     2013.82614         9.24351         7.12654
     2013.82888        13.48520         6.99279
     2013.83162        10.57388         7.02307
     2013.83436         7.93257         7.18458
     2013.83709         8.56125         7.33852
     2013.83983        13.27494         7.27164
     2013.84257         8.56762         7.16313
     2013.84531        -1.88569         7.32969
     2013.84804         1.26199         6.92465
     2013.85078        -2.99632         7.19341
     2013.85352         0.22636         7.02307
     2013.85626         2.02205         6.99153
     2013.85900         6.77373         6.98143
     2013.86173        -5.28958         6.96755
     2013.86447        -4.43890         7.00667
     2013.86721         3.74979         7.03064
     2013.86995        -0.17753         7.06093
     2013.87269         6.16616         6.99531
     2013.87542         3.80984         7.04074
     2013.87816         4.63053         6.98648
     2013.88090        10.47921         7.09121
     2013.88364        10.38490         7.35997
     2013.88637         7.35958         6.99531
     2013.88911         1.66527         6.89942
     2013.89185        -3.95905         6.91582
     2013.89459        -0.37836         6.90447
     2013.89733         7.36732         6.95998
     2013.90006         5.51101         7.06471
     2013.90280        -3.62731         7.05840
     2013.90554         2.41838         6.96882
     2013.90828         6.71606         6.94989
     2013.91102         1.62675         6.92970
     2013.91375         2.61743         7.06976
     2013.91655        -1.52976         7.06976
     2013.91923        -9.60220         7.28552
     2013.92197        -2.02951         7.06850
     2013.92470         5.34717         6.93727
     2013.92744         5.25986         7.04200
     2013.93018         5.27354         6.86156
     2013.93292         4.00523         6.90699
     2013.93566         0.15991         6.87923
     2013.93839        -0.90940         6.90699
     2013.94113         0.23028         6.92087
     2013.94387         6.50997         6.92844
     2013.94661         4.23765         7.03191
     2013.94935         1.13034         6.89689
     2013.95208        -0.59398         6.91582
     2013.95482         1.25071         7.08742
     2013.95756         1.31539         6.89563
     2013.96030         5.34808         6.92970
     2013.96303         1.68776         7.20225
     2013.96577         5.49545         6.95241
     2013.96851         6.93013         7.04074
     2013.97125        10.56782         6.98774
     2013.97399         5.63150         7.02686
     2013.97672        -4.78381         7.04452
     2013.97946        -7.21113         6.94863
     2013.98220        -0.55444         6.91835
     2013.98494        -3.91276         6.95241
     2013.98767        -3.82607         6.91708
     2013.99041        -4.65039         6.96503
     2013.99315        -8.66470         6.98774
     2013.99589         1.98998         7.01172
     2013.99863        -7.18333         7.06850
     2014.00410        -2.38596         6.96882
     2014.00684         4.66072         7.24388
     2014.00958         6.44141         8.17382
     2014.01232        -1.03491         7.01803
     2014.01505        -2.22522         7.11518
     2014.01779        -3.81854         7.08616
     2014.02053         0.07515         6.97008
     2014.02327         1.31883         7.25903
     2014.02600         7.12952         7.11392
     2014.02874         4.22720         7.20477
     2014.03041        -2.77633        15.15777
     2014.03422         3.53557         6.95494
     2014.03696        -0.59074         6.93853
     2014.03969         5.59194         6.94106
     2014.04243         3.16363         7.15051
     2014.04517         1.08931         7.14547
     2014.04791        -0.93700         6.94106
     2014.05065        -2.42232         6.98143
     2014.05338         1.84137         6.90320
     2014.05612         3.62905         6.93222
     2014.05886        -8.17526         6.90068
     2014.06160        10.68842         6.93096
     2014.06433         5.47311         7.13537
     2014.06707         6.17979         7.14420
     2014.06981         8.19048         7.00667
     2014.07255         3.98616         6.91330
     2014.07529         2.13385         6.99405
     2014.07802        -0.37347         7.15430
     2014.08076         7.69222         7.09247
     2014.08350         3.48790         6.96882
     2014.08624         3.84559         6.98900
     2014.08898        -3.22873         7.24136
     2014.09171        -0.72704         7.24388
     2014.09445         5.14764         6.97765
     2014.09719        -0.41567         7.13663
     2014.09993        11.22701         7.00036
     2014.10266         7.54670         7.10635
     2014.10540        -1.22462         6.89311
     2014.10814       -10.27493         6.97134
     2014.11088         6.10575         7.21360
     2014.11362         4.30844         7.00919
     2014.11635        -0.36588         7.09247
     2014.11909         0.42481         7.02686
     2014.12183         0.95149         7.23884
     2014.12457         6.23918         6.90573
     2014.12731         9.27386         7.03443
     2014.13004         9.67755         7.01424
     2014.13278         4.16423         7.15935
     2014.13552         0.07392         7.25146
     2014.13826         1.04360         6.93475
     2014.14099         4.82229         6.91204
     2014.14373         1.67397         7.02938
     2014.14647         3.46966         6.99910
     2014.14921         2.66534         7.01298
     2014.15195         0.22303         6.96503
     2014.15468         6.41771         7.08616
     2014.15742        10.42340         7.06219
     2014.16016        10.81308         7.19846
     2014.16290         6.79577         7.06724
     2014.16564        -0.77555         7.03064
     2014.16837        -2.45986         7.17196
     2014.17111         0.35582         7.19468
     2014.17385         8.41651         7.40161
     2014.17659         0.15019         7.25524
     2014.17932         8.79688         7.40539
     2014.18206         0.74956         7.11392
     2014.18480         5.59625         7.03317
     2014.18754        -6.19907         7.11140
     2014.19028         0.51462         7.00541
     2014.19301         2.45230         7.02055
     2014.19575         2.27899         7.02055
     2014.19849         7.30567         7.08995
     2014.20123         0.35536         7.03191
     2014.20397         1.72904         7.05083
     2014.20670         1.22373         7.04074
     2014.20944         1.93141         6.98648
     2014.21218         1.17310         6.96882
     2014.21492         3.33378         7.16944
     2014.21765         8.10347         6.98774
     2014.22039         5.73115         6.99279
     2014.22313         2.78084         7.00036
     2014.22587         2.80752         6.99658
     2014.22861         0.18021         7.07102
     2014.23134        10.99889         6.97134
     2014.23408         6.28158         7.00919
     2014.23682         4.16326         7.01298
     2018.08458       -37.35506        41.20472
     2018.08624       -36.03062        12.87143
     2018.08898       -20.87693        13.67644
     2018.09171       -33.79025        13.19571
     2018.09445       -13.53856        13.46573
     2018.09719       -22.56388        13.07584
     2018.09993       -33.97619        13.28151
     2018.10266       -34.16451        13.04682
     2018.10540       -31.21482        12.91054
     2018.10814       -15.88414        13.27646
     2018.11088       -21.19945        12.95218
     2018.11362       -26.40477        12.83736
     2018.11635       -24.07808        13.11243
     2018.11909       -29.45840        12.92695
     2018.12183       -23.82371        13.37614
     2018.12457       -18.14603        13.18309
     2018.12731       -24.38634        13.21463
     2018.13004        -9.91666        13.09981
     2018.13278       -51.49597        12.97742
     2018.13552       -21.62329        12.96228
     2018.13826       -22.42060        12.84872
     2018.14099       -29.12092        12.87017
     2018.14370       -43.99330        13.05060
     2018.14647       -22.65855        12.61529
     2018.14921       -15.71686        12.84115
     2018.15195       -18.86618        12.87900
     2018.15418       -23.48555        17.74569
     2018.16837       -28.10407        12.81212
     2018.17111       -24.88538        12.52949
     2018.17385       -26.81570        12.86133
     2018.17659       -30.42901        12.61529
     2018.17932       -18.71633        13.03798
     2018.18206        -8.87464        13.95908
     2018.18480       -30.32195        13.64868
     2018.18754       -25.76927        12.64305
     2018.19028       -33.78458        12.74904
     2018.19301       -22.61090        12.85376
     2018.19575       -17.84721        13.25879
     2018.19849       -24.02653        12.82600
     2018.20123       -20.24684        12.93578
     2018.20397       -23.38516        12.92568
     2018.20670       -32.35147        12.79572
     2018.20944       -31.59079        12.96732
     2018.21218       -24.27010        13.07457
     2018.21492       -40.30442        12.84619
     2018.21765       -36.33973        12.08786
     2018.22039       -32.43305        12.31877
     2018.22313       -37.51036        11.99197
     2018.22587       -36.67268        11.99828
     2018.22861       -29.91399        12.19890
     2018.23134       -29.22531        12.08281
     2018.23408       -34.60562        12.06515
     2018.23682       -41.42194        11.94780
     2018.23948       -42.58642        12.95723
     2018.24230       -39.28457        12.25063
     2018.24503       -19.83988        12.11310
     2018.24777       -24.89920        12.61655
     2018.25051       -30.79051        12.03613
     2018.25325       -34.07583        12.03739
     2018.25581       -25.55850        13.84426
     2018.25971       -24.65942        23.04643
     2018.26146       -24.15777        12.19259
     2018.26420       -20.89209        12.63043
     2018.26694       -38.90740        12.00963
     2018.26967       -42.22672        11.93645
     2018.27241       -30.90603        12.19385
     2018.27515       -31.33035        12.00963
     2018.27789       -21.55166        12.15221
     2018.28062       -29.99898        12.56482
     2018.28336       -35.46129        12.05884
     2018.28610       -44.09761        11.94780
     2018.28884       -28.87092        11.85822
     2018.29158       -16.53624        12.04244
     2018.29431       -31.71955        12.22792
     2018.29705       -34.80987        12.08786
     2018.29979       -41.03118        12.01720
     2018.30253       -28.93450        12.24811
     2018.30527       -27.77281        12.13833
     2018.30800       -24.51413        12.08660
     2018.31074       -25.77044        12.23044
     2018.31348       -23.44376        11.99323
     2018.31622       -29.53207        12.39952
     2018.31895       -26.26739        13.51115
     2018.32169       -19.73170        12.34905
     2018.32443       -24.73202        12.08281
     2018.32717       -20.80233        12.32255
     2018.32991       -19.13265        12.07903
     2018.33264       -21.45796        12.20899
     2018.33538       -32.35128        13.60705
     2018.33812       -29.97059        13.93385
     2018.34086       -29.64291        12.43359
     2018.34360       -20.42222        12.80203
     2018.34633       -28.31454        12.15600
     2018.34907       -17.39585        12.53453
     2018.35181       -34.36217        12.58753
     2018.35455        -6.05348        13.12252
     2018.35728       -17.94380        12.15474
     2018.36002       -25.27711        12.71244
     2018.36276       -22.53743        12.53327
     2018.36550       -23.14074        12.37302
     2018.36824       -23.28606        12.14590
     2018.37097       -22.77537        12.43990
     2018.37371       -17.86169        12.14464
     2018.37645       -25.03600        13.47330
     2018.37919       -23.58832        12.37933
     2018.38193       -31.81363        12.35157
     2018.38466       -22.91595        12.18123
     2018.38740       -18.68626        12.06010
     2018.39014       -20.72158        12.40962
     2018.39288       -22.39089        12.86386
     2018.39561       -20.04321        12.38943
     2018.39835       -18.34852        12.35914
     2018.40109       -22.99084        12.26199
     2018.40383       -20.62315        12.26956
     2018.40657       -22.00247        12.54715
     2018.40930        -6.20078        12.25063
     2018.41204       -16.34010        12.28849
     2018.41478       -25.16540        12.24054
     2018.41752       -19.38073        12.25694
     2018.42026       -19.52004        12.22413
     2018.42299       -19.98536        12.31624
     2018.42573       -21.07067        12.15852
     2018.42847       -27.16999        12.34779
     2018.43121       -13.85030        12.35788
     2018.43394       -27.79962        12.17871
     2018.43615       -14.88903        15.10099
     2018.44315       -55.21350        34.02897
     2018.44490       -22.58988        12.62664
     2018.44763       -17.75319        13.15911
     2018.45037       -17.17051        12.27587
     2018.45311       -13.45782        12.34779
     2018.45585       -23.01814        12.30236
     2018.45859        -4.45445        12.74904
     2018.46132       -28.70577        12.66576
     2018.46406       -21.80708        12.25694
     2018.46680        -1.70540        12.29984
     2018.46954       -10.88271        12.46766
     2018.47227       -13.27103        12.51182
     2018.47501       -10.24034        12.15852
     2018.47775       -19.74566        12.45756
     2018.48049         2.17803        12.45630
     2018.48323       -13.44529        12.21909
     2018.48596       -19.08760        12.14086
     2018.48870       -17.38392        12.68216
     2018.49144       -20.11423        12.17619
     2018.49418       -13.17055        13.00644
     2018.49692         2.19514        13.31431
     2018.49965       -11.12918        12.07146
     2018.50239       -10.44749        12.61402
     2018.50513       -17.51181        12.38060
     2018.50787        -5.68012        12.43864
     2018.51060       -20.66044        12.69225
     2018.51334       -18.54475        13.03672
     2018.51608       -18.13207        12.37176
     2018.51882       -20.05238        12.38690
     2018.52156        -7.70570        12.24306
     2018.52429        -4.22201        12.33391
     2018.52704        -7.28232        12.39826
     2018.52977       -35.15864        12.21278
     2018.53251       -17.81896        12.26073
     2018.53525       -14.42227        12.18754
     2018.53798       -18.45359        12.10805
     2018.54072        -3.12690        12.25442
     2018.54346       -29.82122        12.39826
     2018.54620       -21.93353        11.98944
     2018.54893        -7.26385        12.36419
     2018.55167       -19.99416        12.19385
     2018.55441       -14.23448        12.13959
     2018.55715       -14.38079        12.37050
     2018.55989       -15.94711        13.05817
     2018.56262       -11.27342        11.92257
     2018.56536        -8.40074        12.78941
     2018.56810       -11.25405        11.96547
     2018.57084       -10.44237        12.10679
     2018.57357       -26.48968        12.54715
     2018.57631        -7.56000        12.97489
     2018.57905        -4.12731        13.65121
     2018.58174        -9.79174        12.59888
     2018.58523        -4.98147        20.14560
     2018.58726       -12.76826        12.46387
     2018.59000       -12.00257        12.14969
     2018.59274        -7.09689        12.82096
     2018.59548       -18.26320        12.50803
     2018.59822       -10.72752        12.23549
     2018.60095        -5.95283        12.08155
     2018.60369       -17.34115        12.37933
     2018.60643        -3.04046        13.12883
     2018.60917         4.60222        12.28722
     2018.61190       -13.05209        12.30615
     2018.61464        -7.11541        12.27082
     2018.61738       -14.25372        12.41466
     2018.62012        -5.64104        12.07398
     2018.62286        -0.56635        12.25694
     2018.62559       -23.03567        12.36293
     2018.62833       -20.36198        12.36924
     2018.63107        -6.42730        12.05379
     2018.63381       -12.09061        13.73070
     2018.63655        -5.64493        12.18376
     2018.63928         0.96276        12.43485
     2018.64202        -9.69856        12.26956
     2018.64476         3.13713        12.61150
     2018.64750        -7.67719        12.43990
     2018.65023        -8.52050        12.45630
     2018.65297        -2.25982        12.56355
     2018.65571         0.12987        12.26325
     2018.66119         7.96724        12.84745
     2018.66392         1.95292        12.08155
     2018.66666       -20.00939        12.26703
     2018.66940       -16.16471        12.34527
     2018.67214        -4.89002        13.15533
     2018.67488        -7.99834        12.82096
     2018.67761         3.31135        12.34400
     2018.68035       -16.28397        12.78689
     2018.68309       -27.40628        12.84745
     2018.68583        -0.54160        12.66576
     2018.68856        -1.80291        12.52318
     2018.69130        -7.89723        12.47397
     2018.69404       -17.46154        12.96858
     2018.69678       -11.97286        12.61150
     2018.69952         6.77183        13.01149
     2018.70225       -10.87649        14.08148
     2018.70499        -6.81380        12.49289
     2018.70773       -22.98912        12.86260
     2018.71047       -12.45243        12.42602
     2018.71321        -5.18575        12.72128
     2018.71594        -7.10306        12.42728
     2018.71868       -10.53038        14.55591
     2018.72142       -12.50469        12.42476
     2018.72416       -11.26401        12.67207
     2018.72689        -5.04932        12.93073
     2018.72963        -3.83564        12.77301
     2018.73237         4.70605        12.79194
     2018.73511        -6.06927        13.04682
     2018.73785       -18.22758        12.76922
     2018.74058       -13.30790        12.32129
     2018.74332        -7.84621        12.67080
     2018.74606         1.53047        12.50425
     2018.74880       -13.32984        12.76165
     2018.75154        -2.03916        12.94209
     2018.75430        -7.77242        13.38750
     2018.75701       -10.28079        13.22851
     2018.75975         0.35690        12.43864
     2018.76249        -4.94242        12.31246
     2018.76522       -15.09573        12.09039
     2018.76796       -17.31905        12.57743
     2018.77070         0.67364        13.37109
     2018.77344       -16.58968        12.66450
     2018.77618        -2.25199        12.17871
     2018.77891       -13.29331        12.27208
     2018.78165       -18.46062        12.11436
     2018.78439        -5.21894        12.00837
     2018.78713        -8.84925        12.18123
     2018.78987       -15.12857        12.59131
     2018.79260       -10.28088        12.20395
     2018.79534         2.34180        12.95471
     2018.79808        -8.55051        12.17997
     2018.80082        -3.35383        12.69225
     2018.80355        -2.34914        12.75913
     2018.80629         3.66354        12.81339
     2018.80903         8.61223        13.06322
     2018.81177       -15.82309        12.66450
     2018.81451       -10.04940        13.42283
     2018.81724        -8.65172        13.53891
     2018.81998         4.66097        13.46573
     2018.82272       -10.38035        13.07962
     2018.82546        -8.30866        12.92821
     2018.82820        -7.42598        12.99508
     2018.83093        -8.09429        12.75661
     2018.83367         4.04039        12.63547
     2018.83641         4.84908        13.14271
     2018.83915        10.61876        13.22851
     2018.84188        -3.78955        13.60326
     2018.84462       -16.99787        12.67838
     2018.84736       -10.40118        12.45378
     2018.85010        -9.55250        12.56103
     2018.85284        -9.61081        12.56103
     2018.85557        -5.16213        13.16290
     2018.85831        -8.32344        12.84241
     2018.86105       -12.14376        12.59510
     2018.86379       -16.50307        12.90297
     2018.86653       -12.50439        12.70992
     2018.86926       -17.75570        12.17619
     2018.87200         0.21798        12.75661
     2018.87474        -9.94633        12.15726
     2018.87748       -17.14565        12.89540
     2018.88021        -5.45796        12.85502
     2018.88295        -8.27228        12.89162
     2018.88569       -14.01259        13.26006
     2018.88843        -2.15691        13.15407
     2018.89117         0.32278        13.22473
     2018.89390       -19.14754        12.82853
     2018.89664        -9.87885        12.79572
     2018.89938       -28.06817        12.95471
     2018.90212        -6.69548        13.04808
     2018.90485       -16.01180        13.32315
     2018.90759        -8.23911        12.96858
     2018.91033        -4.01043        12.89793
     2018.91307        -5.53974        12.74525
     2018.91581         0.74894        13.31053
     2018.91854         0.39263        13.84931
     2018.92128        -8.12069        12.58753
     2018.92402       -12.80800        12.58374
     2018.92676        -7.24132        12.77679
     2018.92950        -7.62463        13.08215
     2018.93223        -9.12395        12.86638
     2018.93497         4.76874        13.27898
     2018.93771       -11.75158        12.74273
     2018.94045       -17.43989        12.73263
     2018.94318       -18.89721        12.75282
     2018.94592        -6.88152        12.69352
     2018.94866         5.10716        12.99508
     2018.95140        -4.15315        12.64052
     2018.95414        -6.96847        12.31498
     2018.95687       -10.96378        12.70740
     2018.95961       -25.73710        12.57365
     2018.96235         4.33359        13.02537
     2018.96509       -21.60073        12.72001
     2018.96783       -18.25504        12.94461
     2018.97056        -3.41436        12.84872
     2018.97330       -24.53667        12.58248
     2018.97604       -15.43999        13.17173
     2018.97878       -17.80630        12.70613
     2018.98151       -23.76662        12.60393
     2018.98425       -22.93793        12.91180
     2018.98699       -24.62825        12.79824
     2018.98973       -28.59856        14.32500
     2018.99247       -20.17488        13.46825
     2018.99520       -12.76019        13.41778
     2018.99794       -25.27151        13.16164
     2019.00068       -32.43882        13.01653
     2019.00342       -34.22414        13.09602
     2019.00616       -33.19445        12.83231
     2019.00889        13.38523        13.56162
     2019.01163        -1.60308        13.23482
     2019.01437        -8.62140        12.55977
     2019.01711       -17.57371        12.48658
     2019.01984       -28.29803        12.54841
     2019.02258       -11.95834        12.48280
     2019.02532       -12.30066        12.52949
     2019.02806       -17.33297        12.32381
     2019.03080       -24.25529        12.26703
     2019.03353       -25.94360        12.45504
     2019.03627       -26.39692        12.35157
     2019.03901       -10.67323        12.60014
     2019.04175       -15.52155        12.57365
     2019.04449       -14.38386        12.37302
     2019.04722       -21.41618        12.60772
     2019.04996       -21.53349        12.40962
     2019.05270       -28.26381        12.47144
     2019.05544       -18.29612        12.40835
     2019.05817       -21.17844        13.09476
     2019.06091       -13.54975        13.07331
     2019.06365       -29.20507        12.82600
     2019.06639       -28.03538        13.19571
     2019.06913       -11.66470        13.91366
     2019.07186       -17.66701        13.85436
     2019.07460       -14.27133        12.57112
     2019.07734        -9.12364        12.48028
     2019.08008       -18.71396        12.48785
     2019.08282       -13.97727        14.02722
     2019.08555        -5.34459        12.93452
     2019.08829        -8.13390        12.37302
     2019.09103       -14.91622        12.43485
     2019.09377       -14.87753        12.33139
     2019.09650       -13.67685        12.35284
     2019.09924       -10.61616        12.46009
     2019.10198       -16.15448        12.62033
     2019.10472        -5.60879        12.46009
     2019.10744       -30.94814        12.54336
     2019.11019       -19.94642        12.25442
     2019.11293       -18.57974        12.69352
     2019.11567        -7.78605        12.26325
     2019.11841         1.40263        12.65819
     2019.12115        -5.34568        12.55472
     2019.12388       -15.86700        12.32760
     2019.12662       -11.38431        12.18376
     2019.12936        -9.96563        12.62033
     2019.13210        -9.37394        12.59131
     2019.13483       -14.23926        12.22540
     2019.13757        -9.82157        12.47523
     2019.14031        -9.78789        12.41340
     2019.14305       -13.00520        12.64052
     2019.14579       -20.28852        12.65693
     2019.14852       -40.85483        12.59257
     2019.15126       -24.58715        12.29227
     2019.15400       -23.55046        12.55472
     2019.15674       -13.65878        12.50551
     2019.15948       -21.29809        12.62664
     2019.16221       -21.64741        12.49920
     2019.16495       -16.01472        12.36041
     2019.16769       -20.76804        12.48406
     2019.17043       -21.69435        12.65693
     2019.17316       -23.58267        12.76670
     2019.17590       -20.52198        12.51813
     2019.17864       -10.85630        12.66828
     2019.18138       -17.42561        12.60014
     2019.18412       -36.01893        12.36419
     2019.18685       -19.67024        12.56860
     2019.18959       -14.30556        12.37807
     2019.19233       -15.43287        12.32760
     2019.19507       -26.95519        12.19890
     2019.19780       -25.49250        12.40835
     2019.20054       -30.58082        13.45311
     2019.20328       -21.99813        12.09922
     2019.20602       -23.77045        12.29606
     2019.20876       -16.38176        12.29101
     2019.21149       -29.03308        12.31246
     2019.21423       -18.58839        12.72506
     2019.21697       -20.69871        12.65062
     2019.21971       -41.37602        12.35662
     2019.22245       -12.55334        12.38690
     2019.22518       -22.64365        11.96421
     2019.22792       -18.55597        12.26325
     2019.23066       -15.67928        12.75534
     2019.23340       -24.39760        12.13455
     2019.23613       -20.93191        13.28024
     2019.23887       -22.59523        12.27713
     2019.24161       -22.85854        13.36983
     2019.24435       -30.63286        12.39700
     2019.24709       -21.18717        12.43233
     2019.24982       -26.04749        12.47901
     2019.25256         0.56620        12.78184
     2019.25530       -12.73212        12.22666
     2019.25804       -18.21043        12.62664
     2019.26078       -12.67275        12.54463
     2019.26351       -25.41806        12.86260
     2019.26602        -9.49086        13.95151
     2019.26980       -37.66400        21.97518
     2019.27173       -15.70301        12.34274
     2019.27446       -10.16932        12.64431
     2019.27720        -6.54564        13.64111
     2019.27994        -9.08595        12.57112
     2019.28268       -15.43927        12.35788
     2019.28542       -16.73558        11.99449
     2019.28815       -12.00490        11.99323
     2019.29089       -28.23521        11.93519
     2019.29363       -18.89453        12.22413
     2019.29637       -20.15284        12.04875
     2019.29911        -9.67516        12.05001
     2019.30184       -28.35447        12.20142
     2019.30458       -25.49879        12.06010
     2019.30732        -6.87110        12.62790
     2019.31006       -28.32542        12.23675
     2019.31279       -21.78973        12.13959
     2019.31553       -15.75405        12.23549
     2019.31827       -12.85036        12.52191
     2019.32101       -17.79868        12.06767
     2019.32375       -25.52199        12.01468
     2019.32648       -15.32631        12.17745
     2019.32922       -21.63062        12.08281
     2019.33196       -19.47894        12.10426
     2019.33470       -13.86425        12.16735
     2019.33744       -14.50557        12.11057
     2019.34017       -15.81888        12.58374
     2019.34291       -23.30920        11.89986
     2019.34565       -19.00551        13.01149
     2019.34839       -22.33983        12.81339
     2019.35112       -17.87714        12.38943
     2019.35386        -7.84747        12.48028
     2019.35660        -8.36977        12.34779
     2019.35934       -17.38909        11.99954
     2019.36208       -24.20940        12.77301
     2019.36481       -17.71372        11.99323
     2019.36755       -27.22203        12.15600
     2019.37029       -12.99935        12.43233
     2019.37303       -10.24766        12.35788
     2019.37577       -24.98798        12.16231
     2019.37850       -19.21429        12.05001
     2019.38124       -11.54961        12.24432
     2019.38672       -12.74324        12.15600
     2019.38945        -9.35755        12.08029
     2019.39219       -36.04987        12.89666
     2019.39493       -18.50018        12.08155
     2019.39767       -12.48950        12.00206
     2019.40041       -24.09381        12.07398
     2019.40314       -12.49113        12.19133
     2019.40588        -9.93244        12.08660
     2019.40862        -9.87476        12.53579
     2019.41136       -14.74707        12.54589
     2019.41410       -20.67439        12.47397
     2019.41683       -16.43770        12.13455
     2019.41957       -16.39302        13.04177
     2019.42231       -17.98033        12.18502
     2019.42505         2.85835        13.00518
     2019.42778        -1.49796        13.03924
     2019.43052       -10.55028        12.81212
     2019.43326        -6.48859        12.11562
     2019.43600       -24.45391        12.45630
     2019.43874       -13.30822        13.62219
     2019.44147        -6.21254        13.07836
     2019.44421        -7.06985        12.86386
     2019.44695       -16.01817        12.80329
     2019.44969       -16.48248        13.00770
     2019.45243       -24.75580        12.81717
     2019.45516       -22.99411        13.27015
     2019.45790       -31.92043        13.17552
     2019.46064       -16.72174        13.09476
     2019.46338       -25.68406        12.74904
     2019.46611       -15.65437        12.90550
     2019.46885       -14.68769        13.14902
     2019.47159       -12.42200        13.47077
     2019.47433       -30.00332        13.33955
     2019.47707       -14.82363        13.09981
     2019.47980        -8.45995        13.55405
     2019.48254       -20.50826        13.29034
     2019.48528       -18.81558        13.59569
     2019.48802       -13.58189        13.61209
     2019.49076       -21.55921        12.59762
     2019.49349       -26.22352        12.11688
     2019.49623       -24.47684        12.28849
     2019.50171       -15.34147        12.26073
     2019.50444       -24.71678        12.06641
     2019.50718       -14.37810        12.27713
     2019.50992       -21.84741        12.61655
     2019.51266       -18.79773        12.15978
     2019.51540       -16.83804        11.88345
     2019.51813       -22.29036        12.28344
     2019.52087       -26.77767        12.14464
     2019.52361       -41.68499        12.21909
     2019.52635       -12.32830        12.31751
     2019.52908        -6.33362        12.36419
     2019.53182       -25.87193        12.03991
     2019.53456       -15.64125        12.23044
     2019.53730        -3.88856        12.69225
     2019.54004       -25.63188        12.34022
     2019.54277        -0.89819        12.08786
     2019.54551       -18.25451        13.51872
     2019.54786       -14.33662        13.17047
     2019.59593        -9.19381        40.57383
     2019.59753       -10.59849        13.25122
     2019.60027       -22.43881        14.05750
     2019.60301       -16.36312        13.07710
     2019.60574        -8.10844        12.53075
     2019.60848       -19.50375        12.23297
     2019.61122       -23.94207        12.23675
     2019.61396        -7.41738        13.33955
     2019.61670        -4.79870        12.81717
     2019.61943        20.06099        13.02410
     2019.62217        -8.84933        12.11184
     2019.62491        -2.09564        12.21909
     2019.62765       -11.86496        12.32760
     2019.63039         3.63073        12.28722
     2019.63312        -7.51459        12.20647
     2019.63586        -1.89490        13.07331
     2019.63860        -7.21622        12.61781
     2019.64134        -9.63353        13.00391
     2019.64407        -7.16385        12.50803
     2019.64681        -5.92616        12.10931
     2019.64955        -7.42148        12.67585
     2019.65229        -6.34479        12.23423
     2019.65503       -12.13111        13.15407
     2019.65776        -5.36542        13.58307
     2019.66050        -0.02374        12.91559
     2019.66324        -5.14205        12.26199
     2019.66598        -4.22837        12.73516
     2019.66872       -11.83268        12.29353
     2019.67145       -21.70000        12.07777
     2019.67419        -3.70231        12.44368
     2019.67693        -4.71863        12.62412
     2019.67967       -13.25194        12.37933
     2019.68240       -14.70226        12.64809
     2019.68514         2.96443        13.32693
     2019.68788       -10.52689        12.60898
     2019.69062        -8.33020        12.93956
     2019.69336       -12.22352        12.33769
     2019.69609       -21.51383        12.50299
     2019.69883         0.07885        13.30548
     2019.70157        -7.47346        12.49668
     2019.70431        -1.54378        12.65693
     2019.70705         2.74591        12.19007
     2019.70978       -19.75041        12.31877
     2019.71177       -11.10829        17.42267
     2019.98639       -12.83005        13.04934
     2019.98904       -17.73254        12.77301
     2019.99178       -17.70585        12.83357
     2019.99452        -9.88817        12.64431
     2019.99726        -5.55148        12.72758
     2020.00000        -0.84280        12.85755
     2020.00273       -14.72211        12.66197
     2020.00547        -1.29643        12.64178
     2020.00821       -21.71274        12.95597
     2020.01095       -22.20506        12.52065
     2020.01368       -39.80637        18.53178
     2020.01642       -24.05469        12.84998
     2020.01916       -13.50200        12.69225
     2020.02190        -6.99432        13.03420
     2020.02464       -16.07863        13.05817
     2020.02737       -15.62495        13.04303
     2020.03011       -12.61826        13.51494
     2020.03285       -18.79058        12.84998
     2020.03559       -12.82089        12.95092
     2020.03833        -8.92721        12.98120
     2020.04106       -14.94452        14.53572
     2020.04380       -29.20084        14.30481
     2020.04654       -12.40015        12.89540
     2020.04928       -20.35447        12.71623
     2020.05201       -23.13678        12.73137
     2020.05475        -2.81910        13.18940
     2020.05749       -12.98141        12.67207
     2020.06023       -26.87973        13.27772
     2020.06297       -32.63304        12.67838
     2020.06570       -13.34935        13.14776
     2020.06844       -27.49567        13.52377
     2020.07118        -2.19698        12.80582
     2020.07392       -12.68230        13.18435
     2020.07666       -15.42461        12.74020
     2020.07939        -7.38193        13.09350
     2020.08213       -11.98024        13.49096
     2020.08487         0.76744        13.22094
     2020.08761        -0.77187        13.20201
     2020.09034         2.23981        13.20328
     2020.09308        -5.59150        12.91180
     2020.09582       -14.53082        12.96354
     2020.09856        -1.61213        13.33576
     2020.10129       -14.22446        13.07836
     2020.10403        -9.12676        13.09224
     2020.10677       -13.33208        13.21211
     2020.10951       -24.26039        12.86764
     2020.11225       -26.21171        12.92190
     2020.11498       -20.34202        12.99256
     2020.11772       -26.25034        12.88909
     2020.12046        -9.96165        12.98877
     2020.12320       -12.11997        13.18183
     2020.12594       -24.66128        12.97616
     2020.12867       -32.71760        12.88405
     2020.13141       -23.68791        13.03546
     2020.13415        -7.91423        12.95975
     2020.13689        -7.27354        13.94268
     2020.13963       -21.63786        14.03731
     2020.14236       -16.08017        13.04682
     2020.14510       -24.24449        13.49853
     2020.14784       -20.91080        12.98373
     2020.15058       -13.54012        13.28024
     2020.15331       -12.27543        12.83610
     2020.15605       -24.52675        13.35595
     2020.15879       -18.37606        12.99887
     2020.16153       -28.93838        13.50989
     2020.16427       -11.67269        13.03798
     2020.16700       -15.54201        12.96985
     2020.16974       -15.64132        13.04808
     2020.17248       -27.82764        13.05817
     2020.17522       -20.85195        12.76670
     2020.17796       -14.06027        13.36352
     2020.18069       -10.93658        12.92442
     2020.18343       -11.11690        12.99634
     2020.18617       -20.08021        12.81086
     2020.18891       -27.00653        14.43604
     2020.19164       -20.86484        14.43099
     2020.19438       -22.97816        14.60259
     2020.19712       -21.33447        14.32752
     2020.19986       -23.87279        14.53950
     2020.20260       -14.22410        15.11866
     2020.20533       -26.89342        15.27638
     2020.20807       -16.13473        14.48020
     2020.21081       -26.06005        15.64104
     2020.21355       -27.69436        14.15718
     2020.21629       -21.95768        14.75527
     2020.21902       -19.78899        14.68208
     2020.22176       -27.98231        14.70227
     2020.22450       -21.66262        14.53698
     2020.22724       -12.00894        14.21018
     2020.22997        -5.95525        14.31743
     2020.23271       -14.28357        15.94134
     2020.23545       -17.17288        14.33888
     2020.23819       -26.88820        14.23794
     2020.24093       -17.51951        14.43856
     2020.24366       -25.86083        14.83097
     2020.24640       -26.84014        14.37295
     2020.24914       -14.93646        14.89785
     2020.25188       -14.61277        14.61395
     2020.25462       -14.80209        14.63287
     2020.25735       -21.07840        14.62152
     2020.26009        -9.02972        14.26191
     2020.26283       -10.99703        14.61899
     2020.26557       -21.05335        14.60259
     2020.26830       -29.13066        14.53319
     2020.27104       -15.32898        14.49155
     2020.27378       -22.96329        14.50417
     2020.27652       -10.97561        14.50291
     2020.27926       -23.95792        14.75779
     2020.28199       -11.48624        14.41206
     2020.28473       -17.66855        14.58114
     2020.28747       -24.70187        14.57609
     2020.29021       -14.44618        14.24046
     2020.29295       -11.72350        14.69344
     2020.29568         1.99219        14.71237
     2020.29842        -5.08613        14.52688
     2020.30116       -16.54344        14.31617
     2020.30390       -31.15876        14.12059
     2020.30663       -32.08607        14.72625
     2020.30937       -16.77339        14.69975
     2020.31211        -2.73670        14.59376
     2020.31485       -38.87202        15.92494
     2020.31759       -20.37733        14.14204
     2020.32032       -15.86365        14.27705
     2020.32306       -23.17896        14.57105
     2020.32574        -8.00740        14.92687
     2020.32854       -12.27359        15.58426
     2020.33128       -32.13491        14.59250
     2020.33401       -25.94222        14.71363
     2020.33675       -29.06754        14.54455
     2020.33949       -17.11485        14.80700
     2020.34223       -15.95417        14.62404
     2020.34496       -16.20748        15.64987
     2020.34770       -13.67880        16.60630
     2020.35044       -14.76511        15.71927
     2020.35318       -24.80443        14.52815
     2020.35592       -18.46674        14.62530
     2020.35865        -8.69106        14.93065
     2020.36139       -15.12737        14.44992
     2020.36413        -7.35669        14.47263
     2020.36687       -30.60200        17.13499
     2020.36961        -9.29632        14.82340
     2020.37234        -2.51463        15.16535
     2020.37508         0.48405        14.91047
     2020.37782        -6.21726        14.57483
     2020.38056        -8.33358        14.62657
     2020.38329       -10.76589        15.05431
     2020.38603       -24.04321        15.08712
     2020.38877       -24.44051        16.72617
     2020.39151       -14.45284        15.15147
     2020.39425       -19.36215        14.81962
     2020.39698       -31.52447        14.72372
     2020.39972       -26.04778        15.44168
     2020.40246       -26.97710        14.99501
     2020.40520       -29.19941        15.64482
     2020.40794       -20.88873        14.93444
     2020.41068       -21.77403        15.45556
     2020.41341       -28.63336        15.07954
     2020.41615       -22.64867        15.70034
     2020.41889       -20.31499        16.19496
     2020.42162        -7.75030        16.01074
     2020.42436       -15.21562        15.74450
     2020.42710       -23.63793        15.39751
     2020.42984       -43.17125        16.22146
     2020.43258       -13.24856        15.44798
     2020.43529       -31.85592        15.97289
     2020.43807        -7.78616        16.36025
     2020.44079       -38.71051        15.91611
     2020.44353       -34.85182        16.80061
     2020.44626       -40.14314        17.05045
     2020.44900       -42.56045        16.53816
     2020.45174       -10.97877        16.05490
     2020.45448        -9.92108        16.14701
     2020.45722       -15.57340        15.92241
     2020.45995       -17.01071        16.06247
     2020.46269       -24.65503        15.63725
     2020.46543       -17.23734        15.98677
     2020.46817         8.32534        16.81071
     2020.47091         2.84203        16.03724
     2020.47364       -19.18729        15.74955
     2020.47638       -30.68660        15.67384
     2020.47912       -19.62692        15.74576
     2020.48186        -2.99323        16.94067
     2020.48459        -7.08355        15.92746
     2020.48733       -12.48886        15.50098
     2020.49007       -21.21318        15.00888
     2020.49281       -23.89849        15.38616
     2020.49555         4.31919        15.34200
     2020.49828        -4.74212        15.07576
     2020.50102       -21.87444        15.00384
     2020.50376       -22.70575        15.20698
     2020.50650       -32.05507        15.35840
     2020.50924        -2.87938        15.08333
     2020.51197       -10.43170        15.26124
     2020.51471       -12.66001        15.09342
     2020.51745        -9.91733        15.21834
     2020.52019       -17.01264        14.97355
     2020.52292       -14.10796        17.82644
     2020.52566         3.00273        17.84284
     2020.52840        11.90941        17.59680
     2020.53114       -17.84990        17.22457
     2020.53388       -17.74722        17.46053
     2020.53661       -22.68953        17.67124
     2020.53935       -16.42685        17.18293
     2020.54209        11.72284        17.79111
     2020.54483        -1.57748        17.07821
     2020.54757       -12.85979        16.91417
     2020.55030       -15.59611        16.95581
     2020.55304       -11.41842        17.09713
     2020.55577       -18.81876        20.08882
     2020.55852        -6.24705        18.37279
     2020.56125        -6.26237        16.60251
     2020.56399        -5.00668        16.43722
     2020.56673        -9.62000        16.43848
     2020.56947        13.18369        16.36025
     2020.57221         7.62837        16.45110
     2020.57494        -8.01194        16.32240
     2020.57768         9.81274        16.41451
     2020.58042        -0.61857        16.38675
     2020.58316        11.62011        16.82206
     2020.58590       -11.76620        16.18360
     2020.58863       -12.87552        16.48895
     2020.59137       -19.02383        16.64163
     2020.59411         1.12485        16.67822
     2020.59685         4.21954        18.20624
     2020.59958       -13.54978        17.41384
     2020.60232         2.72491        16.56845
     2020.60506        -0.54941        16.59747
     2020.60780         5.33528        16.31988
     2020.61054         8.91096        16.91039
     2020.61327         8.73565        16.75014
     2020.61601        -1.18567        16.67696
     2020.61875        -9.35798        16.19244
     2020.62149        18.69970        18.58982
     2020.62423         9.18339        17.15265
     2020.62696       -10.43493        17.07316
     2020.62970       -10.31324        17.20943
     2020.63244         1.94044        17.41384
     2020.63518        -2.05687        17.19177
     2020.63791         4.21381        18.47121
     2020.64065       -16.52950        16.70346
     2020.64339       -12.57682        16.83847
     2020.64613       -25.87613        16.88768
     2020.64887       -10.28245        16.89525
     2020.65160        -6.17776        16.31230
     2020.65434       -18.15408        16.57097
     2020.65708       -21.13539        16.56088
     2020.65982        11.56729        17.51352
     2020.66256       -18.50702        18.37153
     2020.66529        -4.38634        16.62396
     2020.66803         9.93134        17.13246
     2020.67079        -0.72493        16.89777
     2020.67351        -0.68328        17.17410
     2020.67624         1.81940        17.92991
     2020.67898        -6.71291        16.62396
     2020.68172       -21.31823        16.77285
     2020.68446        10.13346        17.68512
     2020.75028       -12.42287        17.03278
     2020.75290       -22.27442        17.78985
     2020.75564        -8.81773        17.65862
     2020.75838        -1.47705        17.73938
     2020.76112       -24.41636        17.49838
     2020.76386       -14.94368        17.74947
     2020.76659         3.18801        18.02706
     2020.76933        -6.09431        21.19918
     2020.77207        -4.54262        17.59049
     2020.77481        12.40306        18.89643
     2020.77754       -13.85725        18.05482
     2020.78028       -38.50157        19.59167
     2020.78302        -4.78788        18.42326
     2020.78576       -14.52420        18.50023
     2020.78850       -10.30951        17.98795
     2020.79123        -9.00983        17.64853
     2020.79397         0.96786        18.46995
     2020.79671       -23.23246        17.79868
     2020.79945        -8.40677        18.15703
     2020.80219       -24.73909        17.33687
     2020.80492       -23.43540        18.05609
     2020.80766        -5.18172        18.83839
     2020.81040       -14.21503        18.52673
     2020.81314       -56.78535        23.24327
     2020.81587       -13.71566        17.63339
     2020.81858         6.13096        19.53994
     2020.82145       -14.75610        18.93050
     2020.82409       -19.17961        17.75704
     2020.82683       -15.90992        17.89079
     2020.82956       -25.13024        18.36901
     2020.83230         0.66845        17.47567
     2020.83504       -12.25987        17.39870
     2020.83778       -18.40218        17.70279
     2020.84052       -32.61450        19.61817
     2020.84325       -33.44381        18.19488
     2020.84599        31.42187        19.22828
     2020.84814         6.08234        23.64704
     2020.89253        18.60152         6.92718
     2020.89527         8.48620         7.10130
     2020.89801        18.26989         7.07985
     2020.90075        12.76857         6.86535
     2020.90349        17.29926         6.82371
     2020.90622        18.34694         6.90951
     2020.90896        14.83563         7.08238
     2020.91170         7.35531         7.10004
     2020.91444         0.31700         7.10383
     2020.91718        10.32368         6.87797
     2020.91991        15.26737         6.84264
     2020.92265        16.28005         7.22496
     2020.92539         8.61474         6.89816
     2020.92813         5.94142         6.86283
     2020.93086        -0.79689         6.84264
     2020.93360         7.38879         6.85399
     2020.93634        14.31248         6.85399
     2020.93908         4.56816         6.95872
     2020.94182        -1.71915         6.95115
     2020.94455         0.95853         6.95620
     2020.94729         1.81922         6.81236
     2020.95003        -1.52110         7.03948
     2020.95277        -2.90241         6.83254
     2020.95551         0.59427         6.88175
     2020.95824         4.38496         6.96882
     2020.96087        -0.09759         7.24010
     2020.98056        11.26630         8.34416
     2020.98288         5.34512         7.01298
     2020.98562         5.10181         6.73034
     2020.98836        10.93649         6.74422
     2020.99110        16.79918         6.71646
     2020.99384        16.29486         6.74548
     2020.99657         8.30855         6.83633
     2021.08418        -2.00853         6.90573
     2021.08692         0.56915         6.82119
     2021.08966         3.94084         6.76945
     2021.09240        -3.31348         6.76819
     2021.09514         7.08121         6.95494
     2021.09787         2.95389         6.92465
     2021.10061         7.65758         6.81109
     2021.10335         4.79026         6.78207
     2021.10609         5.03895         6.71520
     2021.10882         8.13763         6.81236
     2021.11156         8.12932         6.75810
     2021.11430         4.09600         6.76945
     2021.11704        14.01169         6.74927
     2021.12251        26.53606         9.28040
     2021.12525        10.38674         9.50752
     2021.16084        10.62965         6.89816
     2021.16358        11.38133         6.85399
     2021.16632         9.28702         6.95241
     2021.16906        13.08670         6.72529
     2021.17180         3.42439         6.70763
     2021.17453         3.35307         6.90573
     2021.17727         4.71976         6.97134
     2021.18001         3.42444         7.02938
     2021.18275         4.70113         7.08364
     2021.18548         0.58781         6.66473
     2021.18822         2.05550         6.65211
     2021.19079         4.27883         7.33852
     2021.39082        10.34719         6.98522
     2021.56605         5.50703         6.92465
     2021.94661        13.86325         7.03191
     2021.94935         8.65993         6.95746
     2021.95214        16.50973         7.31202
     2021.95482        16.23730         7.17449
     2021.95756        17.76599         7.12275
     2021.96030        13.07167         7.15430
     2021.96303        16.43736         7.14673
     2021.96577         4.22304         7.12654
     2021.96851         7.13373         7.22622
     2021.97142        20.09077         7.96815
     2021.97370        16.27250         8.15741
     2021.97672        16.60978         7.14673
     2021.97946        20.49947         7.15430
     2021.98220        17.51615         7.13663
     2021.98494        17.08884         7.15556
     2021.98767        23.28852         7.09752
     2021.99041        23.77621         6.97260
     2021.99315        15.67989         6.90320
     2021.99589        21.72358         7.30445
     2021.99863        14.89926         6.98648
     2022.00136        17.27395         7.00919
     2022.00410        16.24063         7.00793
     2022.00684         1.43932         7.00793
     2022.00958        -1.28900         7.04831
     2022.44490        18.96492         7.05083
     2022.44763        22.46660         6.77324
     2022.45037        10.19529         6.83507
     2022.45311         7.94597         6.82245
     2022.45585        14.03266         6.91961
     2022.45859        -5.40566         6.82371
     2022.46132         5.71603         6.85147
     2022.46406         8.79471         6.93222
     2022.46680         9.71940         6.75431
     2022.46954        11.66908         6.73791
     2022.47227        -2.38723         6.85399
     2022.47501        23.51245         6.90068
     2022.47775        19.30314         7.01298
     2022.48049        15.14682         6.76062
     2022.48323        23.32851         6.72277
     2022.48596        24.38419         7.16187
     2022.48870         2.95388         7.00415
     2022.49144        12.38456         6.93727
     2022.49418         7.64425         7.29436
     2022.49692        14.94193         6.76062
     2022.49965        15.35762         6.83128
     2022.50239        -6.40070         6.99153
     2022.50513        12.15299         7.19846
     2022.50787        20.66067         7.39404
     2022.51060         6.54736         7.00415
     2022.51334        14.17404         6.87544
     2022.51608        11.59473         6.87797
     2022.51882         5.00641         6.84895
     2022.52156        10.79810         6.83507
     2022.52429        12.35878         6.93601
     2022.52703        15.62047         6.92339
