# ================= DQRFIT RESULTS ================
# INPUT FILE: series/NWPT.rad
# OUTPUT: LDETRENDED
# FILTER FUNCTION: f(t)
# f(t)=+line(t)+annual(t)+jumps(t)
# line(t)=+P 1+P 2*t
# annual(t)=+P 3*sin(2*pi*t+P 4)
# jumps(t)=+P 5*heav(t-2011.0302  )
# heav(t)=(t<0?0:1)
# TOTAL OBSERVATIONS MTOT= 1959
# INITIAL TIME INTERVAL= 2014.1018 - 2007.4031 =  6.6986
# TOTAL OBSERVATIONS AFTER PREFILTER M= 1918
# TIME-SPAN= 2014.1018 - 2007.4031 =  6.6986
# OBSERVATIONS: USED M=  1918 REJECTED MTOT-M=    41 %USED=   97.9071
# N=  5 PARAMETERS
# MAXSIG= 175.00000
# MAXRES=  29.14484
# SCALE FACTOR FOR LENGTHS: SCL=  10.00000
# SCALE FACTOR FOR SIGMAS: SCLSIG=   1.00000
# CHI^2=   1824.183 DOF=  1913 CHI^2/DOF=   0.95357
# RMS=      5.846 SDEV=      5.847 MEAN=    0.07467
#  P #       PARAMETER +-    SIGMA %error PARAMETER NAME
# P 1 =     -1264.37078 +-  257.435  20.36 YZERO                              
# P 2 =         0.63278 +-    0.128  20.25 SLOPE                              
# P 3 =         6.08281 +-    0.184   3.02 ANNUAL AMPLITUDE                   
# P 4 =        -2.88217 +-    0.041   1.43 ANNUAL PHASE                       
# P 5 =        -8.06583 +-    0.484   6.00 OFFSET 2011.0302                   
#       T            LDETRENDED       SIG_OBS
     2007.40314        -0.01253         5.49580
     2007.40588        -6.60826         5.39229
     2007.40862        -5.94399         5.47432
     2007.41136        -4.96873         5.50459
     2007.41410        -2.15046         5.50459
     2007.41683        -6.27519         5.53291
     2007.41957         0.67908         5.48115
     2007.42231         9.16234         5.44111
     2007.42505         6.73961         5.77801
     2007.42778         5.69688         5.35030
     2007.43052        -0.93985         5.34737
     2007.43326         3.67841         5.43233
     2007.43600        -1.60932         5.36104
     2007.43874         1.19795         5.49092
     2007.44421        -4.93951         5.50361
     2007.44695        -6.04525         5.40596
     2007.44969        -6.93998         5.32979
     2007.45243        -6.57071         5.38838
     2007.45516        -4.39744         5.41182
     2007.45790        -8.38218         5.42451
     2007.46064        -2.04491         5.40108
     2007.47433        -0.24557         5.43135
     2007.47707        -2.99130         5.55830
     2007.47980        -6.98204         5.36690
     2007.48254       -12.78577         5.35323
     2007.48528        -4.57950         5.37178
     2007.48802        -3.60723         5.41182
     2007.49074         1.64405         5.70575
     2007.49453         5.69964        10.99160
     2007.49623        -6.98743        14.41817
     2007.49926         0.92265         7.98688
     2007.50172        -0.01790         6.65785
     2007.50537        -6.61221        15.47964
     2007.50718        -3.47536         5.34542
     2007.50992         5.31091         5.48115
     2007.51260        -1.24679         6.68128
     2007.51543         1.82842         5.47236
     2007.51813         2.42871         5.40108
     2007.52087        -1.77402         5.39717
     2007.52361        -2.82776         5.36104
     2007.52635         0.74751         5.40791
     2007.52908         4.90878         5.92937
     2007.53188        10.55301         5.68817
     2007.53456         6.08731         5.45088
     2007.53730         5.54258         5.42647
     2007.54004         5.34685         5.55244
     2007.54277        12.19912         5.49580
     2007.54551         1.38138         5.64813
     2007.54825         9.24565         5.39522
     2007.55099        -4.38108         5.48701
     2007.55373        -0.92281         5.42940
     2007.55646         0.00445         5.40498
     2007.55920        10.53372         5.61884
     2007.56194        -1.01201         6.28580
     2007.56468         3.65126         5.44502
     2007.56741         0.96652         5.49287
     2007.57015         7.99779         5.37764
     2007.57289        12.35806         5.44209
     2007.57563         2.90633         5.40791
     2007.57837         6.84059         5.43233
     2007.58110         5.67086         5.45088
     2007.58384         8.16413         5.47432
     2007.58658         3.75140         5.54658
     2007.58932         4.15966         5.41768
     2007.59206         7.53693         5.39620
     2007.59479        11.81120         5.51045
     2007.59753        12.44547         5.58954
     2007.60027        12.46173         5.37081
     2007.60301         6.83500         5.30147
     2007.60574         8.83927         5.40010
     2007.60848         8.18254         5.40596
     2007.61122        11.99780         5.41963
     2007.61396         2.30307         5.44697
     2007.61670         5.48334         5.72528
     2007.61943         3.18761         5.72723
     2007.62303        -4.54367         9.31688
     2007.62491         5.74014         5.60907
     2007.62769        14.27238         5.80828
     2007.63039        16.69568         5.73211
     2007.63312         7.62895         5.52998
     2007.63586         7.08521         5.47432
     2007.63858         2.72149         5.48799
     2007.64407         9.04402         5.60126
     2007.64681         6.28428         5.62568
     2007.64955        12.01655         5.80731
     2007.65229         6.81282         5.65595
     2007.65503         3.03809         5.54072
     2007.65776         5.13835         5.54365
     2007.66050         4.48162         5.67645
     2007.66324        10.03689         5.82684
     2007.66598         6.59716         5.69208
     2007.66872         7.21642         5.60419
     2007.67145         0.68269         5.59345
     2007.67419        11.21596         5.69012
     2007.67693        13.79023         5.57490
     2007.67967        13.21049         5.61396
     2007.68531         6.57292         5.89129
     2007.68750         4.21653         6.76233
     2007.69142        11.46906         8.18511
     2007.69336         7.65483         5.55244
     2007.69609         7.86110         5.71258
     2007.69883         7.68137         5.57685
     2007.70157         5.14663         5.65692
     2007.70431         8.28590         5.69989
     2007.70705        11.40917         5.59638
     2007.70978         8.10944         5.69598
     2007.71252         6.13670         5.64032
     2007.71526         8.88997         5.39912
     2007.71800        12.41224         5.50068
     2007.72073        10.62151         5.44209
     2007.72347        12.53677         5.48213
     2007.72621         8.83904         5.41280
     2007.72895         7.88431         5.52900
     2007.73169        10.12058         5.50654
     2007.73442        10.88484         5.40791
     2007.73716         4.85511         5.56318
     2007.73990        11.30338         5.44990
     2007.74264        12.19865         5.40010
     2007.74538        12.47791         5.52314
     2007.74811         6.08318         5.62275
     2007.75085        10.72445         5.66669
     2007.75359        14.07272         5.58173
     2007.75633        11.17998         5.40987
     2007.75906        11.28525         5.43721
     2007.76180        11.26552         5.42842
     2007.76454         8.60079         5.40694
     2007.76728        10.30605         5.73797
     2007.77002         3.67832         5.83855
     2007.77275        11.99159         5.63935
     2007.77549         6.53186         5.43330
     2007.77823         8.56712         5.52021
     2007.78100         8.78137         5.44795
     2007.78371         9.47566         5.46357
     2007.78644        11.74993         5.34639
     2007.78918         9.16619         5.47334
     2007.79192         9.75746         5.53486
     2007.79466        12.41073         5.53681
     2007.79739        19.06400         5.66376
     2007.80013        16.76826         5.38936
     2007.80276         5.34360         5.59345
     2007.80561        -1.58820         5.45869
     2007.80835         0.54507         5.53584
     2007.81108         5.52233         5.53877
     2007.81382        11.96760         5.54365
     2007.81656         1.46287         5.63056
     2007.81930         2.42014         5.48799
     2007.82203         0.50341         5.47432
     2007.82477         2.70767         5.48310
     2007.82751         2.26494         5.54170
     2007.83025         4.58221         5.49775
     2007.83299         6.86548         5.69891
     2007.83572         3.32274         5.39424
     2007.83846        -0.10999         5.39229
     2007.84120         9.12527         5.44014
     2007.84400        -0.47849         5.55537
     2007.84674         1.17177         5.44795
     2007.84948         4.59704         5.46553
     2007.85221         7.78831         5.60614
     2007.85495        10.81258         5.66962
     2007.85769         6.61884         5.47627
     2007.86043         8.66411         5.44893
     2007.86316         8.86838         5.45381
     2007.86592         8.59164         5.64228
     2007.86864         4.72591         5.44111
     2007.87138         9.38618         5.58466
     2007.87412         9.05645         5.45381
     2007.87685        11.29372         5.52314
     2007.87959         7.44298         5.53095
     2007.88233         4.89725         5.45967
     2007.88507         5.01352         5.48310
     2007.88781        -3.70121         5.48896
     2007.89054        -1.35895         7.52010
     2007.89328        -3.65368         5.66278
     2007.89642        -0.27066         7.11485
     2007.89876         1.15686         5.57978
     2007.90149         1.44612         5.55830
     2007.90423         0.49839         5.61396
     2007.90697        -6.01334         5.56904
     2007.90971        -6.53507         5.64130
     2007.91245        -4.46281         5.56513
     2007.91518        -1.47354         5.62860
     2007.91792         4.41573         5.59345
     2007.92066         6.57600         5.90691
     2007.92340        -1.19174         5.70868
     2007.92614         2.64253         5.55439
     2007.92887         2.18980         5.57685
     2007.93161         0.74907         5.57490
     2007.93435        -4.85966         5.52021
     2007.93709        -6.02040         5.50654
     2007.93982        -8.31213         5.45576
     2007.94256        -4.69586         5.51045
     2007.94530        -4.57759         5.59443
     2007.94804        -8.73333         5.58466
     2007.95078        -9.93806         5.52119
     2007.95345        -3.79675         5.48018
     2007.95619        -3.60749         5.44795
     2007.95893        14.89778         5.57978
     2007.96167        -7.09595         5.58271
     2007.96530        11.02575        10.75431
     2007.96714         7.38658         5.59345
     2007.96988        -6.99715         5.61005
     2007.97262        -4.86088         5.47920
     2007.97535       -13.00461         5.57001
     2007.97809        -1.09535         5.56611
     2007.98083        -9.89008         5.49971
     2007.98357        -6.89481         5.38448
     2007.98631       -10.24854         5.53779
     2007.98904        -6.99428         5.52705
     2007.99178        -8.01301         5.58466
     2007.99452       -11.94574         5.61298
     2007.99726        -8.35947         5.51045
     2008.00051       -18.29353         7.03771
     2008.00273       -13.06394         5.48506
     2008.00547        -2.22467         5.22335
     2008.00821        11.75260         5.52314
     2008.01095         5.10087         5.44795
     2008.01368         8.83413         5.38448
     2008.01642         4.57740         5.31612
     2008.01916        -2.81533         5.32686
     2008.02190        -3.65806         5.35909
     2008.02464         1.08920         5.38838
     2008.02737        18.22247         5.39131
     2008.03011        -1.00826         5.44893
     2008.03285        -6.25599         5.39522
     2008.03559        -9.07773         5.41865
     2008.03833        -3.14646         5.52119
     2008.04106       -11.97619         5.47529
     2008.04380        -8.52192         5.47432
     2008.04654       -11.93466         5.52802
     2008.04928        -9.35039         5.45186
     2008.05201       -17.88712         5.38155
     2008.05475       -18.73185         5.42256
     2008.05749       -13.58259         5.36495
     2008.06023        -8.30232         5.57490
     2008.06297        -5.18905         5.40596
     2008.08504         4.03898         5.77801
     2008.08761         3.75836         5.39620
     2008.09034        14.91062         5.62568
     2008.09308        -5.59311         5.34737
     2008.09582        -9.28684         5.58271
     2008.09856         5.11543         5.57197
     2008.10130         3.40669         5.60712
     2008.10403        -3.64704         5.50361
     2008.10677        -2.91277         5.40694
     2008.10951        -2.91050         5.40596
     2008.11225        -8.00024         5.31905
     2008.11498       -10.04097         5.39327
     2008.11861        -4.23126         9.17334
     2008.12045        -7.15943         5.44600
     2008.12322        -7.53418         5.66669
     2008.12571       -12.21875         6.64222
     2008.12885        -1.05774         7.29062
     2008.13141        -8.41536         5.40401
     2008.13415        -1.82610         5.39815
     2008.13689        -3.77683         5.43037
     2008.13963        -2.90256         5.44697
     2008.14236        -3.10729         5.32198
     2008.14510        -0.58603         5.37764
     2008.14784        -3.08676         5.34542
     2008.15058       -10.22049         5.37178
     2008.15331       -11.06722         5.38057
     2008.15697        -3.64054         9.13037
     2008.15879        -3.22569         5.34932
     2008.16153        -6.55842         5.42158
     2008.16427         1.11985         5.35225
     2008.16700       -12.02089         5.35909
     2008.16974        -6.48562         5.29561
     2008.17248       -10.81435         5.27218
     2008.17522       -12.68108         5.44209
     2008.17796        -7.89282         5.28585
     2008.18069        -9.14455         5.34932
     2008.18343        -6.46128         5.30733
     2008.18611       -10.85898         5.40987
     2008.18891       -12.58574         5.20187
     2008.19164        -4.96048         5.43721
     2008.19438        -6.39321         5.23605
     2008.19712         0.36506         6.48696
     2008.19986         4.69733         5.31319
     2008.20140        23.06835        16.26964
     2008.20533        -3.26814         5.33760
     2008.20807        -8.02687         5.47334
     2008.21081        -6.52460         5.47725
     2008.21355         0.52066         5.78289
     2008.21629        -1.87307         5.36983
     2008.21902        -5.01580         5.62958
     2008.22176       -19.03253         5.40401
     2008.22450        -8.92227         5.36397
     2008.22724        -5.41700         5.40694
     2008.22997        -6.66173         5.43819
     2008.23271        -7.14746         5.43135
     2008.23545        -5.42520         7.55135
     2008.23819        -5.85293         5.37667
     2008.24093         0.65034         5.35811
     2008.24366        -9.77539         5.35421
     2008.24640        -2.75213         5.40010
     2008.24914        -4.99686         6.23697
     2008.25188        -4.07259         5.42940
     2008.25462        -4.99432         5.28390
     2008.25735        -4.52706         5.25851
     2008.26009         2.81421         5.26827
     2008.26283        -5.50052         5.33565
     2008.26557        -3.77525         5.34053
     2008.26830        -6.62099         5.26827
     2008.27104        -6.44972         5.34249
     2008.27378        -8.31545         5.16574
     2008.27652        -6.66318         5.38057
     2008.27926       -10.65692         5.41670
     2008.28199        -5.20565         5.37374
     2008.28473         1.50162         5.21749
     2008.28747         2.00989         5.27511
     2008.29021        -0.42585         5.36397
     2008.29295        -5.58358         5.41768
     2008.29568         1.78669         5.30147
     2008.29842        -4.45504         5.17648
     2008.30116        -1.58978         5.21066
     2008.30390        -4.06651         5.15695
     2008.30663        -3.73824         5.93913
     2008.30937        -6.64697         5.47236
     2008.31211        -4.97171         5.76532
     2008.31485        -5.82544         5.28780
     2008.31759       -12.29117         5.31124
     2008.32032        -9.16590         5.38643
     2008.32306        -6.48364         5.31417
     2008.32580         3.48163         5.79852
     2008.32854         0.65590         5.24581
     2008.33128        -7.98083         5.26046
     2008.33401        -4.11857         5.31319
     2008.33675        -5.30930         5.31222
     2008.33949        -2.00603         5.53681
     2008.34223        -6.28976         5.29171
     2008.34496        -5.25650         5.40010
     2008.34770        -0.33923         5.34737
     2008.35044         3.14204         5.39815
     2008.35318        -4.77069         5.27218
     2008.35592        -4.00243         5.24191
     2008.35865        -1.11816         5.29659
     2008.36139        -1.06089         5.74872
     2008.36413        -2.66462         5.25655
     2008.36687        -4.05036         5.24484
     2008.36961        -9.98309         5.38936
     2008.37234       -12.12682         5.31710
     2008.37508        -0.80155         7.37656
     2008.37782        -5.03628         5.36104
     2008.38056         2.04298         5.32686
     2008.38329        -2.44875         5.27218
     2008.38603         3.41652         5.29757
     2008.38877         2.48079         5.37569
     2008.39151        -9.38695         5.46650
     2008.39425        -4.11768         5.25655
     2008.39698        -3.95841         5.36299
     2008.39972         2.80786         5.31514
     2008.40246        -2.50788         5.89617
     2008.40520        -2.15861         5.40498
     2008.40794        -0.05134         5.30050
     2008.41067        -6.69507         5.36885
     2008.41341        -1.76381         5.30538
     2008.41615        -0.21954         5.34151
     2008.41889         0.31873         5.42256
     2008.42162        -2.49500         5.40010
     2008.42476         3.94601         8.24565
     2008.42710         0.74053         5.31807
     2008.42984        -1.37420         5.36299
     2008.43258         3.53107         5.43819
     2008.43531        -1.49067         5.40303
     2008.43805         0.53560         5.41475
     2008.44079        -2.60713         5.33272
     2008.44353        -4.84186         5.35518
     2008.44626        -5.80160         5.45088
     2008.44900         1.70067         5.42842
     2008.45174         0.83294         5.66083
     2008.45448        -5.74479         5.52509
     2008.45722         0.83647         5.46162
     2008.45995        -6.19326         5.37471
     2008.46269        -2.59799         5.85223
     2008.46543        -1.73972         5.33956
     2008.46817        -6.71246         5.36299
     2008.47091        -0.28919         5.50654
     2008.47364        -4.80192         5.47725
     2008.47638         0.51035         5.40694
     2008.47912        -1.08539         5.34151
     2008.48186         3.28988         5.44307
     2008.48459        -0.96085         5.55537
     2008.48733        -0.83458         5.43819
     2008.49007        -9.98332         5.35128
     2008.49281        -1.91905         5.43526
     2008.49555        -6.55878         5.46455
     2008.49828        -1.16051         5.63349
     2008.50102        -5.39425         5.69696
     2008.50376         1.28602         5.47529
     2008.50650         1.89929         5.54951
     2008.50924         0.97356         5.48506
     2008.51197        10.49982         5.55341
     2008.51471         0.73309         5.43623
     2008.51745        -1.06664         5.48994
     2008.52019         7.77263         5.42451
     2008.52273         3.55802         6.24576
     2008.52579         2.63608         5.92644
     2008.52840         3.91343         5.46650
     2008.53114         8.17570         5.51435
     2008.53388         2.96096         5.53681
     2008.53661        -0.73077         5.52802
     2008.53935        -2.12650         5.61689
     2008.54209         1.00177         5.56025
     2008.54483         5.79803         5.64130
     2008.54757         0.88230         5.57490
     2008.55030         5.20757         5.45967
     2008.55304         5.51484         5.48310
     2008.55578        12.49210         5.43135
     2008.55852         6.42337         5.53779
     2008.56125        -5.14036         5.47432
     2008.56399         3.81091         5.43135
     2008.56673         4.93118         5.40205
     2008.56947         7.74044         5.43428
     2008.57221         6.55771         5.48408
     2008.57494         2.03098         5.65009
     2008.57768         6.10225         5.57978
     2008.58042         5.78551         5.46553
     2008.58316        15.79078         5.56123
     2008.58590        12.71205         5.37471
     2008.58863         6.81532         5.59247
     2008.59137        -4.77042         6.39614
     2008.59411         0.89685         5.39815
     2008.59685         1.94712         5.48213
     2008.59958        10.10739         5.63544
     2008.60232        11.61665         5.69305
     2008.60506        15.10592         5.49580
     2008.60780         8.69119         5.45283
     2008.61054         3.15846         5.51435
     2008.61327         3.76972         5.50947
     2008.61601         3.48099         5.58076
     2008.61875        -2.07174         5.37374
     2008.62155         7.43149         5.51728
     2008.62423         5.97679         5.42158
     2008.62696        10.68906         5.40889
     2008.62970        17.65633         5.62470
     2008.63244        11.61260         5.53193
     2008.63518         6.74486         5.45088
     2008.63788        14.12416         5.80828
     2008.64065        10.68540         5.37178
     2008.64339         4.95467         5.43428
     2008.64613         9.74993         5.50556
     2008.64887         9.84820         5.55048
     2008.65160        18.60947         5.44600
     2008.65434         4.30474         5.43916
     2008.65708         4.84800         5.53877
     2008.65982         5.19527         5.50947
     2008.66256        16.66754         5.63251
     2008.66529         7.13481         5.47139
     2008.66803         4.55707         5.45381
     2008.67077         3.97934         5.45869
     2008.67351         6.55361         5.48310
     2008.67624        -0.74012         6.01140
     2008.67898         7.47814         5.44404
     2008.68172         3.84941         5.45479
     2008.68446         0.20268         5.44990
     2008.68720         2.57895         5.47041
     2008.68993         9.95321         5.53877
     2008.69267         5.54748         5.48310
     2008.69541         5.43475         5.43819
     2008.69815         7.17802         5.51240
     2008.70089         5.63728         5.41573
     2008.70362         3.96955         5.38741
     2008.70636         6.79982         5.39815
     2008.70910         2.95609         5.49189
     2008.71184         6.50735         5.56513
     2008.71450         5.80467         5.39522
     2008.71735         1.47287         5.36885
     2008.72005         6.00116         5.34249
     2008.72279         3.78842         5.39131
     2008.72553         5.69669         5.51045
     2008.72826         5.13496         5.40205
     2008.73100        10.43123         5.38155
     2008.73374        13.48349         5.60126
     2008.73648         6.38876         5.35616
     2008.73921         6.90103         5.41670
     2008.74469         4.06856         5.33272
     2008.74743         2.33483         5.41084
     2008.75017         4.12710         5.29952
     2008.75290         5.89337         5.36690
     2008.75564        12.60064         5.38252
     2008.75838        12.65890         5.37471
     2008.76112        10.97417         5.35616
     2008.76386         6.38144         5.36885
     2008.76659         0.43671         5.47725
     2008.76933         3.11897         5.45088
     2008.77207         5.80224         5.26534
     2008.77481         2.05651         5.29171
     2008.77754        -2.39422         5.30050
     2008.78028         4.05504         5.26730
     2008.78302        -1.14969         5.29854
     2008.78576        -4.47642         5.34639
     2008.78850         1.47785         5.35128
     2008.79123         4.94811         5.39912
     2008.79397        -1.44762         5.43526
     2008.79671         7.98465         5.44795
     2008.79945        -1.90408         5.38545
     2008.80219        10.05618         5.31807
     2008.80492         9.60945         5.37178
     2008.80766         1.23672         5.29854
     2008.81040         3.16299         5.36495
     2008.81314         6.14225         5.42940
     2008.81587         7.72452         5.30636
     2008.81861         1.14379         5.28585
     2008.82135        -1.11194         5.30440
     2008.82409        -2.33468         5.31417
     2008.82683         1.64359         5.41963
     2008.82956         2.42186         5.25851
     2008.83230         1.59413         5.40205
     2008.83504         0.22739         5.28878
     2008.83778         8.93566         5.54462
     2008.84052         6.32293         5.36592
     2008.84325        12.35420         5.31612
     2008.84599         6.21346         5.33272
     2008.84879         0.81470         5.50068
     2008.85147         2.02600         5.41963
     2008.85420         4.12727         5.36690
     2008.85694        11.00353         5.35713
     2008.85968         5.12880         5.37862
     2008.86242         6.87007         5.32686
     2008.86516         7.27634         5.37178
     2008.86789        14.16460         5.40791
     2008.87063         0.75387         5.42842
     2008.87337        -2.01686         5.35128
     2008.87606         4.64944         5.48701
     2008.87914        -3.71252         6.25162
     2008.88158         1.71594         5.37178
     2008.88432        -3.30079         5.32979
     2008.88706        -7.45952         5.45772
     2008.88980        -5.37826         5.65790
     2008.89253         4.75401         5.48213
     2008.89527        -2.23572         5.43819
     2008.89801         0.06255         5.46357
     2008.90075        -1.83019         5.35128
     2008.90326        -2.94477         5.78387
     2008.90724         8.33271        12.36360
     2008.90896         2.55262         5.44502
     2008.91170        -9.94412         5.30929
     2008.91444         6.39515         5.23702
     2008.91718         2.45842         5.34835
     2008.91991         6.56469         5.41182
     2008.92265        -4.92505         5.41084
     2008.92539        -1.54878         5.33272
     2008.92813         3.98749         5.29073
     2008.93086        -4.13824         5.37569
     2008.93360        -1.96998         5.38936
     2008.93634        -0.61071         5.44209
     2008.93908        -6.38544         5.36592
     2008.94182        -9.06617         5.29464
     2008.94455        -8.73390         5.37959
     2008.94729        -4.06164         5.30636
     2008.95003        10.99863         5.35030
     2008.95277        -1.84710         5.35909
     2008.95551       -11.64983         5.30050
     2008.95824       -17.29757         5.30343
     2008.96098       -11.26230         5.29269
     2008.96372        -8.80003         5.25362
     2008.96646        -6.19676         5.41182
     2008.96919       -11.97450         5.27999
     2008.97193        -6.85523         5.34053
     2008.97467        -2.74896         5.28976
     2008.97741         1.29231         5.27120
     2008.98015        -0.04643         5.25362
     2008.98288         8.19784         5.29561
     2008.98538         5.21126         6.06803
     2008.98931        -8.97823        10.74845
     2008.99384       -13.53309         5.43233
     2008.99657       -10.84582         5.33077
     2008.99905        -2.07839         6.08756
     2009.07702        -9.60572        10.20648
     2009.07825        -9.27650         6.69105
     2009.08713        -7.46013         5.58954
     2009.08966       -13.30073         5.25558
     2009.09240       -14.34946         5.30929
     2009.09514        -9.96219         5.27999
     2009.09787        -4.51992         5.36202
     2009.10061         3.07634         5.30636
     2009.10335       -10.43539         5.24288
     2009.10609        -3.42412         5.27608
     2009.10882        -0.63385         5.29171
     2009.11156        -4.71259         5.25362
     2009.11430        -4.72932         5.36397
     2009.11704        -6.63105         5.38350
     2009.11978        -3.66378         5.27901
     2009.12251        -3.97852         5.37764
     2009.12525        -5.87325         5.25362
     2009.12799        -0.89098         5.38252
     2009.13074        -1.88772         5.51045
     2009.13347        -6.93344         5.26046
     2009.13620       -11.64518         5.39034
     2009.13894       -11.01191         5.28390
     2009.14168       -12.97764         5.31710
     2009.14442        -9.24637         5.32296
     2009.14715       -11.37311         5.39034
     2009.14989        -5.92284         5.48213
     2009.15263        -0.83157         5.38448
     2009.15537         1.01270         5.43135
     2009.15811        -9.71904         5.40889
     2009.16084       -10.93977         5.49385
     2009.16632        -7.67923         5.48018
     2009.16906        -2.36197         5.47627
     2009.17180        -6.04570         5.33956
     2009.17453        -5.63543         5.29269
     2009.17727        -1.95416         5.62275
     2009.18001        -7.11490         6.43716
     2009.18280       -12.06367         5.43135
     2009.18548       -10.38036         5.30538
     2009.18822       -14.02909         5.33175
     2009.19096       -11.52083         5.33858
     2009.19370       -10.91856         5.32686
     2009.19644       -10.91729         5.31905
     2009.19917        -2.48802         5.34346
     2009.20175        -6.50365         5.67938
     2009.20472        -9.03953         5.51240
     2009.20739        -6.05622         5.35811
     2009.21013        -9.53995         5.32784
     2009.21286        -5.82869         5.31905
     2009.21560        -3.11442         5.40205
     2009.21834        -3.51615         5.31514
     2009.22108         0.45012         5.44404
     2009.22381        -7.96962         5.26144
     2009.22655        -8.63135         5.28390
     2009.22929        -8.10508         5.34151
     2009.23203        -4.66481         5.41084
     2009.23477        -2.37855         6.27701
     2009.23750        -3.70128         5.30440
     2009.24024         5.82499         5.51924
     2009.24298        -3.32074         5.33370
     2009.24572        -1.47548         5.37276
     2009.24846         1.74979         5.34053
     2009.25119         2.16106         5.53095
     2009.25393         5.30733         5.52705
     2009.25667        -4.82641         5.35225
     2009.25941        -8.09314         5.38936
     2009.26214        -6.32487         5.33760
     2009.26488        -5.15660         5.32979
     2009.26762         3.12866         5.36788
     2009.27036         0.33693         5.40108
     2009.27310        -5.44080         5.42158
     2009.27583        -2.03253         5.37959
     2009.27857        -8.42327         5.33858
     2009.28131        -9.34000         5.38057
     2009.28405        -6.88373         5.37178
     2009.28679        -1.64646         5.32100
     2009.28952       -10.13820         5.31124
     2009.29226       -10.81993         5.38936
     2009.29500       -14.62766         5.37667
     2009.29774        -7.64939         5.41280
     2009.30047        -8.79913         5.40498
     2009.30321        -3.10986         5.31124
     2009.30595        -3.66459         5.29659
     2009.30869         1.56868         5.35518
     2009.31143        -3.10906         5.33370
     2009.31416        -0.36379         5.35421
     2009.31690        -6.95752         5.31710
     2009.31964        -5.68225         5.27218
     2009.32238        -1.73398         5.34835
     2009.32512        -7.47472         5.39815
     2009.32785        -3.94445         5.41475
     2009.33059        -5.34818         5.30440
     2009.33333         1.13609         5.27901
     2009.33607        -2.15065         5.31417
     2009.33880        -1.53238         5.31417
     2009.34154        -1.81511         5.40694
     2009.34428        -0.08084         5.35323
     2009.34702        -4.07058         5.35421
     2009.34976        -9.29031         5.27804
     2009.35249       -10.38104         5.33272
     2009.35523       -11.03177         5.31417
     2009.35797        -1.73951         5.38155
     2009.36071         1.41976         5.44795
     2009.36344        -5.47097         5.43623
     2009.36618        -1.60370         5.32296
     2009.36892        -6.36144         5.32296
     2009.37166        -3.71817         5.36299
     2009.37440       -10.21990         5.33858
     2009.37713        -7.63963         5.35225
     2009.37987         2.45963         5.66571
     2009.38261        -1.24710         5.35323
     2009.38535        -5.97683         5.30147
     2009.38809        -8.45256         5.33272
     2009.39082       -11.25130         5.38545
     2009.39356        -9.39203         5.43916
     2009.39630        -6.20376         5.38252
     2009.39904        -2.57149         5.29757
     2009.40177        -0.49223         5.33663
     2009.40451        -2.28796         5.39815
     2009.40725        -0.57869         5.36495
     2009.40999         5.39958         5.51826
     2009.41273         1.33284         5.34053
     2009.41546         2.65111         5.42061
     2009.41820        -3.73762         5.38838
     2009.42094        -7.43435         5.36006
     2009.42368        -2.16409         5.36592
     2009.42642        -2.05482         5.45772
     2009.42915         2.52445         5.52119
     2009.43189        -2.41228         5.34053
     2009.43463        -3.89302         5.38741
     2009.43737         1.16325         5.35909
     2009.44010         0.41352         5.33956
     2009.44284        -1.86521         5.34444
     2009.44558        -4.31895         5.36006
     2009.44832        -1.85468         5.36006
     2009.45106        -4.68741         5.49971
     2009.45379         0.78186         5.50556
     2009.45653         3.40812         5.41963
     2009.45927         7.37339         5.37471
     2009.46184         6.64677         5.84246
     2009.46560         2.95939        10.55315
     2009.46748        -0.75181         5.55830
     2009.47022         1.62446         5.31710
     2009.47296         0.03873         5.31807
     2009.47570        -1.76000         5.32198
     2009.47843         0.20626         5.36690
     2009.48117         2.47553         5.57978
     2009.48391         1.91280         5.39327
     2009.48665        -0.74293         5.37959
     2009.48939         0.67833         5.47236
     2009.49212         3.21460         5.47139
     2009.49486        -2.02113         5.45967
     2009.49760        -3.52486         5.44404
     2009.50034        -2.76460         5.52802
     2009.50308       -10.58833         5.35811
     2009.50581        -1.21806         5.36690
     2009.50855         0.86121         5.40498
     2009.51129         8.27148         5.72919
     2009.51403         8.58074         5.38936
     2009.51676         5.62501         5.34835
     2009.51950        -3.26772         5.34737
     2009.52224        -4.51445         5.40108
     2009.52498        -1.11219         5.29757
     2009.52772        -1.15892         5.34639
     2009.53045        -2.08565         5.57392
     2009.53319        -2.75538         5.36006
     2009.53593         1.13088         5.42842
     2009.53867        -7.41085         5.43037
     2009.54141         6.27842         5.36690
     2009.54414         4.14969         5.38057
     2009.54688         7.12995         5.42549
     2009.54962        -8.16378         5.45283
     2009.55236        -5.88051         5.41475
     2009.55509         4.80876         5.31026
     2009.55783         5.42102         5.42158
     2009.56057         8.91129         5.65595
     2009.56331         7.95156         7.17247
     2009.56605        -0.83717         5.64618
     2009.56878        -2.27291         5.57001
     2009.57152         9.61136         5.68524
     2009.57426         5.27963         5.58661
     2009.57700         2.41690         5.47139
     2009.57974         2.28116         5.50166
     2009.58247         3.97943         5.50752
     2009.58521         8.62670         5.42940
     2009.58795         3.71197         5.39424
     2009.59069         6.57123         5.51142
     2009.59342        -0.77650         5.73016
     2009.59616        13.05577         5.52119
     2009.59890        15.84204         5.47432
     2009.60164         4.05330         5.41963
     2009.60438         3.79157         5.45674
     2009.60711         6.85184         5.51924
     2009.60985         4.86411         5.53681
     2009.61259         8.44137         5.53486
     2009.61533        15.74464         5.67450
     2009.61807         0.37191         5.54365
     2009.62080         6.14118         5.50947
     2009.62354         2.28344         5.49775
     2009.62628        -0.67929         5.51728
     2009.62902        15.09098         5.50752
     2009.63175         0.41025         5.54170
     2009.63449         0.61551         5.51924
     2009.63723        17.35878         5.89324
     2009.63997         7.19405         5.72333
     2009.64271         2.82232         5.58954
     2009.64544         5.92958         5.57197
     2009.64818         5.61285         5.58759
     2009.65092         6.93712         5.67255
     2009.65366         0.88839         5.57392
     2009.65639         1.29865         5.56123
     2009.65913         5.27792         5.50263
     2009.66187         6.57119         5.56904
     2009.66461         5.74146         5.49385
     2009.66735        10.09872         5.62860
     2009.67008         9.07899         5.80633
     2009.67282         2.84526         5.75750
     2009.67556         0.16253         5.53974
     2009.67830        12.19379         5.84734
     2009.68104         8.83606         5.69110
     2009.68377        -3.04967         5.49971
     2009.68651         9.17260         5.51924
     2009.68925         4.99386         5.54267
     2009.69199        -2.25487         5.50459
     2009.69472         1.35540         5.52119
     2009.69746         0.88067         5.48408
     2009.70020         9.97694         5.61396
     2009.70294        12.01820         5.48799
     2009.70568         1.32447         5.51631
     2009.70841        -3.42526         5.46650
     2009.71115         4.23801         5.75360
     2009.71389         2.44527         5.72333
     2009.71663        12.17254         5.65106
     2009.71937         2.79281         5.60517
     2009.72210        -3.05392         5.46162
     2009.72484        -6.15266         5.74383
     2009.72758        -4.64539         5.56806
     2009.73032         1.99388         5.46650
     2009.73305         4.01715         5.57587
     2009.73579         6.76041         5.58759
     2009.73853         5.48068         5.60126
     2009.74127         6.72495         5.59052
     2009.74401         7.71722         5.69891
     2009.74674         5.55148         5.49873
     2009.74948         3.05975         5.44502
     2009.75222         2.62502         5.45479
     2009.75496         2.42729         5.54755
     2009.75770        -0.50445         5.59443
     2009.76043         5.39982         5.49873
     2009.76317         7.68809         5.47529
     2009.76591         2.87936         5.51142
     2009.76865         2.31262         5.56318
     2009.77138         0.35789         5.51240
     2009.77412         5.28416         5.65009
     2009.77686         4.85143         5.48408
     2009.77960         5.46569         5.43330
     2009.78234         9.58596         5.51142
     2009.78507        10.08523         5.48115
     2009.78781         5.24950         5.61884
     2009.79055        -0.50524         5.59931
     2009.79319         8.38509         9.74167
     2009.81908         3.05271        17.60941
     2009.82067         9.26571         5.61982
     2009.82340         8.45997         5.54853
     2009.82614         9.90124         5.57978
     2009.82888         9.18651         5.68524
     2009.83162        16.26578         5.74188
     2009.83436         0.97704         5.60712
     2009.83709         1.59931         5.61689
     2009.83983         1.55658         5.54365
     2009.84257         3.77385         5.59247
     2009.84531         5.79911         5.68915
     2009.84809        13.87335         5.85223
     2009.85078        10.73765         5.61298
     2009.85352         9.99592         5.59345
     2009.85626         0.72218         5.63739
     2009.85900         1.90345         5.78778
     2009.86173         0.27472         5.65692
     2009.86447         6.52499         5.92351
     2009.86721        10.16925         5.76825
     2009.86995         2.06752         5.54365
     2009.87269         6.36879         5.58661
     2009.87542         5.31606         5.66962
     2009.87816         5.54032         5.69305
     2009.88090         8.56859         5.68036
     2009.88364         5.96186         5.49971
     2009.88615         7.01427         5.95281
     2009.88911        12.87540         5.41377
     2009.89185         4.57866         5.62372
     2009.89459         5.18193         5.57880
     2009.89733        -0.64980         5.51435
     2009.90006        -4.05053         5.45283
     2009.90280         1.57973         5.46455
     2009.90554         3.62200         5.51924
     2009.90828        -3.19673         5.50068
     2009.91102        -0.67846         5.54951
     2009.91375        -0.78820         5.37667
     2009.91649        -2.51393         5.44990
     2009.91923        -5.61566         5.43526
     2009.92197        -6.86039         5.45576
     2009.92470        -5.32313         5.48310
     2009.92744        -2.67186         5.36788
     2009.93018        -8.10759         5.35713
     2009.93292        -2.45932         5.41865
     2009.93566        -2.60706         5.65692
     2009.93839        -0.31179         7.91559
     2009.94113         2.75848         5.36397
     2009.94387        -0.55325         5.45186
     2009.94661         1.85501         5.45479
     2009.94935         1.91828         5.35323
     2009.95208        -4.16945         5.43428
     2009.95482       -13.35818         5.42354
     2009.96030        19.55235         5.41768
     2009.96303        -3.37938         5.45381
     2009.96577        -7.27611         5.48896
     2009.96851        -7.13185         5.56611
     2009.97125         0.90742         5.46553
     2009.97399         0.38469         5.47432
     2009.97672        -5.03504         5.34639
     2009.97946        -8.30778         5.37959
     2009.98220        -6.62551         5.37374
     2009.98494        -9.20124         5.42549
     2009.98767        -7.42097         5.35713
     2009.99041        -5.31171         5.32686
     2009.99315        -3.16744         5.35128
     2009.99589        -2.27417         5.37667
     2009.99863       -13.54290         5.37081
     2010.00410        -4.88437         5.33370
     2010.00684        -9.55310         5.35421
     2010.00958        -8.13783         5.34249
     2010.01232        -8.28757         5.34346
     2010.01505        -8.96930         5.33565
     2010.01779        -7.88703         5.36592
     2010.02053        -6.07376         5.36690
     2010.02327        -6.62950         5.39522
     2010.02600        -6.34723         5.38643
     2010.02874        -0.20996         5.40791
     2010.03148         1.10931         5.35909
     2010.03422        -4.29943         5.61982
     2010.03696        -6.69716         5.69403
     2010.03969        -0.05889         5.51728
     2010.04243         5.49938         5.36397
     2010.04517         6.27764         5.35713
     2010.04791         7.64691         5.36299
     2010.05065         4.55718         5.47236
     2010.05338         3.66645         5.50849
     2010.05612         9.52371         5.39815
     2010.05886         9.32498         5.30636
     2010.06160         3.86325         5.29561
     2010.06433        -2.82848         5.29952
     2010.06707        -4.07822         5.31514
     2010.06981        -7.40995         5.44502
     2010.07255        -4.65768         5.45967
     2010.07529        -4.10941         5.43428
     2010.07802        -3.20014         5.38545
     2010.08076        -2.32688         5.31124
     2010.08316        -1.85039         6.43032
     2010.08578        -2.46205         6.91174
     2010.08852         2.32421         7.23399
     2010.09126        -3.35452         6.90686
     2010.09399         3.43775         6.87073
     2010.09673        -2.71498         6.88830
     2010.09947        -9.70272         6.93225
     2010.10221        -5.22745         7.06505
     2010.10495        -3.16618         6.99474
     2010.10768        -4.05491         6.94885
     2010.11042        -5.97365         7.16563
     2010.11316        -7.35338         6.87854
     2010.11590        -5.16511         6.94299
     2010.11864         0.00816         6.89221
     2010.12137        -5.55958         6.89026
     2010.12411        -2.17731         6.82092
     2010.12685        -5.37404         7.06505
     2010.12959        -6.89177         7.08165
     2010.13232       -10.50351         7.04845
     2010.13506        -8.86124         7.07872
     2010.13780        -3.87797         6.93029
     2010.14054        -4.87570         6.89123
     2010.14328        -2.84244         7.00646
     2010.14601        -7.67417         7.02599
     2010.14875        -2.86890         6.91857
     2010.15149        -4.35463         6.81409
     2010.15423        -1.61437         6.84338
     2010.15697         0.49790         6.86584
     2010.15970         1.40117         6.76233
     2010.16244        -1.24556         6.80530
     2010.16518        -2.40730         6.81116
     2010.16792        -5.16003         6.78675
     2010.17065        -2.96576         6.73108
     2010.17339        -4.49649         6.71741
     2010.17613        -3.88822         6.68812
     2010.17887         3.04704         6.68031
     2010.18161         3.85131         6.70667
     2010.18434         0.97158         6.65980
     2010.18708         1.54885         6.64515
     2010.18982        -0.46189         6.63050
     2010.19256         3.11238         6.74573
     2010.19530        -1.47435         6.67347
     2010.19809        -4.66212         6.41958
     2010.20083        -8.22585         6.45278
     2010.20357        -6.79659         6.53285
     2010.20630        -1.55732         6.55727
     2010.20904        -5.24305         6.52992
     2010.21178        -6.85478         6.39321
     2010.21452        -8.13152         6.39809
     2010.21726        -1.24925         6.42934
     2010.21999        -3.44098         6.51137
     2010.22273       -13.82971         6.36392
     2010.22547        -8.83445         6.39809
     2010.22821         2.03382         6.36196
     2010.23094        -1.43091         6.45473
     2010.23368       -11.29564         6.50844
     2010.23916         2.88889         6.47524
     2010.24190         0.34516         6.76429
     2010.24463         0.21743         6.43618
     2010.24737        -2.87631         6.49868
     2010.25011        -1.67504         6.68226
     2010.25285         4.89823         6.46254
     2010.25559         3.73050         6.46254
     2010.25832         5.39577         6.46157
     2010.26106         1.58703         6.60219
     2010.26380        -7.67670         6.70862
     2010.26654         3.77157         6.48598
     2010.26927         2.83284         6.60121
     2010.27201        -3.35890         6.51723
     2010.27475        -3.73263         6.45766
     2010.27749         1.25964         6.67738
     2010.28023         1.86791         6.37856
     2010.28296        -4.79983         6.31216
     2010.28570        -4.67756         6.30142
     2010.28844        -4.23029         6.30044
     2010.29118        -2.02602         6.35806
     2010.29391         2.18624         6.33169
     2010.29665        -0.47549         6.27896
     2010.29939         2.71778         6.35610
     2010.30213         6.30105         6.37466
     2010.30487         5.97031         6.31607
     2010.30760         8.10558         6.51137
     2010.31034         2.46485         6.31802
     2010.31308         3.55412         6.24185
     2010.31582         0.00938         6.27701
     2010.31856         4.87765         6.48403
     2010.32129         5.91692         6.43325
     2010.32403         5.36619         6.34829
     2010.32677         2.90745         6.22330
     2010.32951         2.37772         6.25748
     2010.33224        -0.02101         6.22818
     2010.33498         4.84926         6.61195
     2010.33772         1.32152         6.29751
     2010.34046        -5.11021         6.18229
     2010.34320        -2.75694         6.18033
     2010.34593        -5.66267         6.27994
     2010.34867        -3.55541         6.24771
     2010.35141        -4.17514         6.25748
     2010.35415        -3.79187         6.22721
     2010.35728        -4.28686         5.38252
     2010.36002        -2.16959         5.38155
     2010.36276        -0.45032         5.29366
     2010.36550        -2.37005         5.56220
     2010.36824        -1.77079         5.53877
     2010.37097         1.94048         5.31514
     2010.37371         4.10175         5.31417
     2010.37645        10.43902         5.37374
     2010.37919         4.00928         5.55830
     2010.38193         6.19655         5.63935
     2010.38466         4.81482         5.41865
     2010.38740         5.74409         5.34932
     2010.39014         0.62235         5.37471
     2010.39288        -0.35838         5.39424
     2010.39561        -3.67511         5.36788
     2010.39835        -0.01684         5.28780
     2010.40109         3.04542         5.28976
     2010.40383        -1.61831         5.24288
     2010.40657         1.07996         5.29464
     2010.40930         1.32823         5.29854
     2010.41204        -0.86651         5.28487
     2010.41478         2.26076         5.31807
     2010.41752         4.47903         5.30050
     2010.42026         8.19630         5.41084
     2010.42299         5.36356         5.24972
     2010.42573        -5.71817         5.30636
     2010.42847        -3.62190         5.33858
     2010.43121        -1.72963         5.36690
     2010.43394        -2.09837         5.29269
     2010.43668        -4.57910         5.43721
     2010.43942         0.22417         5.30733
     2010.44216        -6.01556         5.25460
     2010.44490       -10.90930         5.26437
     2010.44763        -2.26303         5.29757
     2010.45037         2.39424         5.33175
     2010.45311        -0.07849         5.29269
     2010.45585        -2.14022         5.27901
     2010.45859        -1.45996         5.35518
     2010.46132        -2.99169         5.36983
     2010.46406        -8.77842         5.31124
     2010.46680         1.98485         5.30440
     2010.46954        -1.14289         5.33077
     2010.47227        -6.33262         5.27511
     2010.47501        -5.60435         5.29073
     2010.47775         0.33892         5.57978
     2010.48049         3.23518         5.50068
     2010.48323         5.27045         5.23507
     2010.48596         6.56272         5.27706
     2010.48870        -0.63601         5.30440
     2010.49144        -0.43675         5.45967
     2010.49418         2.52552         5.26632
     2010.49692         1.28379         5.26339
     2010.49965        -0.22794         5.25753
     2010.50239         2.44432         5.33272
     2010.50513         2.27859         5.29171
     2010.50787         4.12586         5.36397
     2010.51060        -7.23787         5.21749
     2010.51334        -1.17661         5.21847
     2010.51608        -5.69434         5.24581
     2010.51882         4.57693         5.36104
     2010.52156        -0.73180         5.48018
     2010.52429         6.84646         5.35616
     2010.52703        13.00973         5.47725
     2010.52977         5.56600         5.24679
     2010.53251        -3.86573         5.26925
     2010.53525         2.57753         5.32589
     2010.53798         0.66180         5.36299
     2010.54072         0.42007         5.28683
     2010.54346        -0.75366         5.29366
     2010.54620         2.05560         5.31807
     2010.54893         6.08887         5.32100
     2010.55167        -1.76386         5.37764
     2010.55441        10.44141         5.39131
     2010.55715         0.74067         5.38155
     2010.55989        -1.54306         5.31124
     2010.56262         3.97421         5.30050
     2010.56536         1.23048         5.36104
     2010.56810        -2.32226         5.37178
     2010.57084         0.63901         5.34151
     2010.57357         8.09528         5.74286
     2010.57631         2.91855         5.42061
     2010.57905         3.42281         5.33858
     2010.58179         2.81908         5.29561
     2010.58453         0.85435         5.27413
     2010.58726        -0.68438         5.46553
     2010.59000         2.90688         5.49971
     2010.59274         6.01515         5.32198
     2010.59548        12.95842         5.38350
     2010.59822         8.72669         5.32393
     2010.60095         9.44595         5.43135
     2010.60369         6.48122         5.34639
     2010.60643         6.45749         5.32979
     2010.60917         7.55076         5.30343
     2010.61190         8.98302         5.28780
     2010.61464        15.02629         5.52412
     2010.61738         2.77656         5.29464
     2010.62012         5.03083         5.34151
     2010.62286        -0.34191         5.28097
     2010.62559         6.51836         5.28292
     2010.62833         8.52063         5.36397
     2010.63107        10.53090         5.40401
     2010.63381        10.60616         5.36006
     2010.63655        12.42443         5.33663
     2010.63928         9.08470         5.31124
     2010.64202         5.42297         5.37276
     2010.64476        -0.90376         5.41182
     2010.64750         2.08050         5.33272
     2010.65023         5.05377         5.55927
     2010.65297         5.45804         5.55732
     2010.65571         5.03631         5.20968
     2010.65845         7.38757         5.20089
     2010.66119         4.42284         5.29366
     2010.66392        10.55411         5.32198
     2010.66666         3.73938         5.27804
     2010.66940         1.42564         5.20578
     2010.67214         3.59691         5.24093
     2010.67488         9.23518         5.38448
     2010.67761         7.71745         5.30147
     2010.68035         2.97471         5.23605
     2010.68309        10.03698         5.20285
     2010.68583         6.75825         5.22238
     2010.68846         3.99358         5.40010
     2010.69130         7.45378         5.37959
     2010.69404         1.50305         5.37569
     2010.69678         2.03232         5.21163
     2010.69952         4.09259         5.21163
     2010.70225         3.55885         5.30538
     2010.70499         6.77812         5.29464
     2010.70773        12.81039         5.32589
     2010.71047         7.07266         5.30733
     2010.71321         8.17992         5.24484
     2010.71594         9.36219         5.34346
     2010.71868         9.65146         5.41670
     2010.72142        10.86673         5.60614
     2010.72416         3.65599         5.43428
     2010.72689         8.63526         5.36202
     2010.72963        -1.11247         5.29757
     2010.73237         1.66780         5.30929
     2010.73511         5.35306         5.90593
     2010.73785         5.52933         5.48701
     2010.74058        11.92360         5.46846
     2010.74332         3.36887         5.32003
     2010.74606         5.68213         5.34151
     2010.74880         5.81440         5.38936
     2010.75154         8.69867         5.28194
     2010.75427        13.55594         5.44893
     2010.75701         5.12320         5.42061
     2010.75975         5.53347         5.32296
     2010.76249         4.53874         5.29269
     2010.76522         9.53501         5.35713
     2010.76796         9.48027         5.30147
     2010.77070         8.02454         5.40889
     2010.77344         5.52781         5.33468
     2010.77618        -1.08992         5.46846
     2010.77891         2.52734         5.33272
     2010.78165         2.36061         5.45772
     2010.78439         5.75488         5.49189
     2010.78713        15.19315         5.62275
     2010.78987         9.53241         5.26144
     2010.79260         6.39568         5.26241
     2010.79534         0.87195         5.34639
     2010.79808         6.66922         5.40498
     2010.80082         3.60048         5.37471
     2010.80355         8.78375         5.36202
     2010.80629         9.10402         5.28194
     2010.80903         7.43729         5.31417
     2010.81177        12.12555         5.44111
     2010.81451        11.80682         5.33468
     2010.81724         9.66709         5.35128
     2010.81998         5.40736         5.23019
     2010.82272        -0.81138         5.36495
     2010.82546         1.65889         5.27608
     2010.82820         6.00716         5.27999
     2010.83093         3.57143         5.47920
     2010.83367         0.34470         5.52314
     2010.83641        -0.95004         5.33175
     2010.83915        -3.36677         5.29464
     2010.84188        -3.18550         5.27315
     2010.84462         5.08177         5.29464
     2010.84736         8.64803         5.32100
     2010.85010         9.03930         5.30831
     2010.85284         8.23557         5.27999
     2010.85557         4.33684         5.22238
     2010.85831         5.72710         5.27706
     2010.86105        -0.30663         5.27901
     2010.86379        -4.66536         5.24191
     2010.86653        -5.62609         5.28292
     2010.86926        -3.10083         5.24679
     2010.87200        -0.68656         5.24093
     2010.87474         7.96971         5.37959
     2010.87748        -1.17102         5.37374
     2010.88021         6.91624         5.27120
     2010.88295         3.19251         5.25655
     2010.88569         1.81678         5.26339
     2010.88843        -0.80395         5.46455
     2010.89117        -0.18369         5.49287
     2010.89390        -4.52042         5.22042
     2010.89664        -7.74315         5.23507
     2010.89938        -3.19388         5.23898
     2010.90212        -4.08862         5.25070
     2010.90485       -14.86535         5.24386
     2010.90759       -11.41508         5.27901
     2010.91033        -4.30581         5.28194
     2010.91307       -14.09955         5.17746
     2010.91581       -12.52828         5.22531
     2010.91854        -0.82701         5.25167
     2010.92402         7.60352         5.41084
     2010.92676        22.69579         5.41573
     2010.92950        15.31206         5.39912
     2010.93223         6.04033         5.41670
     2010.93497        12.38559         5.50166
     2010.94045        -9.58787         5.39034
     2010.94243        -0.21013         7.90583
     2010.94908        -0.52434        32.85176
     2010.95145        28.14517        88.40249
     2010.95414       -14.87253        11.27772
     2010.95687        -4.29827         5.38057
     2010.95961        -6.38800         5.47725
     2010.96235        -5.84173         5.34444
     2010.96509        -0.96546         5.27218
     2010.96783        -0.61720         5.28097
     2010.97056        -5.43793         5.32491
     2010.97330        -2.38166         5.27218
     2010.97604        -1.66739         5.26925
     2010.97878        -4.43413         5.29464
     2010.98151        -0.56586         5.31124
     2010.98421        -1.58756         5.49189
     2010.98746        -2.18062         7.52206
     2010.98877        -0.79245        12.59991
     2011.00711        -4.30205         9.81197
     2011.00892         2.75280         5.41865
     2011.01084         4.59259         8.14312
     2011.02912       -40.08698        13.65649
     2011.03080       -16.90604         5.46650
     2011.03353       -31.18777         5.45772
     2011.03627       -11.42151         5.44600
     2011.03901        -8.56624         5.49092
     2011.04175        -8.19898         5.73211
     2011.04449        -8.68270         5.50947
     2011.04683       -11.98219         6.96642
     2011.04996       -12.19217         5.48799
     2011.05270       -16.24290         5.36299
     2011.05544       -31.79563         5.40596
     2011.06092        -2.41810         5.48018
     2011.06365       -13.59483         5.41963
     2011.06639        -9.14356         5.34542
     2011.06913       -20.98130         5.72723
     2011.07186       -17.96203         5.54462
     2011.07460       -20.23276         5.61396
     2011.07734       -22.21349         5.46162
     2011.08008       -20.86723         5.54560
     2011.08282       -20.02796         5.42158
     2011.08555       -17.78669         5.64032
     2011.08829       -17.58342         5.49092
     2011.09103       -15.37816         5.49092
     2011.09377        -9.10789         5.45088
     2011.09650       -11.72262         5.44307
     2011.09927       -10.70537         5.46357
     2011.10198       -27.83409         5.57978
     2011.10472       -12.28182         5.52998
     2011.10746       -12.61755         5.45674
     2011.11019        -6.91728         5.44014
     2011.11293        -7.44902         5.41670
     2011.11567       -14.98675         5.66083
     2011.11841        -7.58048         5.51924
     2011.12115        -7.45821         5.53584
     2011.12388       -20.74895         5.64130
     2011.12662       -18.63168         5.68720
     2011.12936       -10.00341         5.40303
     2011.13210       -22.17114         5.41768
     2011.13483       -13.22188         5.42451
     2011.13757        -8.19361         5.33858
     2011.14031        -6.41134         5.38252
     2011.14305       -14.61407         5.47432
     2011.14579       -14.71381         5.45576
     2011.14852       -19.38454         5.45381
     2011.15126       -12.20527         5.37081
     2011.15400        -8.02500         5.55732
     2011.15674        -7.60074         5.33663
     2011.15948       -14.89147         5.58369
     2011.16221       -16.31020         5.55341
     2011.16495       -23.45593         5.42256
     2011.16769       -14.00467         5.40108
     2011.17043       -21.22540         5.37569
     2011.17316       -24.52313         5.31905
     2011.17591       -17.78087         5.33468
     2011.17864        -6.66660         5.40303
     2011.18138       -17.46133         5.30636
     2011.18412       -26.45506         5.32198
     2011.18685       -11.07879         5.33370
     2011.18959        -7.97353         5.41084
     2011.19233       -11.38826         5.38545
     2011.19507        -9.66599         5.47725
     2011.19780       -13.33572         5.76727
     2011.20054       -16.85246         5.43428
     2011.20328        -6.22219         5.62763
     2011.20602        -7.70292         5.54365
     2011.20876       -13.19865         5.50263
     2011.21149       -17.32138         5.46260
     2011.21423       -12.29512         5.48115
     2011.21697       -11.34885         5.51631
     2011.21971       -15.25658         5.53584
     2011.22245       -12.44631         5.53291
     2011.22518        -7.44505         5.43623
     2011.22792       -11.73178         5.37374
     2011.23066       -11.28051         5.33858
     2011.23340       -14.02624         5.42256
     2011.23613       -16.32298         5.33272
     2011.23887       -18.73071         5.34737
     2011.24161       -19.57044         5.44209
     2011.24435       -10.99017         5.39815
     2011.24709       -11.03791         5.40401
     2011.24982       -10.70364         5.43233
     2011.25257       -14.41637         5.35421
     2011.25530       -16.12910         5.33760
     2011.25804        -8.01884         5.59443
     2011.26078       -14.69357         5.46943
     2011.26351        -8.91530         5.35811
     2011.26625       -15.47503         5.32003
     2011.26899        -8.49577         5.38741
     2011.27173        -9.78550         5.44307
     2011.27446        -8.18723         5.62568
     2011.27720       -15.08296         5.61786
     2011.27994        -9.96770         5.38057
     2011.28268       -12.42043         5.34346
     2011.28502       -22.47591         6.34536
     2011.28815       -23.58589         5.39717
     2011.29090        -8.49063         5.39912
     2011.29911       -10.39982         5.40987
     2011.30184       -13.33256         5.64521
     2011.30458       -16.39829         5.26730
     2011.30732        -8.68602         5.29854
     2011.31006        -2.67575         5.32589
     2011.31279        -8.68649         5.37569
     2011.31553       -22.68422         5.44697
     2011.31827       -16.17395         5.37471
     2011.32101        -7.86468         5.39620
     2011.32375       -16.89942         5.39620
     2011.32648       -23.05115         5.52705
     2011.32923       -25.79688         5.33858
     2011.33196       -14.86961         5.36202
     2011.33470       -20.93635         5.46162
     2011.33744       -21.49408         5.44014
     2011.34017       -14.17981         5.54951
     2011.34291       -16.75954         5.54951
     2011.34565       -10.31028         5.44111
     2011.34839       -15.83801         5.52607
     2011.35112       -15.49274         5.45772
     2011.35386       -19.36847         5.48310
     2011.35660       -20.57821         5.35421
     2011.35934       -13.90194         5.44600
     2011.36208       -29.27467         5.58954
     2011.36481        -4.34240         5.49971
     2011.36756       -17.67914         5.68622
     2011.37029       -20.08687         5.49580
     2011.37303       -13.36760         5.48310
     2011.37577       -15.38833         5.40010
     2011.37850       -15.87707         5.57099
     2011.38124       -16.35180         5.47920
     2011.38398       -17.28853         5.44990
     2011.38672       -15.72627         5.47725
     2011.38945       -19.50700         5.41865
     2011.39219       -16.87773         5.51338
     2011.39493       -19.36746         5.53681
     2011.39767       -12.06419         8.70754
     2011.39918       -10.01415        18.32421
     2011.41796        -6.33003        13.09305
     2011.41957       -16.09305         5.41573
     2011.42198       -29.02957         6.32876
     2011.42505       -19.55652         5.50263
     2011.42778        -7.89125         5.57880
     2011.43052       -12.09598         5.56123
     2011.43326       -16.15671         5.54658
     2011.43600       -26.51645         5.43916
     2011.43874       -20.86218         5.44502
     2011.44147       -21.18391         5.46260
     2011.44421       -15.58464         5.58564
     2011.44695       -19.72938         5.57392
     2011.44969       -19.29011         5.49775
     2011.45243       -14.84984         5.52217
     2011.45516       -20.35657         5.53388
     2011.45790       -15.87631         5.49580
     2011.46064       -15.88704         5.59736
     2011.46338       -14.53677         5.46553
     2011.46611       -13.81450         5.60614
     2011.46861       -18.59508         6.38638
     2011.47142       -16.51686         5.82977
     2011.47798       -11.37401        10.15571
     2011.47980        -8.85517         5.40694
     2011.48255       -13.95090         5.53193
     2011.48528       -19.58263         5.48115
     2011.48802       -16.58136         5.53486
     2011.49076        -6.57010         5.55048
     2011.49349       -12.68883         5.59540
     2011.49503       -26.08980        20.24306
     2011.55127        -3.62939        12.35285
     2011.55337        -4.10172         6.79065
     2011.56241        -1.08644        14.07444
     2011.57386        -5.49868        10.53459
     2011.57563        -1.39780         5.31222
     2011.57837        -2.84554         5.29952
     2011.58110        -4.04527         5.47822
     2011.58384        -6.69700         5.32979
     2011.58658         5.67227         5.58466
     2011.58932        -6.67246         5.32393
     2011.59206        -2.19120         5.31417
     2011.59479        -3.76993         5.31514
     2011.59754        -7.42267         5.31612
     2011.60027        -1.73339         5.28390
     2011.60301        -2.97313         5.27120
     2011.60574        -5.52086         5.38155
     2011.60848         0.72441         5.56123
     2011.61122        -3.15232         5.56513
     2011.61396        -1.63106         5.47041
     2011.61670        -1.14879         5.55244
     2011.61943        -5.47752         5.46553
     2011.62217        -5.05725         5.38545
     2011.62491       -10.30799         5.29854
     2011.62765        -0.54972         5.41963
     2011.63039        -2.55245         5.30831
     2011.63312        -4.32318         5.43428
     2011.63587        -2.56392         5.32296
     2011.63860        -5.32365         5.35128
     2011.64134         2.19062         5.57978
     2011.64407        -3.76711         5.32100
     2011.64681         3.68715         5.39620
     2011.64955         1.60642         5.73895
     2011.65229         1.94569         5.45869
     2011.65435         2.34838         7.63240
     2011.65776         3.70422         5.47529
     2011.66050         9.39049         5.53193
     2011.66324         4.22576         5.41573
     2011.66549        -7.11167         6.79260
     2011.67914         4.53170         7.04650
     2011.68240        -4.19537         5.43428
     2011.68464        -3.12079         6.71839
     2011.68788        -1.60383         5.47627
     2011.69062         1.52643         5.47236
     2011.69336         5.86770         5.46455
     2011.69564        -2.41274         6.75061
     2011.73544        -0.01593        11.95444
     2011.73716         4.48098         5.44600
     2011.73990         0.45925         5.39229
     2011.74264        -0.16948         5.29952
     2011.74538         3.11878         5.47920
     2011.74811        10.04205         5.49678
     2011.75085         9.19932         5.50459
     2011.75359         9.04559         5.50361
     2011.75633         6.30585         5.39912
     2011.75906         5.51312         5.35909
     2011.76180         7.55739         5.38350
     2011.76454         6.05666         5.40205
     2011.76728        -3.99408         5.35811
     2011.77002        -0.09381         6.06803
     2011.77275        10.57646         5.91375
     2011.77549         8.01373         6.56898
     2011.77823         0.57500         5.38057
     2011.78097        -4.03374         5.35713
     2011.78371        -2.16047         5.39912
     2011.78644         5.68880         5.27511
     2011.78919        -1.64694         5.29561
     2011.79192         0.45833         5.29366
     2011.79466        -4.90940         5.24874
     2011.79739         0.77587         5.27413
     2011.80013         0.03814         5.28194
     2011.80287        -1.96960         5.25070
     2011.80561        -3.33233         5.29659
     2011.80835        -0.58007         5.41670
     2011.81108         1.29021         5.27218
     2011.81382        -2.20153         5.75262
     2011.81650        -2.17922         5.34444
     2011.81930         1.84201         5.37862
     2011.82203        -2.41172         5.36690
     2011.82477         3.03054         5.48506
     2011.82752        -0.96919         5.28683
     2011.83033         0.27102         5.60614
     2011.83299        -3.66065         5.48115
     2011.83572        -5.33639         5.43330
     2011.83846         0.73588         5.55732
     2011.84120         5.97415         5.23995
     2011.84394         3.19742         5.42744
     2011.84668         3.79868         5.45967
     2011.84941        -4.57205         5.40010
     2011.85215        -6.75578         5.42354
     2011.85489        -7.17651         5.41963
     2011.85763        -4.98725         5.59736
     2011.86036         8.25302         5.48408
     2011.86310        -2.82371         5.58857
     2011.86585         5.29555         5.45088
     2011.86858         2.90382         5.35421
     2011.87132         0.62609         5.44111
     2011.87405        -6.13664         5.53291
     2011.87611        -8.65394         7.23203
     2011.88793       -19.53642        10.74259
     2011.89049        -7.46304         5.59736
     2011.89284        -3.35753         6.94494
     2011.90525         1.73562        11.47985
     2011.90691        -3.44243         6.12565
     2011.90965        -3.23816         5.33370
     2011.91238        -5.22090         5.42842
     2011.91512       -10.56263         5.42354
     2011.91786        -6.90836         5.48115
     2011.92060       -12.49209         5.34249
     2011.92334       -12.42883         5.40694
     2011.92607       -14.84656         5.43330
     2011.92881        -9.69029         5.46650
     2011.93155        -5.33202         5.39327
     2011.93429        -7.27976         5.33760
     2011.93702        -8.48749         5.39522
     2011.93976        -9.25622         5.46260
     2011.94250        -5.35295         5.45088
     2011.94524        -4.76569         5.37667
     2011.94798        -3.32642         5.37471
     2011.95071        -5.53115         5.26632
     2011.95345        -5.45488         5.47725
     2011.95619       -16.45762         5.61689
     2011.95893       -20.76435         5.33468
     2011.96165        -7.70707         5.30245
     2011.96449        -4.28187         5.49385
     2011.96714        -5.10054         5.36202
     2011.96988       -10.56128         5.23995
     2011.97262       -19.55901         5.22921
     2011.97535       -17.33074         5.20480
     2011.97809       -20.35347         5.16964
     2011.98083       -19.63221         5.24679
     2011.98357        -2.45494         5.24288
     2011.98631       -16.92567         5.22531
     2011.98904         2.33360         5.34737
     2011.99178        -2.26414         5.34249
     2011.99452         1.49013         5.24777
     2011.99726        -2.44760         5.27218
     2012.00273        -3.63407         5.23507
     2012.00547        -4.37680         5.20285
     2012.00821        -6.06153         5.34639
     2012.01095        -4.71626         5.26730
     2012.01368        -2.86400         5.20578
     2012.01642        -1.28173         5.21261
     2012.01916       -12.64346         5.31222
     2012.02190        -5.40719         5.22238
     2012.02464        -4.28993         5.19894
     2012.02737        -7.68466         5.17941
     2012.03011        -6.87039         5.23312
     2012.03285       -13.11112         5.28292
     2012.03559        -4.65586         5.24191
     2012.03833        -5.96159         5.21554
     2012.04106        -3.92332         5.20773
     2012.04380        -7.74305         5.30343
     2012.04558        -7.61518         9.43895
     2012.05475       -12.50398         5.40987
     2012.05749         2.05728         5.26925
     2012.06023        -3.19845         5.36006
     2012.06297        -1.31918         5.26632
     2012.06570        -0.81491         5.28780
     2012.06844        -6.70165         5.32296
     2012.07118        -2.38838         5.24777
     2012.07392        -4.60411         5.28390
     2012.07666        -2.88685         5.29659
     2012.07939         2.86242         5.24972
     2012.08213         1.02069         5.25265
     2012.08487        -8.30504         5.23898
     2012.08761        -4.76677         5.29659
     2012.09034        -9.53651         5.30343
     2012.09308        -8.63724         5.27413
     2012.09582        -6.23497         5.28487
     2012.09856       -10.40370         5.25070
     2012.10130       -10.44344         5.36788
     2012.10403        -8.03517         5.24093
     2012.10677       -12.91190         5.38838
     2012.10951       -12.73363         5.34639
     2012.11225        -9.55537         5.34151
     2012.11498        -7.25510         5.36397
     2012.11772        -3.95883         5.26046
     2012.12046        -0.20556         5.37081
     2012.12320        -7.52230         5.54853
     2012.12594        -7.31303         5.50361
     2012.12867       -16.49176         5.78875
     2012.13141       -11.26649         5.34932
     2012.13342       -17.69676         8.04840
     2012.13695        -5.38200         5.41768
     2012.13885        -5.19320         8.50052
     2012.14282         6.89229        12.89286
     2012.14818        -9.45610         7.48397
     2012.15058       -12.53462         6.61097
     2012.15332       -14.43336         5.28780
     2012.15605       -14.02008         5.39815
     2012.15879       -10.16582         5.33468
     2012.16153        -9.26555         5.21456
     2012.16427       -17.19628         5.30929
     2012.16700       -11.57001         5.32003
     2012.16974       -12.12975         5.28585
     2012.17248       -11.36548         5.25753
     2012.17511        -2.85014         5.43721
     2012.17782        -1.83686        10.19379
     2012.18149       -14.09218         8.63528
     2012.18343       -15.54041         5.35128
     2012.18711       -12.39973         9.81588
     2012.18891        -5.34287         5.22238
     2012.19164        -2.89761         5.26534
     2012.19438        -9.00034         5.31026
     2012.19712        -7.20007         5.47041
     2012.19986        -6.11080         5.26339
     2012.20260        -4.83054         5.29952
     2012.20533        -7.07627         5.22824
     2012.20807       -14.77700         5.28194
     2012.21081        -5.00774         5.16476
     2012.21355        -3.64147         5.22531
     2012.21629        -4.04320         5.45674
     2012.21902       -12.55593         5.19796
     2012.22163       -24.75258         7.60311
     2012.22454       -15.49342         5.59247
     2012.22724       -14.16913         5.26925
     2012.22998        -8.31686         5.31807
     2012.23271       -11.83059         5.41182
     2012.23545       -13.25333         5.25362
     2012.23819        -8.92906         5.33077
     2012.24093        -8.85979         5.30343
     2012.24306       -13.32314         7.28770
     2012.25170       -20.13861        10.05122
     2012.25476       -15.50455         6.96056
     2012.25649       -16.15364         9.76803
     2012.26019       -10.68198        10.24945
     2012.26290       -22.46470         7.06798
     2012.26574       -23.58249         7.35117
     2012.26831       -18.87312         5.38936
     2012.27104       -14.48085         5.36495
     2012.27378       -11.98458         5.22238
     2012.27652       -13.72831         5.26144
     2012.27926        -9.95205         5.40205
     2012.28199       -10.13178         5.24093
     2012.28473       -11.25251         5.27804
     2012.28747       -15.22224         5.23702
     2012.29021       -18.22198         5.27706
     2012.29295       -14.29671         5.34053
     2012.29568       -13.85544         5.29659
     2012.29842       -12.46717         5.30538
     2012.30116       -12.44291         5.36690
     2012.30390       -18.36764         5.29269
     2012.30664       -20.18237         5.37764
     2012.30937       -15.31710         5.34542
     2012.31211        -3.40884         5.70966
     2012.31485       -11.19257         5.64813
     2012.31760       -12.08531         5.41475
     2012.32032       -15.20303         5.63446
     2012.32274       -18.23556         6.82581
     2012.32597       -19.06561         6.15592
     2012.32854        -6.79423         5.28878
     2012.33128        -6.46696         5.39717
     2012.33401       -16.93470         5.54755
     2012.33675       -18.29543         5.42451
     2012.33949       -16.68716         5.27218
     2012.34181       -34.87863        19.72453
     2012.34510       -16.50271        10.30609
     2012.34787       -16.54347         5.90105
     2012.35044       -18.89309         5.31319
     2012.35318       -14.78082         5.50068
     2012.35535       -15.64619         7.52596
     2012.39685       -15.42746         6.29361
     2012.49346         1.44441        11.60387
     2012.49555       -12.74191         5.19601
     2012.49833        -6.63567         5.26827
     2012.50102        -8.53338         5.26046
     2012.50376        -1.60811         5.52314
     2012.50650        -8.36184         5.28097
     2012.50924       -10.95457         5.33663
     2012.51197       -16.62931         5.30733
     2012.51471       -17.67804         5.23117
     2012.51745       -17.27077         5.23605
     2012.52019        -4.90750         5.35518
     2012.52292        -9.47224         5.29757
     2012.52566        -9.69397         5.33858
     2012.52840       -13.49570         5.24777
     2012.53114         2.19957         5.33858
     2012.53388        -7.55416         5.38741
     2012.53661        -4.24290         5.25753
     2012.53935        -2.79863         5.30636
     2012.54209        -0.13936         5.35323
     2012.54483       -11.44609         5.22238
     2012.54757        -6.77183         5.19992
     2012.55030        -0.27956         5.36299
     2012.55304        -6.21629         5.18918
     2012.55578        -8.77803         5.21652
     2012.55852        -7.14076         5.29854
     2012.56125        -5.88149         5.20871
     2012.56399        -7.09322         5.16476
     2012.56673       -10.01895         5.20968
     2012.56947        -6.33669         5.25655
     2012.57221        -2.81742         5.26241
     2012.57494        -7.38115         5.20578
     2012.57768        -5.72688         5.23898
     2012.58042        -0.22562         5.97234
     2012.58316       -11.65735         5.19210
     2012.58590        -0.25608         5.24191
     2012.58858        -4.59478         5.24679
     2012.59138        -9.98055         5.20480
     2012.59411        -4.00128         5.23605
     2012.59685         0.24499         5.22921
     2012.59958       -16.26274         5.84051
     2012.60232        -8.48748         5.42842
     2012.60506         4.29279         6.33853
     2012.60780        -9.72294         6.51039
     2012.61054         0.26233         6.59340
     2012.61270        -4.50305         6.83264
     2012.61571        -1.05395         9.47801
     2012.61817         0.99450         8.68801
     2012.63523         4.30070         5.83172
     2012.63787        10.56803         9.22509
     2012.64070        -2.71276         5.91375
     2012.64339         1.64954         6.85608
     2012.64623         6.19374         7.85993
     2012.64887        -5.19693         7.84431
     2012.65166        17.04630         9.36278
     2012.65389         7.08489         9.46043
     2012.65716        -0.74717        10.86075
     2012.66088        14.35947        97.24870
     2012.66178        11.83790        10.77872
     2012.66757        -6.03476        27.40478
     2012.67035        -4.84352        18.44628
     2012.67312         0.94973        15.98840
     2012.67610        -3.26516        25.14904
     2012.67841        15.94938        11.48864
     2013.07015       -15.48351        25.68319
     2013.10170        -5.11647        15.71888
     2013.10335       -11.24352         5.36006
     2013.10594       -10.88316         5.77118
     2013.56154       -10.70246        19.73722
     2013.56330        -7.91157         9.18115
     2013.56607       -10.50532         9.87935
     2013.56878        -6.94403        11.03359
     2013.57153        -4.06677        10.36175
     2013.57341         3.29104        18.25683
     2013.60018       -21.81290        41.69113
     2013.60164        -7.38383         5.29659
     2013.60438        -1.27156         5.35421
     2013.60711        -3.60929         5.48603
     2013.60985        -2.56402         5.59540
     2013.61259        -1.89376         5.40694
     2013.61533        -4.04449         5.55146
     2013.61807        -5.50222         5.44014
     2013.62080        -1.41095         5.29561
     2013.62354        -2.03969         5.33760
     2013.62628        -6.87942         5.39034
     2013.62902        -6.04615         5.35421
     2013.63175         1.83212         5.31612
     2013.63449        -0.07562         5.38057
     2013.63723        -1.80935         5.26730
     2013.63997        -0.39508         5.26827
     2013.64271        -4.04181         5.26046
     2013.64544        -1.65655         5.29073
     2013.64818         2.44572         5.30245
     2013.65092         2.97399         5.35030
     2013.65366        -5.68774         5.29952
     2013.65639         2.28053         5.24874
     2013.65913        -6.78921         5.46455
     2013.66187         5.63506         5.41280
     2013.66461        -5.33267         5.18332
     2013.66735         2.05060         5.27608
     2013.67008         3.72686         5.53584
     2013.67282         3.08213         5.42061
     2013.67556         1.41440         5.36885
     2013.67830        11.13867         5.59247
     2013.68104        10.55093         5.64521
     2013.68377         0.25620         5.23995
     2013.68651        -6.21753         5.24581
     2013.68925         3.12474         5.26534
     2013.69199         4.65400         5.23507
     2013.69472        -3.89073         5.20968
     2013.69746        -1.90646         5.22921
     2013.70020        -0.28719         5.28097
     2013.70294         3.86007         5.26827
     2013.70568         0.27734         5.29561
     2013.70841         1.14161         5.34151
     2013.71115        -0.00012         5.29073
     2013.71389         3.83814         5.31710
     2013.71663        -7.26759         5.21749
     2013.71937        -5.28132         5.27218
     2013.72210        10.08295         5.21456
     2013.72484         7.70021         5.23898
     2013.72758         2.88348         5.38350
     2013.73032         1.69275         5.30538
     2013.73305         2.20102         5.25655
     2013.73579         4.08428         5.25558
     2013.73853        -2.30045         5.19113
     2013.74127         0.26082         5.19210
     2013.74401         6.98509         5.43233
     2013.74674         1.71335         5.34639
     2013.74948        -8.34138         7.67439
     2013.75222        -6.03711         5.27413
     2013.75496        -8.64384         5.19503
     2013.75770       -12.89458         5.55830
     2013.76043        -7.79831         5.17941
     2013.76317        -7.40604         5.29952
     2013.76591        -3.04577         5.37178
     2013.76865         0.36249         5.29073
     2013.77138        -7.13824         5.23898
     2013.77412        -1.80897         5.25851
     2013.77686        -7.07470         5.22042
     2013.77960        -3.06044         5.31319
     2013.78182        -9.63484         6.48696
     2013.78587        -8.73741         8.90284
     2013.78781       -10.74963         5.20675
     2013.79055        -4.98237         5.24972
     2013.79329        -8.33910         5.26925
     2013.79603        -4.57083         5.23019
     2013.79876        -7.10156         5.22433
     2013.80150        -3.43030         5.32589
     2013.80424        -3.45103         5.32979
     2013.80698        -6.41676         5.16769
     2013.80971        -1.62349         5.24386
     2013.81245        -8.55123         5.79363
     2013.81519        -6.01596         5.23800
     2013.81793        -6.76469         5.43135
     2013.82067        -4.66242         5.27901
     2013.82340        -0.63716         5.22042
     2013.82569         2.74340         6.46743
     2013.82888        -1.49762         5.20480
     2013.83162        -2.02235         5.24484
     2013.83436        -3.89309         5.36592
     2013.83709        -2.82682         5.30831
     2013.83983         0.57145         5.26534
     2013.84257        -2.79028         5.24679
     2013.84531        -9.60501         5.24777
     2013.84804       -19.31275         5.21456
     2013.85078        -9.72548         5.21359
     2013.85352        -2.74221         5.18136
     2013.85626        -6.89694         5.28390
     2013.85900        -9.14968         5.14426
     2013.86173        -9.26841         5.18234
     2013.86447       -18.42814         5.25948
     2013.86721        -9.82487         5.18332
     2013.86995       -11.09861         5.14133
     2013.87269        -6.86034         5.17843
     2013.87542       -11.91307         6.11100
     2013.87817        -5.72381         5.98894
     2013.88090        -3.40554         5.86883
     2013.88363         1.61773         6.05046
     2013.88638        -2.68700         5.75164
     2013.88911       -16.38873         5.56904
     2013.89185       -17.32447         5.73602
     2013.89459       -14.80320         5.90007
     2013.89734       -10.34494         5.89226
     2013.90006       -10.82466         5.81414
     2013.90280       -15.14540         5.64618
     2013.90554       -10.25913         5.75164
     2013.90828        -3.39886         5.85320
     2013.91101        -7.96159         5.78094
     2013.91375       -19.98733         5.74969
     2013.91923        -6.06479         5.84344
     2013.92197        -7.24952         5.96159
     2013.92470        -6.73026         5.71649
     2013.92744        -9.92699         5.88738
     2013.93018       -10.29272        10.02974
     2013.93292        -9.74245         5.71844
     2013.93566        -9.46219         5.79754
     2013.93838       -12.62191         6.56215
     2013.94114       -12.36366        10.33441
     2013.94300        -8.34883        18.88375
     2013.94660       -19.08211        10.45842
     2013.94934        -7.15485         9.87154
     2013.95211       -20.68060        11.52770
     2013.95482        -7.62531        10.80313
     2013.95756       -10.26905        11.27674
     2013.96026        -5.85176        10.07954
     2013.96303        -0.36251        10.19770
     2013.96577        -4.94124         9.66159
     2013.96851        -3.66898         8.57864
     2013.97127        -9.61872         9.98872
     2013.97400       -10.61945        10.27289
     2013.97579        -9.13558        18.50780
     2014.02729         9.81783        23.14036
     2014.02874        -4.02109         5.30440
     2014.03148         0.48918         5.20285
     2014.03422        -7.21555         5.14035
     2014.03696        -6.79629         5.16281
     2014.03969       -10.74702         5.17843
     2014.04243        -9.73275         6.52211
     2014.04517        -4.90248         5.29561
     2014.04791        -8.58822         5.13742
     2014.05065        -5.72495         5.16086
     2014.05338       -10.73968         5.10129
     2014.05612       -12.86641         5.11984
     2014.05886       -11.41115         5.13547
     2014.06160        -8.24888         5.14230
     2014.06433        -9.48861         5.32979
     2014.06707        -4.47134         5.25362
     2014.06981        -6.09508         5.27999
     2014.07255        -8.72081         5.13058
     2014.07529        -8.91954         5.13742
     2014.07802       -14.49627         5.17746
     2014.08076       -19.41301         5.16086
     2014.08350       -25.51274         5.17746
     2014.08624       -30.32047         5.30245
     2014.09017        -6.87796        21.71661
     2014.09171       -23.51994         5.36690
     2014.09445       -33.24367         5.16574
     2014.09995       -25.87715         5.38643
     2014.10179       -23.44431         8.26909
