# ================= DQRFIT RESULTS ================
# INPUT FILE: series/OBSV.rad
# OUTPUT: LDETRENDED
# FILTER FUNCTION: f(t)
# f(t)=+line(t)
# line(t)=+P 1+P 2*t
# heav(t)=(t<0?0:1)
# TOTAL OBSERVATIONS MTOT=  138
# INITIAL TIME INTERVAL= 2018.6252 - 2006.4367 = 12.1885
# TOTAL OBSERVATIONS AFTER PREFILTER M=  136
# TIME-SPAN=    0.0000 -    0.0000 =  0.0000
# OBSERVATIONS: USED M=   136 REJECTED MTOT-M=     2 %USED=   98.5507
# N=  2 PARAMETERS
# MAXSIG= 175.00000
# MAXRES=  17.11926
# SCALE FACTOR FOR LENGTHS: SCL=  10.00000
# SCALE FACTOR FOR SIGMAS: SCLSIG=   1.00000
# CHI^2=    165.410 DOF=   134 CHI^2/DOF=   1.23440
# RMS=      6.345 SDEV=      6.369 MEAN=    0.02071
#  P #       PARAMETER +-    SIGMA %error PARAMETER NAME
# P 1 =      -359.99703 +-  274.762  76.32 YZERO                              
# P 2 =         0.17834 +-    0.136  76.45 SLOPE                              
#       T            LDETRENDED       SIG_OBS
     2006.43669        -1.57267         6.55289
     2006.43943        -6.86716         6.59511
     2006.44217        -0.60165         6.53845
     2006.44491        -5.71014         6.55956
     2006.44764        -7.01963         6.63288
     2006.45038         5.12489         6.60955
     2006.45312        -9.91460         6.52289
     2006.45586        -3.54309         6.57400
     2006.45859        -4.40158         6.58067
     2006.46133        -1.39807         6.72621
     2006.46407         0.78945         6.70399
     2006.46681        -1.63704         6.71510
     2006.46955        -4.13953         6.73399
     2006.47228        -2.05202         6.68510
     2006.47502        -0.21151         6.74954
     2006.47776        -2.52500         6.66399
     2006.48050       -11.42748         6.80287
     2006.48324        -8.55497         6.75399
     2006.48597        -5.01246         6.85620
     2009.88365         5.05261         6.58844
     2009.88638         2.20513         6.66177
     2009.88912         4.33264         6.44956
     2009.89186        -3.70185         6.63844
     2009.89460        -2.08634         6.61622
     2009.89734        -8.39383         6.75732
     2009.90007        -4.82832         7.50505
     2009.90281        -2.15880         7.29395
     2009.91102         1.27173         7.41616
     2009.91376         3.20724         7.45838
     2014.05887        -3.48198         6.40957
     2014.06161         7.33154         6.34846
     2014.06434         2.62605         6.62511
     2015.71527        11.99063         6.29180
     2015.71801         9.40014         6.26291
     2015.72074        12.49565         6.32846
     2015.72348         3.76916         6.33179
     2015.72622         3.24668         6.38735
     2015.72896         4.39019         6.28957
     2015.73170         5.48170         6.30291
     2015.73443         3.26121         6.36290
     2015.73717        10.11972         6.32402
     2015.73991         8.17223         6.48512
     2015.74265        10.26475         6.54178
     2015.74538        17.11926         6.67955
     2015.74812        -0.93123         6.63400
     2015.75086       -15.03972         6.30513
     2015.75360         1.02779         6.38623
     2015.75634         6.79231         6.40512
     2015.75907         8.60782         6.30624
     2015.76181         4.17533         6.31291
     2015.76455         3.40484         6.29069
     2015.76729         0.22135         6.31179
     2015.77003         1.11086         6.41512
     2015.77276         6.90538         6.36290
     2015.77550         5.61489         6.27291
     2015.77824        11.59640         6.32068
     2015.78098         6.76791         6.31624
     2015.78371         9.78842         6.29291
     2015.78645        10.92893         6.26402
     2015.78919         5.66745         6.31735
     2015.79193         2.33596         6.35735
     2015.79467         6.64447         6.44512
     2015.79740         5.28498         6.48178
     2015.80014        11.38049         6.54733
     2015.80288         2.06601         6.34513
     2015.80562         7.65752         6.26958
     2015.80836         5.83203         6.33957
     2015.81109         0.97954         6.38512
     2015.81383        -0.12095         6.37957
     2015.81657         0.67656         6.37735
     2015.81931         8.14408         6.37846
     2015.82204         0.93659         6.26069
     2015.82478         3.66410         6.45956
     2015.82752         7.86561         6.36957
     2015.83026         0.52912         6.40179
     2015.83300         0.14463         6.38623
     2015.84121         3.02017         6.45845
     2015.84395         5.77868         6.44179
     2015.84669         2.35019         6.38290
     2015.84942        11.12970         6.37624
     2015.85216         9.03522         6.47067
     2015.85490        -0.12427         6.47067
     2015.85764        11.91224         6.47845
     2015.86037         6.17075         6.45512
     2015.86294         7.48529         6.85065
     2018.48597        -7.79949         6.10292
     2018.48871        -2.83597         6.22069
     2018.49145        -3.13746         6.10848
     2018.49419        -3.48295         6.29069
     2018.49692         1.17356         6.21736
     2018.49966        -8.45693         6.19180
     2018.50240        -3.51542         6.21958
     2018.50514       -10.46290         6.25069
     2018.50788        -7.95139         6.27180
     2018.51061        -8.12888         6.20291
     2018.51335        -9.68637         6.27513
     2018.51609        -8.12386         6.18958
     2018.51883       -11.03534         6.23624
     2018.52157        -6.63983         6.15847
     2018.52430         1.45268         6.13181
     2018.52704        -3.34281         6.16069
     2018.52978        -8.09230         6.25291
     2018.53252        -7.65979         6.20069
     2018.53525        -1.52727         6.28513
     2018.53799       -11.57476         6.22958
     2018.54073        -1.85125         6.18625
     2018.54347        -6.00774         6.23069
     2018.54621        -6.52323         6.24069
     2018.54894        -8.78572         6.23736
     2018.55168        -9.39020         6.29402
     2018.55442        -4.46869         6.21180
     2018.55716        -4.28318         6.24291
     2018.55990       -12.56467         6.42068
     2018.56263       -10.46516         6.45401
     2018.56537        -8.41864         6.22736
     2018.56811        -1.99913         6.20736
     2018.57085        -5.94962         6.19069
     2018.57358        -1.30911         6.33068
     2018.57632        -5.75960         6.48956
     2018.57906        -4.18709         6.53734
     2018.58180        -2.72757         6.41734
     2018.58454        -1.08406         6.44845
     2018.58727         3.94145         6.16181
     2018.59001        -3.17604         6.18403
     2018.59275        -0.95753         6.14736
     2018.59549        -0.00502         6.10625
     2018.59823         0.79650         6.16292
     2018.60096        -2.66099         6.16736
     2018.60370        -2.90448         6.18847
     2018.60644         0.27603         6.14514
     2018.60918         0.61754         6.22513
     2018.61179        -2.37892         6.46956
     2018.61739         3.66808         6.16069
     2018.62013         3.09159         6.18736
     2018.62287         0.55910         6.38957
     2018.62518         0.72069         7.43505
