# ================= DQRFIT RESULTS ================
# INPUT FILE: series/OLAR.rad
# OUTPUT: LDETRENDED
# FILTER FUNCTION: f(t)
# f(t)=+line(t)+annual(t)+jumps(t)
# line(t)=+P 1+P 2*t
# annual(t)=+P 3*sin(2*pi*t+P 4)
# jumps(t)=+P 5*heav(t-2017.5668  )
# heav(t)=(t<0?0:1)
# TOTAL OBSERVATIONS MTOT= 3357
# INITIAL TIME INTERVAL= 2022.7488 - 2013.0086 =  9.7402
# TOTAL OBSERVATIONS AFTER PREFILTER M= 3345
# TIME-SPAN= 2022.7488 - 2013.0086 =  9.7402
# OBSERVATIONS: USED M=  3345 REJECTED MTOT-M=    12 %USED=   99.6425
# N=  5 PARAMETERS
# MAXSIG= 175.00000
# MAXRES=  33.69363
# SCALE FACTOR FOR LENGTHS: SCL=  10.00000
# SCALE FACTOR FOR SIGMAS: SCLSIG=   1.00000
# CHI^2=   2492.587 DOF=  3340 CHI^2/DOF=   0.74628
# RMS=      5.134 SDEV=      5.134 MEAN=    0.09777
#  P #       PARAMETER +-    SIGMA %error PARAMETER NAME
# P 1 =      2059.88669 +-  121.811   5.91 YZERO                              
# P 2 =        -1.02698 +-    0.060   5.89 SLOPE                              
# P 3 =         4.83867 +-    0.116   2.39 ANNUAL AMPLITUDE                   
# P 4 =         3.01174 +-    0.033   1.11 ANNUAL PHASE                       
# P 5 =        11.10095 +-    0.341   3.07 OFFSET 2017.5668                   
#       T            LDETRENDED       SIG_OBS
     2013.00856        12.10240         9.66160
     2013.01026         0.08115         4.80057
     2013.01300        -0.43504         4.62606
     2013.01574         2.00778         4.64420
     2013.01848         0.11659         4.72627
     2013.02121        -0.02860         4.67358
     2013.02395        -3.06179         4.72714
     2013.02669        -0.87098         4.75737
     2013.02943        -0.75916         4.67271
     2013.03216        -4.18635         4.62779
     2013.03491        -5.26354         4.63902
     2013.03764        -5.89673         4.66148
     2013.04035       -13.46794         4.62520
     2013.04312        -9.28511         4.68912
     2013.04585        -6.98929         4.87227
     2013.04859        -6.17448         4.76687
     2013.05133        -4.28967         4.63297
     2013.05407        -3.34585         4.61915
     2013.05681         0.51695         4.65371
     2013.05954        -3.41424         4.63211
     2013.06228        -3.31842         4.83771
     2013.06502        -0.28561         4.85413
     2013.06776        -0.75680         4.66234
     2013.07049        -0.80799         4.67530
     2013.07324         0.60783         5.03381
     2013.07597        -0.34437         4.69431
     2013.07871         0.29545         4.61138
     2013.08145        -1.91374         4.77119
     2013.08418        -7.62393         4.62520
     2013.08692        -3.26512         4.62779
     2013.08966        -5.98331         4.66926
     2013.09240        -2.32449         4.60878
     2013.09514         1.68832         4.73577
     2013.09787         0.55113         4.94138
     2013.10061        -5.93706         4.99753
     2013.10335        -3.59725         4.69172
     2013.10594        -1.17458         5.12279
     2013.11720        -8.78402         5.03381
     2013.11978        -6.63738         4.94397
     2013.12251        -6.59657         4.61829
     2013.12525        -8.74775         4.68308
     2013.12799        -4.39394         4.68221
     2013.13073        -2.95513         4.64679
     2013.13347        -0.30932         4.76169
     2013.13618         4.08847         4.71159
     2013.13894         2.24830         4.68049
     2013.14168         0.78712         4.69517
     2013.14442        -2.31707         4.83944
     2013.14715         4.73474         4.78415
     2013.14990        -9.09044         4.66407
     2013.15263        -4.60664         4.67617
     2013.15536       -12.18683         4.70727
     2013.15811        -8.69101         4.61483
     2013.16084       -11.39420         4.64507
     2013.16358       -11.10739         4.98284
     2013.16632        -6.55958         4.63643
     2013.16906        -3.25077         4.70381
     2013.17180        -2.41296         4.65111
     2013.17453        -1.86814         4.62779
     2013.17727        -2.53533         4.70381
     2013.18001        -4.97752         4.72368
     2013.18275        -1.87571         4.65889
     2013.18548        -2.51490         4.60533
     2013.18823        -8.11708         4.62001
     2013.19096        -4.15827         4.61051
     2013.19370        -4.26246         4.62433
     2013.19644        -4.48165         4.66666
     2013.19917        -1.52184         4.75046
     2013.20191        -0.16403         4.65371
     2013.20465        -2.81721         4.64766
     2013.20739         5.64260         4.65284
     2013.21013        -1.12959         4.59410
     2013.21286        -2.64178         4.62693
     2013.21560        -3.08297         4.62952
     2013.21834         1.76984         4.60619
     2013.22108        -2.94734         4.62693
     2013.22381        -4.46253         4.60447
     2013.22656        -5.68972         4.58028
     2013.22929        -3.64191         4.61656
     2013.23203        -2.92110         4.62952
     2013.23477        -4.33329         4.59410
     2013.23750        -7.82547         4.68999
     2013.24024        -5.42666         4.72109
     2013.24298        -2.78585         4.68653
     2013.24572         1.80597         4.69863
     2013.24846         0.74177         4.69863
     2013.25119        -1.61342         4.69085
     2013.25393        -2.78360         4.83426
     2013.25667         0.99621         4.82562
     2013.25941        -0.33798         4.71245
     2013.26214         3.16983         4.74873
     2013.26489         0.10265         4.68308
     2013.26762        -3.92055         4.88436
     2013.27036        -4.78073         4.70727
     2013.27310        -4.20092         4.85585
     2013.27583       -12.79411         4.76515
     2013.27857        -3.92930         4.74182
     2013.28131         4.44751         4.73750
     2013.28405        -0.14367         4.71763
     2013.28679        -3.05586         4.69085
     2013.28952        -4.91905         4.92237
     2013.29188       -10.64763         5.85795
     2013.30703        -4.20507         9.82919
     2013.30743       -13.73266        17.62655
     2013.31690        -8.08793         4.72714
     2013.31964        -4.09312         4.68394
     2013.32238        -7.48031         4.64679
     2013.32512         6.00950         4.87054
     2013.32785        -4.10969         4.70467
     2013.33059        -8.25588         4.65716
     2013.33333       -11.08106         4.72454
     2013.33607       -14.27025         4.72454
     2013.33880        -5.51844         4.68912
     2013.34155        -4.39362         4.67185
     2013.34428        -5.58182         4.70295
     2013.34702        -1.85201         4.70036
     2013.34976        -4.91719         4.74355
     2013.35249        -9.44438         4.66580
     2013.35523        -5.62457         4.74269
     2013.35797        -0.46776         4.66234
     2013.36071        -9.60994         4.75478
     2013.36344        -2.60213         4.75651
     2013.36618        -7.13232         4.69344
     2013.36892        -2.12751         4.67962
     2013.37166        -4.65270         4.71504
     2013.37440        -3.08889         4.65630
     2013.37713        -8.34008         4.71159
     2013.37988        -6.88826         4.67012
     2013.38261        -9.14045         4.67185
     2013.38535        -5.06464         4.69517
     2013.38809        -2.72383         4.63643
     2013.39082        -9.23302         4.65111
     2013.39299        -9.74080         8.48673
     2013.39907        -4.73755         5.52104
     2013.40177        -4.23377         4.72800
     2013.40451        -3.30296         4.62606
     2013.40725        -2.70115         4.81007
     2013.40999        -5.33934         4.84030
     2013.41273        -4.68852         4.68826
     2013.41546        -8.86071         4.80488
     2013.41821        -4.77590         4.67617
     2013.42094         0.09491         4.65543
     2013.42368        -7.48628         4.74614
     2013.42642        -1.75247         4.70122
     2013.42915        -1.37965         4.67703
     2013.43190        -9.49584         4.75651
     2013.43463        -3.48403         4.71072
     2013.43737        -1.93121         4.63643
     2013.44010        -4.83641         4.68221
     2013.44284        -3.76359         4.68308
     2013.44558        -6.02678         4.86968
     2013.44832        -8.13197         4.70122
     2013.45106        -5.61916         4.70986
     2013.45379        -4.57335         4.68567
     2013.45654        -4.55253         4.70122
     2013.45927        -9.51272         5.63507
     2013.46201        -3.48191         4.72973
     2013.46475        -4.89510         4.68049
     2013.46748        -4.01629         4.67530
     2013.47022        -4.47048         4.70727
     2013.47296        -3.40167         4.69258
     2013.47570         1.09015         4.66148
     2013.47763         1.94713         8.12390
     2013.48121        11.59280         6.51277
     2013.48391         2.09758         5.08046
     2013.48665        -4.00361         6.04109
     2013.48939        -7.49280         4.98543
     2013.49212         3.98902         5.74219
     2013.49487        -6.54217         5.64544
     2013.49760         1.15664         5.09687
     2013.50034        -5.74555         4.66062
     2013.50308         4.49126         4.68912
     2013.50581        -1.27493         4.67530
     2013.50855        -2.73911         4.60619
     2013.51129        -1.49130         4.59669
     2013.51403        -2.22349         4.58028
     2013.51676         0.41132         4.73923
     2013.51950        -2.24987         4.62088
     2013.52224         0.21794         4.69517
     2013.52498        -2.35624         4.83426
     2013.52772        -0.43943         4.64161
     2013.53023        -2.63485         4.94051
     2013.54798         0.35338        12.67135
     2013.54855         0.39196        10.77168
     2013.56149         2.14525         8.83401
     2013.56331         1.97812         4.72714
     2013.56605         0.13293         4.64075
     2013.56878         2.30674         4.65803
     2013.57152         3.74156         4.65198
     2013.57426         5.39237         4.62952
     2013.57700         1.67818         4.65889
     2013.57974         1.88999         4.64852
     2013.58247         7.52480         4.61829
     2013.58521         4.65361         4.64593
     2013.58795         2.64343         4.64939
     2013.59069         2.46124         4.62347
     2013.59342         2.52305         4.64075
     2013.59616         7.07586         4.63988
     2013.59890         3.70967         4.65025
     2013.60164         2.36348         4.65371
     2013.60438         3.85130         4.69863
     2013.60711         0.66411         4.67185
     2013.60985         7.09292         4.65975
     2013.61259         6.27673         4.63643
     2013.61533         7.39054         4.76342
     2013.61807         5.32036         4.87227
     2013.62080         8.33517         4.92583
     2013.62354         2.66698         4.70986
     2013.62628         3.42679         4.82303
     2013.62902         0.55960         4.63384
     2013.63175         4.47541         4.71418
     2013.63449         4.66623         4.76515
     2013.63723         7.26104         4.64334
     2013.63997        11.10085         4.66321
     2013.64271         7.88466         4.67530
     2013.64544         6.92447         4.65716
     2013.64818         7.81628         4.69085
     2013.65092         7.68210         4.70899
     2013.65366         9.41491         4.68481
     2013.65639         7.73472         4.71936
     2013.65913        11.34753         4.88782
     2013.66187         7.94134         4.75824
     2013.66461         0.63415         4.62347
     2013.66735         7.23197         4.67271
     2013.67008        14.08478         4.69085
     2013.67282         7.21759         4.82216
     2013.67556         4.51640         5.01567
     2013.67830        11.50421         4.89732
     2013.68104         5.77802         4.65716
     2013.68377         7.83584         4.62606
     2013.68651         9.01565         4.66407
     2013.68925         6.58146         4.63384
     2013.69199         5.95527         4.64161
     2013.69472        11.01908         4.60878
     2013.69746         2.22389         4.63038
     2013.70020         9.31671         4.65630
     2013.70294        12.43852         4.66666
     2013.70568        16.25933         4.66666
     2013.70841         2.86714         4.69776
     2013.71115         6.23195         4.67098
     2013.71389        -3.03823         4.69517
     2013.71663         6.90658         4.70986
     2013.71937         9.37439         4.68481
     2013.72210        14.59920         4.62952
     2013.72484        11.95101         4.79970
     2013.72758        10.69882         4.79625
     2013.73032         9.29264         4.71245
     2013.73305         8.55445         4.65284
     2013.73579         6.71626         4.61397
     2013.73853         2.49807         4.74960
     2013.74127         2.15688         4.69604
     2013.74401        13.74569         4.79279
     2013.74674        10.45151         4.97680
     2013.74948         1.26232         6.95680
     2013.75222        -2.45787         4.67271
     2013.75496        -0.67506         4.60878
     2013.75770        -2.44225         4.75305
     2013.76043        -1.73644         4.65889
     2013.76317         3.82538         4.61397
     2013.76591        14.09419         4.85844
     2013.76865         5.85000         4.70727
     2013.77138         1.60681         4.66062
     2013.77412         0.13962         4.64161
     2013.77686         0.71443         4.65630
     2013.77960        -2.49775         4.66321
     2013.78182        -3.36447         5.75947
     2013.78593        -3.83425         8.20770
     2013.78781        -6.84632         4.63988
     2013.79055         2.21749         4.66926
     2013.79329        -0.48569         4.65111
     2013.79603         1.68812         4.61915
     2013.79876         1.53993         4.62261
     2013.80150         5.04474         4.72800
     2013.80424         3.84655         4.69258
     2013.80698         5.58136         4.60965
     2013.80971         6.04118         4.64939
     2013.81245         6.10799         4.63902
     2013.81519         3.76580         4.63556
     2013.81793        -1.03839         4.62261
     2013.82067         3.20742         4.78415
     2013.82341         2.72624         4.79020
     2013.82568         5.21557         6.73997
     2013.82888         6.35686         4.81525
     2013.83162         2.91467         4.64507
     2013.83436         6.94448         4.74528
     2013.83709        -0.49671         4.83426
     2013.83983         7.92710         4.74873
     2013.84257         3.31992         4.80575
     2013.84531        -5.93327         4.89905
     2013.84804        -6.30346         4.62174
     2013.85078        -1.10365         4.64420
     2013.85352        13.49716         4.80661
     2013.85626        -0.02003         4.66494
     2013.85900         4.01279         4.63125
     2013.86173         0.43260         4.62261
     2013.86447        -9.65359         4.70467
     2013.86721        -6.62178         4.67098
     2013.86995         0.39803         4.71159
     2013.87269         3.71385         4.70467
     2013.87542        15.47566         4.71677
     2013.87816         6.34547         4.62520
     2013.88090         4.11828         4.72109
     2013.88364         6.96409         4.88782
     2013.88637         1.69490         4.69949
     2013.88911        -0.78728         4.61742
     2013.89185        -5.89247         4.60447
     2013.89459        -4.81366         4.61483
     2013.89733         0.69315         4.62174
     2013.90006        -2.36904         4.70986
     2013.90280        -5.46323         4.72714
     2013.90554        -0.58141         4.67617
     2013.90828         0.68740         4.63729
     2013.91102         1.16821         4.64248
     2013.91375        -4.63698         4.64420
     2013.91649         5.20683         4.63556
     2013.91923         5.67764         4.82043
     2013.92197        -3.71054         4.69344
     2013.92470        -1.30073         4.60274
     2013.92744        -0.22192         4.69776
     2013.93018         2.72389         7.78440
     2013.93292        -1.98730         4.62779
     2013.93566        -1.39649         4.68826
     2013.93839         1.38833         4.60792
     2013.94113        -1.93886         4.61224
     2013.94301         0.90507         7.40256
     2013.94661         2.69576         4.74441
     2013.94935         1.83057         4.63902
     2013.95208         5.72938         4.63384
     2013.95482        -0.80680         5.07441
     2013.95756         0.64801         4.61310
     2013.96030        -3.11018         4.72541
     2013.96303         3.18463         4.64507
     2013.96577         3.45544         4.63038
     2013.96851         4.45626         4.72109
     2013.97125         5.67507         4.62174
     2013.97399        -0.84612         4.70381
     2013.97672        -0.27631         4.74096
     2013.97946        -1.63750         4.62693
     2013.98220         0.53431         4.64420
     2013.98494        -4.01387         4.60274
     2013.98767       -10.65206         4.66321
     2013.99041        -9.02525         4.63729
     2013.99315       -10.52844         4.64852
     2013.99589        -3.85163         4.64161
     2013.99863        -6.28482         4.64679
     2014.00410        -0.59919         4.63643
     2014.00684        -8.25038         4.80402
     2014.00958        -1.33357         4.61742
     2014.01232        -5.64476         4.65371
     2014.01505        -1.82695         4.72627
     2014.01779        -5.59713         4.72454
     2014.02053        -1.21732         4.64248
     2014.02327        -1.52551         4.84635
     2014.02600         4.62030         4.73664
     2014.02874         1.33811         4.76515
     2014.03148         4.80692         4.70122
     2014.03422         1.11774         4.63729
     2014.03696        -2.89345         4.61483
     2014.03969        -1.37464         4.59842
     2014.04243        -0.35783         4.75651
     2014.04517         3.74598         4.79625
     2014.04791         0.71580         4.69863
     2014.05065        -0.75639         4.62433
     2014.05338        -1.18258         4.58373
     2014.05612        -4.42077         4.60360
     2014.05886        -4.07796         4.64593
     2014.06160         1.03285         4.64852
     2014.06433         0.08467         4.80316
     2014.06707        -0.87052         4.78070
     2014.06981         1.65529         4.66494
     2014.07255         2.37110         4.80316
     2014.07529         0.57791         4.65716
     2014.07802        -1.29228         4.68653
     2014.08083         2.55760         5.00012
     2014.08350         1.93035         4.80661
     2014.08620        -3.22987         5.12625
     2014.09017        13.93020        19.54695
     2014.09171        -1.66622         5.29038
     2014.09444        -1.86842         5.20659
     2014.09713        -4.77965         5.68604
     2014.09995         2.04024         5.58065
     2014.10272         1.49408         5.22127
     2014.10540         5.25284         4.62174
     2014.10814        -0.55635         4.66148
     2014.11088         2.86846         5.06232
     2014.11364         7.11231         5.10551
     2014.11635         5.32409         4.83166
     2014.11909        -0.53510         4.70899
     2014.12183         2.54371         4.83080
     2014.12457         4.67552         6.27779
     2014.12731        10.83034         4.62952
     2014.13004         2.86215         4.63556
     2014.13278         3.59696         4.84117
     2014.13552         2.11177         4.84808
     2014.13826         1.76258         5.37418
     2014.14099         2.06339         4.66580
     2014.14373         0.09921         4.71677
     2014.14647         3.11202         4.67789
     2014.14921        -2.32817         4.68049
     2014.15195        -4.36336         4.79452
     2014.15468         2.21145         4.78242
     2014.15742         4.15126         4.76601
     2014.16016         7.33108         4.83858
     2014.16290        -1.04011         4.75305
     2014.16564        -4.12030         4.71072
     2014.16837         0.41051         4.91805
     2014.17111        -0.99968         4.84117
     2014.17385        -1.94587         4.91719
     2014.17659         0.31595         4.72800
     2014.17932         3.22576         4.95520
     2014.18206        -5.59443         4.89041
     2014.18480        -0.72762         4.71850
     2014.18754        -5.52381         5.13489
     2014.19028        -5.15100         4.81093
     2014.19301        -3.97518         4.69949
     2014.19575        -5.65437         4.84721
     2014.19849        -0.17356         4.84981
     2014.20123        -5.34175         4.78502
     2014.20397        -4.69294         4.75132
     2014.20670        -0.66413         4.74269
     2014.20944        -0.86831         4.71850
     2014.21218         0.23250         4.75132
     2014.21492         2.41831         4.87486
     2014.21765         0.34712         4.68999
     2014.22039         1.95293         7.30322
     2014.22307        -2.88131         4.85240
     2014.22603        -3.73527         5.12279
     2014.22861         3.80337         4.75737
     2014.23134         4.11918         4.69431
     2014.23408         2.23399         4.66753
     2014.23682        -0.79620         4.74355
     2014.23956        -3.38038         4.95434
     2014.24230        -2.21657         4.77378
     2014.24501        -5.84579         5.17549
     2014.24788         2.08516         5.09774
     2014.25051        -4.44414         4.69949
     2014.25325        -6.38833         4.69949
     2014.25598        -4.22051         4.85153
     2014.25872        -3.15270         4.75564
     2014.26146        -0.31889         4.80748
     2014.26420        -9.40608         4.70640
     2014.26694        -8.50327         4.76083
     2014.26967        -8.31046         4.74873
     2014.27241        -7.02764         4.80316
     2014.27464        -4.10736         6.57583
     2014.28084        -6.13399         5.16858
     2014.28336        -3.09840         4.69258
     2014.28610        -4.36359         4.90337
     2014.28884        -3.46677         4.91719
     2014.29158        -8.53896         4.66926
     2014.29431        -1.65615         4.71418
     2014.29705         1.87066         4.74614
     2014.29979        -2.84153         4.71850
     2014.30253        -3.98471         4.73664
     2014.30527        -5.32390         4.74700
     2014.30800        -5.83609         4.84290
     2014.31074        -1.43828         4.88091
     2014.31348        -6.76547         4.72454
     2014.31622        -2.16166         4.73750
     2014.31895        -2.59984         4.75910
     2014.32169        -5.93203         4.75651
     2014.32443       -11.12622         4.87054
     2014.32717       -11.46541         4.80920
     2014.32991        -4.26960         4.71331
     2014.33264        -6.71679         4.74528
     2014.33538        -6.97197         4.69517
     2014.33812        -3.21516         4.80575
     2014.34086        -2.78735         4.67358
     2014.34360        -4.29854         4.74614
     2014.34633        -7.00273         4.69604
     2014.34907        -8.75192         4.84635
     2014.35181         2.33790         4.84462
     2014.35455        -2.00529         4.68135
     2014.35728        -4.95548         4.66062
     2014.36002        -8.00767         4.68221
     2014.36276        -8.49286         4.66407
     2014.36550        -4.30005         4.68653
     2014.36824        -5.93123         4.75046
     2014.37097        -6.88842         4.91114
     2014.37371        -5.42661         4.71418
     2014.37645        -3.71980         4.68740
     2014.37919        -4.56999         4.76169
     2014.38193        -9.15717         4.74960
     2014.38466        -5.32236         4.73837
     2014.38740        -4.42655         4.72454
     2014.39014        -5.47674         4.73232
     2014.39288        -2.60393         4.73145
     2014.39561        -3.61712         4.75737
     2014.39835        -1.18430         4.78502
     2014.40109        -5.55949         4.79193
     2014.40383        -5.45168         4.74528
     2014.40657        -5.41187         4.80920
     2014.40930        -7.34006         4.72195
     2014.41204        -6.36925         4.69690
     2014.41478        -5.14243         4.67271
     2014.41752        -1.78962         4.67876
     2014.42026        -2.53681         4.70381
     2014.42299        -3.49900         4.64075
     2014.42573        -3.64919         4.67012
     2014.42847         0.73762         4.74700
     2014.43121        -6.16756         4.72454
     2014.43394        -4.15175         4.67530
     2014.43668        -5.47294         4.70036
     2014.43942        -3.35213         4.67358
     2014.44216        -3.86932         4.71418
     2014.44490        -0.39151         4.83858
     2014.44763        -1.62869         4.75478
     2014.45037        -3.16088         4.64593
     2014.45311        -3.49507         4.69604
     2014.45585        -8.58026         4.70554
     2014.45859        -6.35645         4.65889
     2014.46132        -5.36164         4.64593
     2014.46406        -8.55182         4.72022
     2014.46680        -4.66801         4.74528
     2014.46954        -5.49520         4.65889
     2014.47227        -0.46639         4.69517
     2014.47501        -5.83558         4.67876
     2014.47775        -9.48476         4.77983
     2014.48049        -3.78095         4.66321
     2014.48323         2.43186         4.71159
     2014.48596         4.70467         4.85153
     2014.48870         0.03948         4.73405
     2014.49144         1.76729         4.60878
     2014.49418        -1.85889         4.58546
     2014.49692         0.86992         4.63729
     2014.49965        -3.89627         4.66926
     2014.50239         2.41754         4.73664
     2014.50513        -2.13165         4.71763
     2014.50787         1.33116         4.67530
     2014.51060        -4.56702         4.60533
     2014.51334         2.61679         4.62952
     2014.51608         4.80260         4.62779
     2014.51882         1.95841         4.62433
     2014.52156         4.71222         4.72195
     2014.52429         2.81003         4.61224
     2014.52703         4.65485         4.63297
     2014.52977        -0.04434         4.63125
     2014.53251         5.73947         4.69517
     2014.53525         3.68028         4.64248
     2014.53798         7.05709         4.60533
     2014.54072         7.56390         4.75564
     2014.54346         4.23272         4.68049
     2014.54620         7.80753         4.75219
     2014.54893        -4.69166         4.70467
     2014.55167         3.90115         4.63643
     2014.55441        -1.58804         4.66926
     2014.55715         0.87478         4.85067
     2014.55989        -4.83741         4.65543
     2014.56262         2.07940         4.61915
     2014.56536        -0.23779         4.59928
     2014.56810         0.82202         4.64679
     2014.57084        -1.15617         4.62693
     2014.57357        -0.51335         4.64852
     2014.57631         0.76846         4.64507
     2014.57905         1.29227         4.63902
     2014.58179         5.02108         4.81266
     2014.58453         5.68989         4.73923
     2014.58726        -1.43730         4.89041
     2014.59000         6.74852         4.70036
     2014.59274         4.18333         4.74960
     2014.59548         5.83314         4.71245
     2014.59822         3.29095         4.75824
     2014.60095        -0.83324         4.78933
     2014.60369        -0.19043         4.75651
     2014.60643        -3.11961         4.68567
     2014.60917         1.22320         4.76083
     2014.61190         5.27201         4.86190
     2014.61464         6.87182         4.71763
     2014.61738         6.53963         4.83512
     2014.62012         2.95644         4.83339
     2014.62286         0.22426         4.71763
     2014.62559         3.00407         4.71159
     2014.62833         1.15688         4.73837
     2014.63107        13.35669         4.74355
     2014.63381         2.61750         4.86536
     2014.63655         1.72632         4.75996
     2014.63928         0.22213         4.76774
     2014.64202         3.92194         4.67530
     2014.64476         2.75075         4.79020
     2014.64750         3.10956         4.68394
     2014.65023         0.52537         4.72109
     2014.65297         8.57119         4.65803
     2014.65571        11.01900         4.77983
     2014.65845         7.51681         4.67012
     2014.66119        13.00062         4.92496
     2014.66392         4.16543         4.74269
     2014.66666         6.93124         4.72368
     2014.66940         8.31706         4.73664
     2014.67214         5.44187         4.74441
     2014.67488         4.51968         4.65198
     2014.67761         0.73149         4.69690
     2014.68035         3.97930         4.69517
     2014.68309         2.86211         4.69863
     2014.68583         3.10693         4.72368
     2014.68856         4.49774         4.68999
     2014.69130         3.24155         4.71331
     2014.69404         2.76736         4.83858
     2014.69678         2.31217         4.67185
     2014.69952         3.99598         4.65198
     2014.70225         5.13580         4.64679
     2014.70499         4.11561         4.65630
     2014.70773         6.68642         4.71072
     2014.71047         8.74623         4.72973
     2014.71321        11.19404         4.62779
     2014.71594         3.24785         4.70899
     2014.71868         7.08267         4.67358
     2014.72142         8.74948         4.61742
     2014.72416        11.19229         4.73405
     2014.72689         2.93810         4.79365
     2014.72963         7.45291         4.73318
     2014.73237         7.87173         4.77292
     2014.73511         6.02154         4.69344
     2014.73785         6.80035         4.66321
     2014.74058         3.14516         4.90164
     2014.74332        -3.33503         4.95865
     2014.74606         7.42678         4.83080
     2014.74880         2.96660         4.66494
     2014.75154         4.40441         4.74009
     2014.75427         0.94322         4.70381
     2014.75701         6.26003         4.84635
     2014.75975        -0.27516         4.77810
     2014.76249         2.57565         4.66926
     2014.76522        -1.43853         4.74873
     2014.76794         8.37826         4.71763
     2014.77002         6.96239         6.41688
     2014.79015         3.67506         5.31198
     2014.79260         4.88758         4.63384
     2014.79534        11.98739         4.69517
     2014.79808        10.56721         4.79625
     2014.80082         1.71102         4.78156
     2014.80355         5.40483         4.83944
     2014.80629         0.75364         4.74355
     2014.80903        10.25245         4.84894
     2014.81177         7.21227         4.65889
     2014.81451         6.32008         4.69776
     2014.81724        11.14689         4.88523
     2014.81998         5.75070         4.65284
     2014.82272         9.05851         4.93965
     2014.82546        -1.58368         4.78847
     2014.82820        -0.61486         4.61483
     2014.83093         4.93095         4.78588
     2014.83367         7.32176         4.70986
     2014.83641         0.47557         4.68049
     2014.83915         2.15138         5.21695
     2014.84188        -0.16581         4.81611
     2014.84462        -3.04599         4.84117
     2014.84736         6.67682         4.96297
     2014.85010         2.56363         4.70208
     2014.85284         5.21744         4.67789
     2014.85557         4.12725         5.08133
     2014.85830         2.46105         4.79452
     2014.86105        -1.28112         4.69776
     2014.86379        -0.73531         4.67098
     2014.86653         2.87950         4.67789
     2014.86927        -0.58568         4.72973
     2014.87200         0.23312         4.70295
     2014.87474        -2.39907         4.72022
     2014.87748        -1.21825         4.75219
     2014.88021         2.45956         4.72800
     2014.88295        10.08637         4.85153
     2014.88569         0.81518         4.96470
     2014.88843         1.07099         4.95174
     2014.89117        12.70180         5.00098
     2014.89390         4.53062         5.04504
     2014.89664        -1.91557         4.89991
     2014.89938        -1.56276         4.84376
     2014.90212        -5.91395         4.92928
     2014.90485        -9.53714         4.82562
     2014.90759         2.72068         5.04936
     2014.91033         7.43049         4.75392
     2014.91307         3.49530         4.70640
     2014.91581         3.99211         4.71936
     2014.91854         4.86292         4.70208
     2014.92128        -0.35627         4.73750
     2014.92402         3.95255         4.71418
     2014.92676         2.20836         4.81957
     2014.92950        -5.43483         4.79279
     2014.93223        -5.67002         4.71763
     2014.93497        -9.15621         4.76860
     2014.93771        -5.59640         4.95693
     2014.94045        -1.26658         4.80920
     2014.94318         3.30623         4.92237
     2014.94592         1.69804         4.75996
     2014.94866        -8.82615         4.65457
     2014.95140        -4.23734         4.62174
     2014.95414         1.92447         4.67444
     2014.95687         3.89029         4.67876
     2014.95961         4.59210         4.65371
     2014.96235        -2.77309         4.65371
     2014.96509         1.70772         4.74096
     2014.96783        -5.53747         4.65975
     2014.97056         2.18534         4.76947
     2014.97330        -3.65584         4.73059
     2014.97604        -9.61503         4.69172
     2014.97878        -2.89422         4.67617
     2014.98151         3.32059         4.72195
     2014.98425        -1.97960         4.75564
     2014.98699         2.28322         4.68308
     2014.98973         2.26703         4.69085
     2014.99247        -2.53616         4.62433
     2014.99520        -7.56635         4.66666
     2014.99794         0.35446         4.64766
     2015.00068        -3.21173         4.67617
     2015.00342        -4.73891         4.68826
     2015.00616       -11.38410         4.65025
     2015.00889        -4.65729         4.68481
     2015.01163        -6.49648         4.77119
     2015.01437        -2.75267         4.73750
     2015.01711         1.11714         4.82475
     2015.01984         3.44196         4.70813
     2015.02258         0.86177         4.86708
     2015.02532         4.07258         4.71159
     2015.02806         1.10239         4.84203
     2015.03080         2.14720         4.72627
     2015.03353        -2.13199         4.71072
     2015.03627        -3.85417         4.73059
     2015.03901         4.24064         4.75132
     2015.04176         9.31346         4.79020
     2015.04449         0.92226         4.76601
     2015.04722         7.14007         4.83253
     2015.04996         1.16988         4.71331
     2015.05270        -3.84630         4.70727
     2015.05544        -2.42049         4.68653
     2015.05817         0.89032         4.71245
     2015.06091        -0.33687         4.69344
     2015.06365         4.78094         4.78674
     2015.06639         3.39676         4.70640
     2015.06913        -0.64943         4.67444
     2015.07186        -4.63062         4.73750
     2015.07460        -3.15881         4.66926
     2015.07734        -9.62200         4.69431
     2015.08008        -9.18919         4.71072
     2015.08282        -3.58937         4.67185
     2015.08555        -0.58156         4.70036
     2015.08829        -5.24975         4.75996
     2015.09103        -1.39594         4.64248
     2015.09377        -0.55313         4.67617
     2015.09650        -1.30832         4.81611
     2015.09924         5.13450         4.83685
     2015.10198         3.46431         4.70122
     2015.10472        -0.32888         4.71331
     2015.10746         3.18493         4.68308
     2015.11019        -6.27026         4.93447
     2015.11293        -5.95245         5.28779
     2015.11567         0.92537         4.73664
     2015.11841        -4.65482         4.72627
     2015.12115        -5.77501         4.72282
     2015.12388        -3.62720         4.65803
     2015.12662        -7.04039         4.67444
     2015.12936        -3.20458         4.65111
     2015.13210        -2.86676         4.67185
     2015.13483        -5.73395         4.71504
     2015.13757        -3.91914         4.76083
     2015.14031        -7.12533         4.63643
     2015.14305        -4.09852         4.62606
     2015.14579        -3.36271         4.71504
     2015.14852        -2.19089         4.69517
     2015.15126        -2.50408         4.64852
     2015.15400        -3.53827         4.65889
     2015.15674         2.08454         4.65198
     2015.15948         3.76435         4.67617
     2015.16221        -0.58283         4.68481
     2015.16495        -1.27102         4.63816
     2015.16769         0.02579         4.69776
     2015.17043        -1.34440         4.68567
     2015.17316        -0.35259         4.92064
     2015.17590         1.37822         4.78674
     2015.17864        -2.18196         4.70986
     2015.18138         0.75485         4.64679
     2015.18412         2.97666         4.70467
     2015.18685         3.25647         4.70295
     2015.18959         3.55028         4.75478
     2015.19233        -0.26091         4.89473
     2015.19507        -1.20709         4.65630
     2015.19780        -3.26128         4.68567
     2015.20054         0.11653         5.22300
     2015.20328        -3.51766         4.64507
     2015.20601        -7.77285         4.86449
     2015.20876        -1.11804         4.67962
     2015.21149        -6.65422         4.69258
     2015.21423        -7.18541         4.87918
     2015.21697        -3.99960         4.75132
     2015.21971         1.12321         4.63556
     2015.22245        -6.37398         4.61829
     2015.22518        -1.37017         4.69517
     2015.22792        -1.72535         4.65543
     2015.23066        -1.78054         4.67098
     2015.23340        -0.35673         4.76601
     2015.23613        -5.90192         4.78847
     2015.23887        -7.99711         4.88868
     2015.24161         2.63971         4.95174
     2015.24435         0.75352         4.93533
     2015.24709         4.59233         4.79711
     2015.24982        -3.56786         4.60792
     2015.25256        -1.98405         4.66839
     2015.25530        -3.68724         4.64852
     2015.25804        -3.17442         4.69776
     2015.26078         3.11239         4.64766
     2015.26351         3.59020         4.60447
     2015.26625        -3.28199         4.65457
     2015.26899        -2.99518         4.65630
     2015.27173         1.69863         4.77983
     2015.27446         3.18845         4.79279
     2015.27720         2.61826         4.62520
     2015.27994        -5.68293         4.62261
     2015.28268        -1.54812         4.73318
     2015.28542        -3.31831         4.75824
     2015.28815        -6.78850         4.83771
     2015.29089        -2.46868         4.69517
     2015.29363        -3.46887         4.69949
     2015.29637        -5.64406         4.63125
     2015.29911        -0.56625         4.63729
     2015.30184         1.20956         4.65457
     2015.30458        -4.23863         4.66148
     2015.30732        -2.19081         4.54486
     2015.31006        -3.70800         4.58978
     2015.31279        -4.42619         4.53622
     2015.31553        -6.95338         4.60706
     2015.31827        -6.51957         4.55782
     2015.32101        -5.97375         4.55609
     2015.32375        -6.73094         4.54054
     2015.32648        -6.58013         4.63902
     2015.32922        -1.10132         4.68135
     2015.33196        -1.54551         4.51549
     2015.33470        -1.31370         4.50685
     2015.33744        -3.83588         4.50426
     2015.34017        -3.74707         4.63643
     2015.34289        -4.88628         4.56905
     2015.34566        -2.53143         4.52153
     2015.34839        -1.92164         4.51289
     2015.35112        -4.87483         4.51808
     2015.35386        -0.58401         4.52240
     2015.35660        -1.75920         4.48007
     2015.35934        -2.39839         4.57250
     2015.36208        -0.86958         4.57768
     2015.36481        -1.07077         4.53795
     2015.36755        -2.75296         4.49302
     2015.37029        -1.13114         4.47834
     2015.37303        -5.54233         4.53535
     2015.37577        -6.53552         4.51030
     2015.37850        -5.76271         4.62779
     2015.38124        -5.90190         4.51721
     2015.38398        -6.36109         4.48179
     2015.38672        -3.72127         4.48266
     2015.38945        -2.58446         4.48179
     2015.39219        -1.89565         4.48611
     2015.39493        -2.56784         4.49907
     2015.39767        -4.13303         4.59237
     2015.40041        -3.91722         4.49043
     2015.40314        -5.00340         4.59669
     2015.40588        -9.69459         4.53190
     2015.40862        -0.89378         4.56905
     2015.41136         2.28003         4.57077
     2015.41410        -1.46116         4.60706
     2015.41683        -2.56334         4.55522
     2015.41957        -1.46653         4.52326
     2015.42231        -1.04172         4.62433
     2015.42505        -5.93191         4.67876
     2015.42778        -3.05110         4.59237
     2015.43052         1.98271         4.53017
     2015.43326        -4.19847         4.68653
     2015.43600        -0.00466         4.52412
     2015.43874         1.95715         4.52758
     2015.44147        -4.50104         4.72022
     2015.44421        -5.07223         4.54745
     2015.44695        -0.85342         4.51981
     2015.44969        -2.80960         4.53017
     2015.45243        -2.63379         4.65543
     2015.45516        -0.08898         4.72714
     2015.45790        -3.36117         4.72022
     2015.46064        -0.46936         4.66062
     2015.46338        -6.65955         4.68740
     2015.46611         1.65827         4.65284
     2015.46885         2.68908         4.58200
     2015.47159         0.95989         4.60965
     2015.47433        -1.14530         4.68481
     2015.47707        -4.81249         4.69431
     2015.47980        -2.35768         4.61656
     2015.48254         0.63514         4.75824
     2015.48528        -2.15005         4.57423
     2015.48802        -2.26124         4.57250
     2015.49076        -3.77143         4.66062
     2015.49349        -0.98862         4.69172
     2015.49623        -0.51880         4.81007
     2015.49897         4.00101         4.66062
     2015.50171         4.05182         4.55782
     2015.50444         4.23563         4.54745
     2015.50718         0.33044         4.51289
     2015.50992         1.88225         4.57682
     2015.51266        -0.20093         4.55954
     2015.51540         4.66488         4.55782
     2015.51813         4.91469         4.67703
     2015.52087         7.49150         4.55263
     2015.52361        -0.36069         4.67098
     2015.52635         1.24712         4.54486
     2015.52908         7.52994         4.57077
     2015.53182         4.58475         4.57337
     2015.53456         3.35956         4.58028
     2015.53730         6.36537         4.61224
     2015.54004         3.44218         4.62088
     2015.54277         0.73299         4.81871
     2015.54551         9.54081         4.66839
     2015.54825         8.13362         4.91892
     2015.55099        10.00943         4.63038
     2015.55373         8.56424         4.62520
     2015.55646        10.32405         4.62261
     2015.55920        12.64486         4.69863
     2015.56194        11.31768         4.64420
     2015.56468         9.17249         4.64334
     2015.56741         5.16730         4.74269
     2015.57015         7.66011         4.95693
     2015.57289         7.59392         4.95261
     2015.57563         8.64474         4.80661
     2015.57837        11.07255         4.77810
     2015.58110        10.66136         4.82907
     2015.58384        10.42317         4.81439
     2015.58658        12.93498         4.95434
     2015.58932         8.15079         5.14266
     2015.59206         6.24861         4.84894
     2015.59479        10.74442         4.79365
     2015.59753        12.77723         4.78242
     2015.60027        13.72404         4.98457
     2015.60301        11.52485         5.02345
     2015.60574        16.50566         4.92237
     2015.60848        11.49548         4.82735
     2015.61122         9.82029         4.77983
     2015.61396        10.09810         4.78502
     2015.61670        11.32091         4.78329
     2015.61943        11.57572         4.66494
     2015.62217        11.49153         4.71763
     2015.62491        11.61035         4.69604
     2015.62765        14.06916         4.69258
     2015.63039         9.29397         4.78415
     2015.63312        12.93378         5.00271
     2015.63586        16.75959         4.72109
     2015.63860        11.39940         4.70899
     2015.64134        12.24822         4.68999
     2015.64407         8.48603         4.72282
     2015.64681         6.79184         4.81007
     2015.64955        14.49465         4.67703
     2015.65229        12.01246         4.69085
     2015.65503        18.70427         4.76083
     2015.65776         7.34909         4.80229
     2015.66050        11.47490         4.82043
     2015.66324        10.63771         4.68567
     2015.66598        13.94452         4.85326
     2015.66872        15.58633         4.87831
     2015.67145        13.74515         4.77206
     2015.67419         8.01996         4.63125
     2015.67693         6.40077         4.67703
     2015.67967        13.80058         4.89214
     2015.68240         7.86839         4.65371
     2015.68514         5.16920         4.72282
     2015.68788         6.35302         4.73750
     2015.69062        12.11683         4.91632
     2015.69336         7.35264         4.82043
     2015.69609        15.15945         4.67012
     2015.69883        13.90026         4.73145
     2015.70157         7.15907         4.90509
     2015.70431        13.49089         4.89905
     2015.70705        12.06970         4.65457
     2015.70978        11.32351         4.68221
     2015.71252         8.41232         4.66926
     2015.71526        12.05013         4.64939
     2015.71800        11.90094         4.67098
     2015.72073         9.66276         4.83685
     2015.72347         8.71257         4.66234
     2015.72621         6.98238         4.67876
     2015.72895         4.89219         4.69863
     2015.73169         9.27900         4.61310
     2015.73442         8.21181         4.70036
     2015.73702         6.84148         5.06146
     2015.73992        11.35346         4.76428
     2015.74264         9.83325         4.75305
     2015.74538        14.13106         4.83080
     2015.74811         3.99087         4.84981
     2015.75085         4.24169         4.66234
     2015.75359        10.72050         4.70036
     2015.75633         8.41431         4.63556
     2015.75906        10.96312         4.72109
     2015.76180        10.04193         4.71245
     2015.76454         8.96374         4.89214
     2015.76728         4.16356         4.86104
     2015.77002         8.71637         4.82216
     2015.77275        13.09918         4.84203
     2015.77549        12.04199         4.75219
     2015.77823        10.00980         4.67703
     2015.78097        10.67261         4.69085
     2015.78373         9.57946         4.78847
     2015.78644         9.21924         4.75996
     2015.78918         5.66305         4.69776
     2015.79192        13.48186         4.76428
     2015.79466         9.53167         4.70295
     2015.79739         6.76048         4.79711
     2015.80013        12.26630         4.89127
     2015.80287        -1.94489         4.87054
     2015.80561         7.65192         4.69172
     2015.80835         0.27373         4.69431
     2015.81108         3.57954         4.73491
     2015.81382         8.94835         4.88523
     2015.81656         1.64817         5.22646
     2015.81930         8.31698         4.70640
     2015.82203         5.40679         4.81439
     2015.82477        12.21060         4.82130
     2015.82751        17.38141         4.95174
     2015.83025        12.32222         4.90596
     2015.83299         8.38104         5.04159
     2015.83572         6.51985         4.76169
     2015.83846         6.20266         4.80057
     2015.84120         0.65747         4.82130
     2015.84394         4.59528         4.79711
     2015.84668         1.15910         4.81439
     2015.84941         2.86491         4.89214
     2015.85215         6.09472         4.78156
     2015.85489         9.66153         4.87918
     2015.85763         3.28934         4.77724
     2015.86036         6.98415         4.98975
     2015.86310        -2.57403         4.78502
     2015.86584         1.62178         4.81698
     2015.86858         0.99359         4.78933
     2015.87132         4.91540         4.81093
     2015.87405         0.88321         4.99926
     2015.87679        -2.49298         4.82043
     2015.87953         2.06183         5.20054
     2015.88227         4.40465         5.06750
     2015.88501        -3.49654         6.01950
     2015.88774        -0.97473         4.75996
     2015.89048         7.49408         4.77206
     2015.89322         4.68989         4.78761
     2015.89596         7.16571         4.82389
     2015.89869         3.97252         4.74096
     2015.90143        -3.18267         4.77551
     2015.90417        -3.02386         4.80488
     2015.90691        -0.43205         4.76169
     2015.90965         1.25776         4.99321
     2015.91238        -0.62642         4.81525
     2015.91512        -0.63461         4.74441
     2015.91786         1.26320         4.78156
     2015.92060         1.89201         4.78847
     2015.92334         5.03882         4.79538
     2015.92607        -7.32236         4.77378
     2015.92881        -4.69655         4.89041
     2015.93155        -8.90774         5.35517
     2015.93429         5.70307         5.00444
     2015.93702         1.73588         4.96297
     2015.93976        -0.97931         4.98543
     2015.94250        -1.06049         4.92669
     2015.94524        -1.95368         4.87831
     2015.94798         6.54513         4.99407
     2015.95071        10.73294         4.86622
     2015.95345        -0.28625         4.73232
     2015.95619         0.11956         4.83944
     2015.95893        -4.27262         4.98198
     2015.96167         6.14719         4.87572
     2015.96440         4.05000         4.75478
     2015.96714         2.30681         4.81093
     2015.96988         4.62262         4.77378
     2015.97262        12.53943         4.79020
     2015.97535         9.54525         4.79625
     2015.97809         5.08806         4.77638
     2015.98083         2.06687         4.76342
     2015.98357        -8.87832         4.75305
     2015.98631        -6.51551         5.11329
     2015.98904        -2.53270         4.74700
     2015.99178        -2.49488         4.79106
     2015.99452        -2.64507         4.75910
     2015.99726        -0.98526         4.75564
     2016.00000        -1.83845         4.77551
     2016.00273        -4.73764         4.77897
     2016.00547        -3.99182         4.78588
     2016.00821        -9.96401         4.76515
     2016.01095         4.43280         4.78588
     2016.01368         1.10361         4.79020
     2016.01642        -1.37058         4.90423
     2016.01916        -3.13277         5.01567
     2016.02190        -0.50895         4.90077
     2016.02464        -1.12814         4.76515
     2016.02744        -2.55527         4.92496
     2016.03011        -5.61752         4.80748
     2016.03285        -0.02671         4.89300
     2016.03559         1.25910         4.75910
     2016.03833         1.04292         4.85931
     2016.04106         2.27473         4.85413
     2016.04380        -3.05646         5.74306
     2016.04654        -0.74165         4.74787
     2016.04928        -4.41984         4.72714
     2016.05201        -4.15703         4.76083
     2016.05475        -4.92821         4.77810
     2016.05749        -1.53140         4.81266
     2016.06023        -1.72759         4.70467
     2016.06297        -2.38578         4.69517
     2016.06570        -0.44797         4.69863
     2016.06844        -6.92716         4.78242
     2016.07116        -4.17336         5.21004
     2016.07392        -1.15953         5.25583
     2016.07666        -0.10172         4.93360
     2016.07939         6.33309         4.69344
     2016.08213         1.59990         4.80488
     2016.08487         0.02871         4.68481
     2016.08761        -5.98847         4.66839
     2016.09034        -2.71866         5.49512
     2016.09308        -6.41285         4.85326
     2016.09582       -12.00504         4.71418
     2016.09856       -11.88023         4.79193
     2016.10130       -13.46741         4.73405
     2016.10403       -14.27260         4.66839
     2016.10677        -7.71279         4.67271
     2016.10952       -11.09097         4.75824
     2016.11225        -9.70017         5.19795
     2016.11498        -7.91836         4.85931
     2016.11772        -6.97654         4.74355
     2016.12046       -10.41773         5.07096
     2016.12320        -8.74892         4.70295
     2016.12594        -9.73611         4.69949
     2016.12867        -1.69230         4.67876
     2016.13141         2.58651         4.73491
     2016.13415        -2.55567         4.69085
     2016.13689        -6.95986         5.09342
     2016.13957        -6.45411         4.79625
     2016.14239       -13.33521         4.84894
     2016.14510        -8.90043         4.60447
     2016.14784        -9.54662         4.62174
     2016.15058        -6.72780         4.59496
     2016.15331        -7.77299         4.74009
     2016.15605        -6.00218         4.61742
     2016.15879       -10.00837         4.76083
     2016.16153        -6.68556         4.75910
     2016.16427        -8.34875         4.67789
     2016.16700        -7.62893         4.70813
     2016.16974        -5.66412         4.76687
     2016.17248        -7.11731         4.74009
     2016.17522        -2.04850         4.71159
     2016.17796        -4.25769         4.74182
     2016.18069        -3.75687         4.74009
     2016.18343       -11.47106         5.48476
     2016.18617        -1.60925         4.61656
     2016.18891        -7.48044         4.69344
     2016.19164        -1.94763         4.53190
     2016.19438         0.70118         4.53535
     2016.19712        -2.39800         4.54745
     2016.19986        -8.16219         4.87313
     2016.20260        -8.86038         4.95174
     2016.20533        -9.82257         4.95779
     2016.20807        -6.33776         4.75132
     2016.21081        -7.69495         4.64507
     2016.21355        -3.41413         4.62433
     2016.21629       -12.39532         5.29902
     2016.21902        -3.17851         4.60792
     2016.22176        -3.73970         4.59928
     2016.22450       -15.06989         4.67358
     2016.22724       -13.06108         4.80661
     2016.22997        -3.02226         4.52585
     2016.23271        -6.52845         4.60965
     2016.23545        -6.01664         4.58460
     2016.23819        -6.07883         4.49389
     2016.24093        -2.17002         4.57768
     2016.24366        -6.40821         4.55782
     2016.24640        -3.89139         4.60792
     2016.24914        -4.14258         4.55350
     2016.25188        -2.24777         5.23250
     2016.25462        -8.25296         4.77378
     2016.25735        -6.39315         4.64334
     2016.26009       -10.89833         4.59064
     2016.26283       -14.87252         4.58287
     2016.26557        -6.81071         4.53363
     2016.26830        -9.40290         4.53276
     2016.27104        -6.92309         4.60533
     2016.27378        -0.55528         4.54486
     2016.27652        -3.93446         4.56041
     2016.27926        -6.99465         4.54486
     2016.28199        -9.08984         5.05886
     2016.28473        -8.13603         4.60619
     2016.28747        -7.95322         5.01653
     2016.29022        -9.53040         4.58892
     2016.29295       -13.37259         4.62520
     2016.29568        -5.20178         4.61051
     2016.29848        -5.58091         4.75737
     2016.30116        -8.68516         4.72022
     2016.30390       -10.61535         4.58719
     2016.30663        -0.14154         4.59669
     2016.30937        -8.56572         4.59669
     2016.31211        -7.57891         4.58805
     2016.31485        -7.99010         4.74096
     2016.31759        -4.36728         4.58028
     2016.32032        -5.80648         4.59410
     2016.32306       -13.47267         4.60878
     2016.32580        -4.69085         4.58028
     2016.32854        -6.05604         4.54745
     2016.33128        -4.64023         4.56905
     2016.33401        -6.36542         4.64248
     2016.33675        -1.81661         4.67703
     2016.33949        -1.97880         4.59410
     2016.34223        -3.41598         4.61483
     2016.34496        -4.17217         4.72454
     2016.34770        -0.48436         4.66839
     2016.35044        -1.44355         4.98112
     2016.35318        -5.79274         4.59064
     2016.35592       -11.21592         4.56645
     2016.35865       -10.06211         4.53535
     2016.36139        -1.82530         4.57768
     2016.36413        -3.10849         4.63729
     2016.36687        -1.12468         4.60360
     2016.36961         4.59613         4.61397
     2016.37234         3.66895         4.56214
     2016.37508         0.36776         4.60706
     2016.37782       -11.42343         4.60447
     2016.37979        -0.88641         7.01555
     2016.39513        -9.45766         7.72306
     2016.39698         1.63625         4.54313
     2016.39970         2.22604         4.58892
     2016.40246        -4.62013         4.68221
     2016.40520        -3.28331         4.60878
     2016.40794        -7.98950         4.64507
     2016.41067        -9.02269         4.72627
     2016.41341        -5.96988         4.57423
     2016.41615        -5.62707         4.66666
     2016.41889       -12.98226         4.81784
     2016.42162        -6.23544         4.60015
     2016.42436        -4.95463         4.57941
     2016.42710        -0.15182         4.68394
     2016.42984        -4.98001         4.60965
     2016.43258        -1.99420         4.58114
     2016.43531         2.09062         4.68308
     2016.43805        -0.28857         4.52585
     2016.44079        -7.98676         4.59064
     2016.44355        -7.01393         4.63556
     2016.44626        -6.54814         4.57596
     2016.44900        -1.66633         4.60015
     2016.45174         4.70549         4.60965
     2016.45448         4.76830         4.56300
     2016.45722        -1.88889         4.53535
     2016.45995         2.42792         4.56300
     2016.46269        -2.92727         4.65111
     2016.46543        -7.35446         4.56991
     2016.46817        -2.63864         4.57337
     2016.47091        -0.60483         4.68826
     2016.47364         0.08098         4.65284
     2016.47638         2.60279         4.66839
     2016.47912         1.15560         4.68135
     2016.48186        -2.68259         4.79538
     2016.48459        -5.08977         4.60533
     2016.48733        -0.25396         4.69776
     2016.49007         0.58485         4.62520
     2016.49281        -4.85834         4.63211
     2016.49555        -1.36953         4.62779
     2016.49828        -1.76072         4.72800
     2016.50102        -0.56590         4.60533
     2016.50376         1.22891         4.70554
     2016.50650         3.36872         4.69776
     2016.50924        -0.55047         4.62261
     2016.51197        -2.33666         4.59583
     2016.51471         2.89416         4.64334
     2016.51745        -0.30303         4.96729
     2016.52019        -5.05022         4.66494
     2016.52292         1.20859         4.60015
     2016.52566        -0.12160         4.55782
     2016.52840        -4.85379         4.64420
     2016.53114        -3.49597         4.64939
     2016.53389        -2.41115         4.67444
     2016.53661        -1.91235         4.65889
     2016.53935        -0.30054         4.53190
     2016.54209         1.37527         4.55263
     2016.54483         2.67409         4.62261
     2016.54757         0.16990         4.60878
     2016.55030         5.22371         4.64420
     2016.55304         2.45552         4.61656
     2016.55578         3.51633         4.69085
     2016.55852         2.51414         4.56905
     2016.56125         1.68995         4.56732
     2016.56399         6.87077         4.60360
     2016.56673         4.53858         4.63038
     2016.56947         1.26239         4.84203
     2016.57221         4.79520         4.58632
     2016.57494         2.95001         4.72454
     2016.57768         3.62182         4.73405
     2016.58042         3.46764         4.67530
     2016.58316         0.16945         4.64852
     2016.58590        -1.25374         4.75132
     2016.58863        -0.01293         4.59583
     2016.59137        -1.77412         4.60878
     2016.59394         5.47952         4.92410
     2016.59685         3.43951         4.75910
     2016.59959        -1.13968         4.68135
     2016.60233         2.55413         4.66407
     2016.60780         2.07376         4.94742
     2016.61054         2.07357         4.84203
     2016.61334         2.34144         4.78588
     2016.61602         1.47519         4.62606
     2016.61875         3.09401         4.70036
     2016.62149        -6.78718         4.68308
     2016.62423         2.90963         4.68653
     2016.62697         6.67644         4.56645
     2016.62970         1.28725         4.65371
     2016.63244         1.34106         4.79538
     2016.63518         9.10888         4.55695
     2016.63792        12.14069         4.67444
     2016.64065         5.01249         4.70727
     2016.64339         3.10131         4.61483
     2016.64613         1.15612         4.58719
     2016.64887         4.43493         4.80920
     2016.65183         5.54098         5.15216
     2016.65434        -3.28345         4.99926
     2016.65708         2.50536         4.53535
     2016.65982        -2.23982         4.60533
     2016.66256         3.69299         4.66666
     2016.66529         1.87380         4.75219
     2016.66803         5.38661         4.63988
     2016.67077         4.36142         4.71677
     2016.67351        -0.03177         4.55436
     2016.67624         8.17505         4.61310
     2016.67898         6.77886         4.59064
     2016.68172        11.99467         4.55868
     2016.68446         7.73348         4.69172
     2016.68720         9.77829         4.77551
     2016.68993         4.94211         4.62088
     2016.69267         4.31992         4.79452
     2016.69541         5.04873         4.60447
     2016.69815         4.53754         4.64248
     2016.70089         8.37235         4.51808
     2016.70362         6.36316         4.72454
     2016.70636         5.51998         4.88263
     2016.70910         6.86479         4.80229
     2016.71184         5.87260         4.70640
     2016.71457        13.47241         4.61051
     2016.71731        12.82222         4.69949
     2016.72005         6.18803         4.51635
     2016.72279         7.73385         4.65803
     2016.72553         7.26066         4.84549
     2016.72826         6.26047         4.74355
     2016.73100         6.85328         4.63643
     2016.73374         6.33509         4.56645
     2016.73649         3.39191         4.63988
     2016.73921         1.15372         4.81871
     2016.74195         3.24453         4.55868
     2016.74469         3.18634         4.54918
     2016.74743         6.04515         4.64075
     2016.75017         6.90496         4.59928
     2016.75290         7.30277         4.56300
     2016.75564         8.88959         4.72282
     2016.75838        10.81540         4.74355
     2016.76112        11.25521         4.60706
     2016.76386         6.08402         4.64161
     2016.76659         9.02283         4.62261
     2016.76933         9.72164         4.75219
     2016.77207         5.04746         4.69863
     2016.77481         7.80927         4.65111
     2016.77754         4.21608         4.56300
     2016.78028         2.81589         4.65284
     2016.78302         3.70370         4.63988
     2016.78576         0.85952         4.76515
     2016.78850         4.32833         4.77638
     2016.79123         4.35414         4.72973
     2016.79397        10.77595         4.63211
     2016.79671         3.74476         4.62001
     2016.79945        -3.06143         4.57509
     2016.80219        -5.84361         4.76342
     2016.80494         2.52321         4.62952
     2016.80766         4.31100         4.68912
     2016.81040        -2.46918         4.79797
     2016.81314        -2.77937         4.67703
     2016.81587        -0.83356         4.62520
     2016.81861        -4.93775         4.77378
     2016.82136         0.10307         4.96297
     2016.82409         0.58088         4.67876
     2016.82682         0.33869         4.71677
     2016.82956         3.55050         4.62174
     2016.83230         5.31331         4.91114
     2016.83504         0.52213         4.85672
     2016.83778         0.39594         4.81871
     2016.84052        -7.44825         4.72282
     2016.84325        -2.29444         4.63729
     2016.84599        -0.67663         4.89905
     2016.84873         5.14118         4.93274
     2016.85147         3.39500         4.72022
     2016.85420        -1.02719         4.73059
     2016.85694        -1.55638         4.81871
     2016.85968        -2.02357         4.87399
     2016.86242        -3.38076         4.66407
     2016.86516         7.93106         4.84635
     2016.86789        -3.38713         4.77810
     2016.87063        -3.06832         4.81871
     2016.87337         4.01949         4.72109
     2016.87611        -0.24570         4.82735
     2016.87885         0.59111         4.59064
     2016.88158        -5.17407         4.55263
     2016.88432         0.74474         4.62001
     2016.88705         3.46954         4.66753
     2016.88980         0.50136         4.69085
     2016.89253         0.11517         4.58978
     2016.89527        -0.32402         4.69863
     2016.89801        -3.60020         4.58892
     2016.90075        -3.12439         4.62001
     2016.90349        -0.99458         4.83512
     2016.90622         1.43323         4.70986
     2016.90897        15.88705         4.65025
     2016.91170        -3.94115         4.61570
     2016.91444        -0.71433         4.64766
     2016.91991        -8.33971         4.83771
     2016.92265        -2.39790         4.54659
     2016.92539         3.93991         4.57682
     2016.92815        -5.31826         4.60878
     2016.93086        -7.78446         4.61742
     2016.93359        -6.19967         4.62779
     2016.93634         0.01916         4.86190
     2016.94182        -1.06622         4.76428
     2016.94455        -3.60840         4.93447
     2016.94729         1.32941         4.70986
     2016.95003        -2.99378         5.54436
     2016.95368        -1.99603         8.17832
     2016.95551        -4.59916         4.69604
     2016.95824        -0.41235         4.68049
     2016.96098         0.20647         4.66148
     2016.96372        -7.20372         4.86449
     2016.96646         0.59809         4.65111
     2016.96919         3.07090         4.81352
     2016.97193        -6.26529         4.73837
     2016.97467        -0.30248         4.78415
     2016.97740         3.22733         4.69085
     2016.98015         2.96415         4.70813
     2016.98288        -1.87604         4.71159
     2016.98559        -1.95026         4.89041
     2016.98844        -1.30733         4.85844
     2016.99110         2.69439         4.67185
     2016.99384         0.36121         4.60360
     2016.99657         2.13002         4.77897
     2016.99931        -0.70417         4.67012
     2017.00074       -31.46071        90.48854
     2017.00478         1.26645         4.83685
     2017.00752        -4.29974         4.62779
     2017.01300         1.65089         4.81439
     2017.01574         0.78570         4.66148
     2017.01848        -0.84549         4.72973
     2017.02121        -0.46568         4.67185
     2017.02396        -0.40086         4.60187
     2017.02669         1.37495         4.97075
     2017.02943         2.53876         4.60792
     2017.03216        -2.60643         4.60101
     2017.03490        -6.92962         4.71504
     2017.03764        -7.37181         4.68999
     2017.04038        -5.29899         4.62433
     2017.04312        -0.75218         4.69085
     2017.04585        -1.33737         4.80920
     2017.04859         1.76344         5.17722
     2017.05133         7.40425         4.65025
     2017.05407         5.77906         4.64075
     2017.05681         7.22688         4.63470
     2017.05954         0.03269         4.61051
     2017.06228        -0.39950         4.57337
     2017.06501        -5.86569         4.61829
     2017.06777        -5.73087         4.80748
     2017.07049        -4.64107         4.63816
     2017.07323        -8.08425         4.73145
     2017.07597        -9.98644         4.64593
     2017.07870       -12.31464         4.84549
     2017.08145        -7.95282         4.65198
     2017.08419        -9.82700         4.65543
     2017.08692        -5.67220         4.67444
     2017.08966        -2.33738         4.65457
     2017.09240        -5.23357         4.63297
     2017.09514        -0.38776         4.68135
     2017.09787        -5.53995         4.67703
     2017.10061        -3.25114         4.62433
     2017.10335        -1.15933         4.77551
     2017.10609        -7.32351         4.59151
     2017.10882        -3.47670         4.73491
     2017.11156        -5.25889         5.34135
     2017.11430       -11.32408         4.66580
     2017.11704       -14.27827         4.59842
     2017.11978        -7.72645         4.58028
     2017.12251        -8.64164         4.63816
     2017.12525        -5.49383         4.66234
     2017.12799         5.18698         4.60533
     2017.13073         1.10679         4.57077
     2017.13347         1.58260         4.60015
     2017.13620        -2.93158         4.66407
     2017.13894        -1.84477         4.68481
     2017.14168        -4.64696         4.64075
     2017.14444        -8.67012         4.63816
     2017.14715        -6.41134         4.65716
     2017.14990        -4.81752         4.61483
     2017.15263        -0.16571         4.69344
     2017.15536         1.16709         4.63988
     2017.15811         4.41391         4.68481
     2017.16084         3.07572         4.74096
     2017.16358        -5.98547         4.68567
     2017.16632        -3.94966         4.61829
     2017.16906        -6.43284         4.63211
     2017.17180        -0.18803         4.67617
     2017.17454         2.32878         4.62347
     2017.17727         0.25659         4.69604
     2017.18001        -2.96760         4.68049
     2017.18275         2.51121         4.62520
     2017.18548        -6.29497         4.58200
     2017.18822        -4.06516         4.68653
     2017.19096        -8.11535         4.84808
     2017.19370        -3.28654         4.65889
     2017.19644        -5.14673         4.66580
     2017.19917        -6.58191         4.57250
     2017.20191        -2.52710         4.69344
     2017.20463        -9.25432         4.91632
     2017.20739        -8.69948         7.51573
     2017.21013         3.70833         4.69172
     2017.21286        -5.02686         4.64852
     2017.21560        -5.15504         4.56386
     2017.21832         2.95774         4.65975
     2017.22108         1.03658         4.68135
     2017.22381        -4.09161         4.74269
     2017.22655        -4.29180         4.70036
     2017.22929        -6.91299         4.61829
     2017.23203        -5.23417         4.61310
     2017.23477        -3.91236         4.68308
     2017.23750        -8.13555         4.64075
     2017.24025       -10.27273         4.60878
     2017.24298       -10.18593         4.63643
     2017.24572        -9.29312         4.58978
     2017.24846       -10.77730         4.65284
     2017.25121        -7.81547         4.71591
     2017.25393        -6.84668         4.63816
     2017.25667        -5.81887         4.65716
     2017.25941       -11.65706         4.65975
     2017.26214        -3.82125         4.72195
     2017.26486         1.76854         4.70554
     2017.26762        -3.69962         4.65716
     2017.27036        -1.44181         4.58200
     2017.27309        -8.82800         4.85585
     2017.27583        -7.80419         4.75046
     2017.27857        -9.96638         4.79193
     2017.28131        -7.27756         4.70986
     2017.28405       -14.16175         4.69085
     2017.28679       -10.79894         4.62520
     2017.28952       -10.82113         4.58805
     2017.29226        -7.39632         4.67444
     2017.29500       -11.73050         4.62693
     2017.29774       -11.73769         4.73664
     2017.30047       -10.37388         4.66839
     2017.30321        -6.61007         4.61224
     2017.30595        -6.67026         4.63125
     2017.30869        -9.13544         4.67789
     2017.31143        -4.49763         4.66148
     2017.31416       -10.77082         4.61397
     2017.31690        -2.50501         4.55782
     2017.31964       -10.66320         4.72454
     2017.32240       -10.14336         4.79625
     2017.32512       -13.02758         4.68912
     2017.32785       -15.78476         4.80661
     2017.33059       -17.30795         4.62433
     2017.33333        -9.65614         4.58632
     2017.33607       -10.72033         4.67703
     2017.33880        -7.79052         4.76947
     2017.34154        -7.98471         4.85585
     2017.34428       -10.38689         4.61051
     2017.34702        -7.92808         4.60360
     2017.34977        -6.80326         4.57337
     2017.35249        -9.33246         4.61310
     2017.35523       -10.55265         4.83426
     2017.35797        -8.57684         4.62520
     2017.36071        -7.78502         4.73318
     2017.36344        -6.74421         4.60619
     2017.36618        -4.93040         4.65889
     2017.36892        -7.92659         6.44280
     2017.37166        -4.35578         4.74096
     2017.37440        -6.65596         4.57596
     2017.37713        -2.74815         4.78847
     2017.37987        -9.95234         4.72454
     2017.38262        -4.19452         4.63643
     2017.38535        -8.63272         4.55090
     2017.38809        -7.47891         4.57596
     2017.39082        -2.54309         4.81871
     2017.39356         0.36472         4.84808
     2017.39630        -2.37647         4.76947
     2017.39904        -6.45666         4.84981
     2017.40177        -5.88185         4.62174
     2017.40451        -4.52204         4.74096
     2017.40726        -7.24822         4.58719
     2017.41000        -4.88540         4.71936
     2017.41273        -3.06860         4.78329
     2017.41546        -8.83879         4.90423
     2017.41820        -2.88898         4.69258
     2017.42094        -0.92617         4.79020
     2017.42368        -4.36735         4.73491
     2017.42642        -3.96154         4.66753
     2017.42915        -0.90573         4.75219
     2017.43189         0.97108         4.83512
     2017.43463         0.16389         4.72973
     2017.43737         3.12270         4.65716
     2017.44010         1.00152         4.72282
     2017.44284        -1.81667         4.75392
     2017.44558         0.26714         4.71763
     2017.44832         0.90995         4.68308
     2017.45106         3.91676         4.66926
     2017.45379         1.11658         4.69863
     2017.45653        -2.93161         4.79279
     2017.45927        -5.24780         4.71245
     2017.46201        -1.83999         4.62952
     2017.46475        -3.82018         4.58805
     2017.46748        -3.82437         4.71245
     2017.47022        -8.35955         4.63816
     2017.47296        -1.36174         4.64161
     2017.47571        -4.41592         4.99926
     2017.47843        -5.16412         4.63643
     2017.48117        -3.63831         4.96989
     2017.48391        -2.76250         4.64507
     2017.48665         3.17632         4.74182
     2017.48939         0.69913         4.63816
     2017.49212         1.04994         4.67358
     2017.49486        -2.42325         4.79193
     2017.49760        -2.52544         4.59755
     2017.50034        -1.09663         4.66666
     2017.50308         2.88819         4.66926
     2017.50581        -1.16200         4.84462
     2017.50855        -0.89019         4.83771
     2017.51129        -2.94838         4.85067
     2017.51403         1.02343         4.89905
     2017.51676        -4.06676         4.64939
     2017.51950         1.03206         4.74873
     2017.52224         6.00687         4.63643
     2017.52498        -2.57032         4.68221
     2017.52771        -1.36851         4.77551
     2017.53046         1.51431         4.64939
     2017.53319        -1.99689         4.66753
     2017.53593         0.92193         4.72627
     2017.53866        -0.28227         4.59237
     2017.54141         9.93655         4.66234
     2017.54414         1.27936         4.76774
     2017.54688        -1.76283         4.62520
     2017.54962         0.44899         4.70295
     2017.55236        -0.00920         4.63556
     2017.55509         5.41161         4.60360
     2017.55783         3.33842         4.64248
     2017.56059        -2.17774         4.63470
     2017.56311        -1.19016         5.08564
     2017.56878        15.84267         4.61397
     2017.57152        17.82348         4.59669
     2017.57426        15.33729         4.61051
     2017.57700         9.96110         4.58978
     2017.57974         8.12591         4.57077
     2017.58247        15.52173         4.56214
     2017.58521         9.33754         4.58546
     2017.58795         6.18335         4.66839
     2017.59069         9.58316         4.76255
     2017.59342        13.24897         4.65025
     2017.59616         9.63878         4.68049
     2017.59890        10.76960         4.57682
     2017.60164        17.01741         4.61829
     2017.60438         8.13222         4.63125
     2017.60712        12.61104         4.63470
     2017.60985         8.04784         4.73837
     2017.61259        15.41666         4.75996
     2017.61533        15.64247         4.66321
     2017.61807        16.58628         4.66062
     2017.62080        15.76709         4.75824
     2017.62354        14.06190         4.69258
     2017.62628        14.57071         4.81093
     2017.62902        25.75053         4.92410
     2017.63175        12.67534         4.64766
     2017.63449        14.15215         4.59410
     2017.63723        13.19596         4.67617
     2017.63997        16.76077         4.69690
     2017.64271        18.58458         4.68826
     2017.64544        13.56740         4.70122
     2017.64818        13.92421         4.69690
     2017.65092        12.90702         4.56473
     2017.65366        14.61583         4.61224
     2017.65639        16.38864         4.62693
     2017.65913        17.26945         4.64334
     2017.66187        16.46127         4.68481
     2017.66461        20.17508         4.79797
     2017.66735        18.60289         4.81784
     2017.67009        20.73071         4.60619
     2017.67282        19.20751         4.74269
     2017.67556        15.38932         4.59064
     2017.67830        14.90114         4.65889
     2017.68104        13.12495         4.67789
     2017.68377        22.70276         4.82043
     2017.68651        17.81557         4.90509
     2017.68925        21.27038         4.66666
     2017.69199        19.27219         4.64420
     2017.69472        22.26901         4.62433
     2017.69746        19.59282         4.75824
     2017.70020        18.32463         4.79970
     2017.70294        24.79644         4.89473
     2017.70568        16.73525         4.71245
     2017.70841        17.52106         4.65198
     2017.71115        20.62888         4.79797
     2017.71389        24.45369         4.76428
     2017.71663        29.31550         4.68653
     2017.71937        19.31131         4.60792
     2017.72210        20.98712         4.67962
     2017.72484        17.69694         4.58892
     2017.72758        21.41775         4.69431
     2017.73032        18.85356         4.60792
     2017.73305        18.46937         4.59151
     2017.73579        15.59018         4.65543
     2017.73853        19.63199         4.98543
     2017.74126        15.07280         4.64507
     2017.74401        16.30562         4.79884
     2017.74674        16.26243         4.76083
     2017.74948        20.66424         4.65889
     2017.75222        18.70305         4.67012
     2017.75496        17.84686         4.60274
     2017.75770        16.38368         4.70727
     2017.76043        17.24149         4.64593
     2017.76318        22.55230         4.65889
     2017.76591        25.24111         4.78242
     2017.76865        21.86092         4.67703
     2017.77138        17.14273         4.62779
     2017.77412        17.55755         4.81957
     2017.77686        21.54736         4.65889
     2017.77960        19.96617         4.70467
     2017.78234        20.24698         4.69949
     2017.78507        15.20379         4.66926
     2017.78781        14.15260         4.68653
     2017.79054        19.13741         4.75046
     2017.79329        19.01123         4.76083
     2017.79603        17.37304         4.62088
     2017.79876        26.10985         4.75824
     2017.80150        19.52066         4.70986
     2017.80424        20.51948         4.58978
     2017.80600        18.76229         9.01456
     2017.81093        17.48735        13.15339
     2017.81245        10.93191         4.59323
     2017.81519        13.73472         4.72627
     2017.81793        14.03653         4.62174
     2017.82067         9.37835         4.68912
     2017.82340        16.90116         4.58200
     2017.82614        13.54297         4.52931
     2017.82808        10.54796         7.28248
     2017.83256        23.75356         8.05393
     2017.83436        12.81640         4.73059
     2017.83709        19.64522         4.67703
     2017.83983        15.57203         4.60792
     2017.84141         3.43465        11.94224
     2017.84918        18.78162        11.18375
     2017.85078        13.89127         4.63988
     2017.85247        21.95300         9.48105
     2017.87391        31.90502        15.72861
     2017.87542        15.44558         4.62261
     2017.87816        19.10739         4.64248
     2017.88090        18.54620         4.55609
     2017.88355        19.59392         4.80748
     2017.90111        21.57596         9.79723
     2017.90272        13.15761         4.95779
     2017.91214        15.68329        12.81216
     2017.91375        14.31394         4.85240
     2017.92853        14.40212        10.24213
     2017.93018         7.85081         4.65716
     2017.93190        13.92658         9.18906
     2018.20494        13.96599        10.46501
     2018.20670         7.54379         5.59620
     2018.20945         5.31761         5.33531
     2018.21218         3.33642         4.76774
     2018.21492        -8.60077         4.61742
     2018.21765         9.88604         4.79452
     2018.22039         6.43686         4.54659
     2018.22313         4.37967         4.56214
     2018.22587         0.41448         4.52067
     2018.22861        -2.50471         4.53449
     2018.23134         1.08410         4.52931
     2018.23408        -1.77208         4.54572
     2018.23682        -0.07027         4.55263
     2018.23956         4.51254         4.54745
     2018.24230         1.72235         4.53622
     2018.24503         3.42316         4.54054
     2018.24777         4.77097         4.54313
     2018.25051        15.59979         4.57337
     2018.25325        -0.68140         4.56214
     2018.25598         5.28441         4.49994
     2018.25872         3.36022         4.65025
     2018.26146         5.45903         4.65716
     2018.26419         3.12284         4.75305
     2018.26694         1.50866         4.66321
     2018.26967        -2.74253         4.84290
     2018.27242         4.85029         4.67530
     2018.27515         9.59409         4.59842
     2018.27789         4.77190         4.83858
     2018.28039         4.56847         5.44761
     2018.28336         0.04853         4.59842
     2018.28610         3.16834         4.49734
     2018.28884         7.55115         4.48352
     2018.29158         7.29196         4.62001
     2018.29431        -0.56823         4.57423
     2018.29705         2.98158         4.54054
     2018.29979         2.63040         4.57337
     2018.30253        -3.51079         4.59323
     2018.30527         2.15802         4.45674
     2018.30800         1.05883         4.53363
     2018.31074         1.06164         4.47661
     2018.31348         5.78246         4.49216
     2018.31622         1.96527         4.47402
     2018.31895         7.68508         4.55868
     2018.32169         1.89289         4.66407
     2018.32443         2.57270         4.55090
     2018.32717         1.80851         4.51808
     2018.32991         4.13033         4.63470
     2018.33166         3.57113         8.61977
     2018.33538         0.76095         4.85240
     2018.33812         2.33176         4.68826
     2018.34086         6.38257         4.52585
     2018.34360         4.25938         4.53535
     2018.34633         2.35720         4.47402
     2018.34907         2.65001         4.47143
     2018.35181         8.48582         4.52326
     2018.35455         6.20763         4.50512
     2018.35728         8.01344         4.47575
     2018.36002         6.51725         4.51203
     2018.36276         9.30907         4.53104
     2018.36550         7.77488         4.47316
     2018.36824         5.09269         4.50080
     2018.37097         8.24150         4.61483
     2018.37371         6.96631         4.47920
     2018.37645         7.71712         4.61742
     2018.37919         7.22694         4.47575
     2018.38193         7.24775         4.46884
     2018.38466        11.44356         4.47316
     2018.38740        11.35437         4.48352
     2018.39014        10.64418         4.51289
     2018.39288         7.47200         4.53104
     2018.39561         7.60381         4.46624
     2018.39835        11.26062         4.56473
     2018.40109        11.45343         4.50857
     2018.40383        10.60924         4.53881
     2018.40657        13.58605         4.52153
     2018.40930        16.64787         4.56991
     2018.41204        17.04768         4.52844
     2018.41478         9.18949         4.48871
     2018.42299         9.05592         4.56991
     2018.42573        14.62374         4.50253
     2018.42847        14.81655         4.48179
     2018.43121         8.52036         4.50426
     2018.43394         8.69317         4.48525
     2018.43668        10.95098         4.55350
     2018.43942        11.53179         4.54399
     2018.44216        10.48961         4.46711
     2018.44490         9.72542         4.49389
     2018.44763         9.45423         4.71677
     2018.45037        12.37304         4.51721
     2018.45311        10.05685         4.48179
     2018.45585        12.84866         4.46020
     2018.45859         7.74148         4.50512
     2018.46132         7.12329         4.50857
     2018.46406        10.64310         4.50857
     2018.46680        10.56591         4.50512
     2018.46954        10.42672         4.52326
     2018.47227        11.84653         4.54831
     2018.47501         9.46635         4.48007
     2018.47775        14.61016         4.49475
     2018.48049        12.33397         4.57250
     2018.48323        14.54578         4.48352
     2018.48596         8.49759         4.51549
     2018.48870         9.52241         4.49389
     2018.49144        11.57422         4.46970
     2018.49418        13.23903         4.59755
     2018.49692        15.83884         4.73750
     2018.49965         4.09865         4.52585
     2018.50239         9.14446         4.46797
     2018.50513         9.13028         4.56300
     2018.50787        13.25309         4.50685
     2018.51060        12.95890         4.55177
     2018.51334        15.99071         4.49648
     2018.51608        13.85952         4.47316
     2018.51882        11.72133         4.53363
     2018.52156        14.72615         4.52067
     2018.52429        11.97996         4.50685
     2018.52703        12.50677         4.48525
     2018.52977         8.11058         4.51203
     2018.53251        15.36739         4.51721
     2018.53525        13.95520         4.46020
     2018.53798         8.67602         4.44206
     2018.54072        10.61883         4.48698
     2018.54346        15.12764         4.61829
     2018.54620        15.46545         4.46279
     2018.54893        10.36326         4.48266
     2018.55167         9.03107         4.53708
     2018.55441        13.11289         4.47575
     2018.55715        12.69270         4.67012
     2018.55989        12.53351         4.61570
     2018.56262        12.71932         4.52240
     2018.56536         9.94813         4.49907
     2018.56810        12.61795         4.48179
     2018.57084        14.46776         4.48439
     2018.57357         8.69457         4.65198
     2018.57631         8.86738         4.84117
     2018.57905         8.17419         4.75392
     2018.58179        13.86700         4.55436
     2018.58453        15.15082         4.63297
     2018.58726        15.29763         4.49130
     2018.59000        16.28644         4.48957
     2018.59274        11.50625         4.49216
     2018.59548        13.83306         4.49302
     2018.59822        16.55487         4.49216
     2018.60095        17.77569         4.52585
     2018.60369        12.35150         4.52844
     2018.60643        16.16231         4.67271
     2018.60917        18.48312         4.53708
     2018.61190        17.15293         4.47920
     2018.61464        18.08574         4.50339
     2018.61738        20.23756         4.49994
     2018.62012        19.78737         4.48352
     2018.62286        13.35918         4.56645
     2018.62559        14.85799         4.56127
     2018.62833        15.91280         4.46452
     2018.63107        16.12861         4.49562
     2018.63381        20.93143         4.60187
     2018.63655        13.90624         4.51462
     2018.63928        19.70005         4.67098
     2018.64202        11.86686         4.79106
     2018.64476        19.56867         4.50944
     2018.64750        16.37549         4.49043
     2018.65023        19.94730         4.57164
     2018.65297        18.74911         4.58114
     2018.65571        17.63192         4.47834
     2018.65845        15.94473         4.50685
     2018.66119        17.59154         4.52844
     2018.66392        18.40336         4.47748
     2018.66666        16.88417         4.49562
     2018.66940        13.16898         4.50426
     2018.67214        16.18979         4.55609
     2018.67488        16.08360         4.53190
     2018.67761        16.39041         4.51549
     2018.68035        14.93723         4.55263
     2018.68309         7.51704         4.59583
     2018.68583        17.04485         4.59410
     2018.68856        16.69166         4.54486
     2018.69130        17.85047         4.67789
     2018.69404        17.09128         4.64075
     2018.69678        11.32510         4.61829
     2018.69952        14.85291         4.49130
     2018.70225        11.50772         4.64507
     2018.70499        10.87653         4.51376
     2018.70773         4.84234         4.65803
     2018.71047        11.15715         4.51808
     2018.71321        13.51297         4.49216
     2018.71594        16.01778         4.48871
     2018.71868        11.95059         4.52240
     2018.72142        10.54740         4.56041
     2018.72416        14.60821         4.68740
     2018.72689        10.04202         4.51462
     2018.72963        16.30884         4.48611
     2018.73237        12.11465         4.48352
     2018.73511        11.11446         4.52931
     2018.73785        17.93027         4.53190
     2018.74058         8.38708         4.48611
     2018.74332        16.16890         4.50857
     2018.74606        11.81371         4.48179
     2018.74880        16.49852         4.62174
     2018.75154        13.82533         4.79884
     2018.75427        15.76714         4.48266
     2018.75701        16.09295         4.58460
     2018.75975        14.93177         4.48266
     2018.76249        14.45558         4.48093
     2018.76522        12.25739         4.59842
     2018.76796        14.61420         4.52067
     2018.77070        15.43301         4.65803
     2018.77344        16.03582         4.49130
     2018.77618        14.98064         4.46538
     2018.77891        15.26545         4.50253
     2018.78165        13.13326         4.57337
     2018.78439        15.38807         4.48266
     2018.78713        15.39788         4.47748
     2018.78987         6.72369         4.53535
     2018.79209        12.99898         5.85881
     2018.79534        19.08032         4.45847
     2018.79808        11.81213         4.48439
     2018.79990        10.13800         7.76194
     2018.80355        15.54775         4.48698
     2018.80629        16.69156         4.64939
     2018.80903        16.90238         4.49648
     2018.81177        19.63419         4.76342
     2018.81451        17.28800         4.69172
     2018.81724        15.14281         4.69431
     2018.81998        18.83262         5.17635
     2018.82272         9.41744         7.91657
     2018.82546        12.89125         6.42206
     2018.82820         8.66206         5.72059
     2018.83033        10.37925         6.17327
     2018.83746        27.61658         9.13032
     2018.83915        15.47131         4.48179
     2018.84188        18.11912         6.93261
     2018.84462        14.48993         4.62001
     2018.84736        14.66074         4.52844
     2018.85010        15.11655         4.51549
     2018.85284         9.63536         4.47488
     2018.85557         8.67218         4.72022
     2018.85831         8.01599         4.49389
     2018.86105         8.53980         4.49130
     2018.86379         8.05461         4.61224
     2018.86653        14.71442         4.51635
     2018.86926        11.96523         4.61829
     2018.87200         9.56105         4.48698
     2018.87474        12.89486         4.53104
     2018.87748        10.14167         5.67999
     2018.88021        13.08348         4.73059
     2018.88295        14.92429         4.57509
     2018.88569        12.02310         4.54918
     2018.88843        17.94192         4.63125
     2018.89117        13.26273         4.61915
     2018.89390        11.23054         5.35258
     2018.89568        17.29337         8.80464
     2018.90582        22.80077        11.06454
     2018.92234        11.61674         9.28841
     2018.92402        13.45047         5.65148
     2018.92676        15.23428         5.83635
     2018.92950        20.25509         7.42502
     2018.93206        22.34673        11.42737
     2018.93497        13.77872         4.66926
     2018.93771        14.66753         4.60792
     2018.94045        16.33434         5.82080
     2018.94211        25.43404        10.10736
     2018.95248        15.51469         9.96655
     2018.95414        22.55440         4.57768
     2018.95596        19.73127         8.19560
     2018.96064        14.84208         9.06380
     2018.96235        22.95383         6.14303
     2018.97183        38.39057        20.01862
     2018.97330         9.82708         4.55609
     2018.97998        24.47094        13.14994
     2018.98073         7.59370         7.36542
     2018.98802         3.35119         9.19165
     2018.98966         6.94788         4.65198
     2018.99621         3.41260         8.88584
     2018.99794         2.23139         4.58632
     2019.00068         1.96120         4.59064
     2019.00342         5.43601         4.58719
     2019.00616         5.01482         4.58373
     2019.00889         9.16563         4.72282
     2019.01039        -5.05383        16.72639
     2019.01813         2.97212         9.04393
     2019.01984         3.21088         4.58892
     2019.02175         4.18784         7.75934
     2019.02633         3.63954         9.28582
     2019.02806         9.08631         7.16413
     2019.03080         5.95913         5.77415
     2019.03353         3.65794         4.53363
     2019.03627        -2.12425         4.48957
     2019.03901        10.26956         4.47229
     2019.04175         6.41337         4.49302
     2019.04449        14.90218         4.51030
     2019.04722         9.18900         4.60965
     2019.04996         3.25181         9.46550
     2019.05270        -0.51038         8.36060
     2019.05544         1.64743         6.93261
     2019.05817         2.23824         4.81957
     2019.06744        -5.65624         9.51042
     2019.06913         3.71949         4.60015
     2019.07183         6.57626         4.67012
     2019.07568        -0.13978        10.13587
     2019.07734        10.31293         4.52758
     2019.08008        10.60174         4.46624
     2019.08282         9.24855         4.63384
     2019.08555        11.20336         4.49821
     2019.08829         8.79717         4.50944
     2019.09103        13.71798         4.48179
     2019.09377        15.98980         4.48007
     2019.09650        14.82861         4.82389
     2019.09924         9.34342         4.46797
     2019.10198         4.90123         4.46279
     2019.10472        11.23504         4.50685
     2019.11019        20.60067         4.52240
     2019.11293        24.87848         4.56645
     2019.11567        10.59229         4.80143
     2019.11841        20.73210         4.51030
     2019.12115        23.65591         4.63902
     2019.12388        16.81572         8.56361
     2019.12662        12.85354         4.69863
     2019.12936         8.87035         4.50339
     2019.13210         6.92616         4.52844
     2019.13483         4.08997         4.55004
     2019.13757         9.90578         7.23152
     2019.14031         7.75259         5.04850
     2019.14305        17.67941         4.53708
     2019.14579         5.97622         4.53881
     2019.14852         8.52103         4.53190
     2019.15126         9.27884         4.50598
     2019.15400         5.65865         4.48957
     2019.15674         7.66946         4.52758
     2019.15948         5.16128         4.45242
     2019.16221         0.63309         4.60706
     2019.16495         3.69790         4.49216
     2019.16769         0.15771         4.46193
     2019.17043         1.79052         4.54140
     2019.17316         4.69334         4.51635
     2019.17590         4.22615         4.51635
     2019.17864         5.82296         4.53535
     2019.18138         5.77777         4.49043
     2019.18412        -2.75142         4.47661
     2019.18685         6.08439         4.49130
     2019.18959         4.21021         4.58373
     2019.19233         5.26202         4.50253
     2019.19507         6.26283         4.48093
     2019.19780         2.64164         4.48698
     2019.20054         2.67445         4.58373
     2019.20328        -0.21174         4.51549
     2019.20602        -2.14192         4.72714
     2019.20876        -0.96211         4.49130
     2019.21149         1.89570         4.50253
     2019.21423         5.06751         4.47920
     2019.21697         4.64332         4.48093
     2019.21971         6.42613         4.69085
     2019.22245         3.09495         4.48093
     2019.22518         7.75576         4.46797
     2019.22792         8.47757         4.46279
     2019.23066         4.25438         4.47834
     2019.23340         6.28719         4.48611
     2019.23613         1.56200         4.51981
     2019.23887         2.91182         4.49562
     2019.24161         1.08463         4.75132
     2019.24435         6.22144         4.60015
     2019.24709         2.18925         4.53708
     2019.24982         5.86406         4.54831
     2019.25256         5.91588         4.59237
     2019.25530         3.05369         4.54313
     2019.25804         3.95850         4.52326
     2019.26078         8.62731         4.48352
     2019.26351         6.62612         4.55004
     2019.26625         3.04293         4.51203
     2019.26899         3.28475         4.60878
     2019.27173         2.87756         4.71418
     2019.27446         3.36337         4.47575
     2019.27720         4.52818         4.55004
     2019.27994         7.85299         4.50685
     2019.28268         1.30380         4.65284
     2019.28542         8.34362         4.48784
     2019.28815         6.68443         4.46279
     2019.29089         5.33824         4.49475
     2019.29363         7.34605         4.49648
     2019.29637         2.04486         4.59151
     2019.29911         4.94267         4.51808
     2019.30184         5.40149         4.53535
     2019.30458         0.85530         4.45069
     2019.30732         7.18611         4.50944
     2019.31006         8.54292         4.55090
     2019.31279         3.60573         4.57596
     2019.31553        15.56654         4.51721
     2019.31827         8.51936         4.59410
     2019.32101         6.42917         4.47402
     2019.32375        -2.97702         4.50253
     2019.32648         0.64479         4.50253
     2019.32922         1.08360         4.51117
     2019.33196         4.94142         4.59669
     2019.33470         6.28023         4.57077
     2019.33744         8.09004         4.51462
     2019.34017         3.22585         4.49389
     2019.34291         6.00466         4.52499
     2019.34565         3.03447         4.61829
     2019.34839         1.89129         4.58028
     2019.35112         3.56410         4.44638
     2019.35386         2.34091         4.48525
     2019.35660         6.25272         4.52585
     2019.35934        10.91653         4.57337
     2019.36208         7.52834         4.53795
     2019.36481         9.15716         4.48871
     2019.36755         7.42897         4.49389
     2019.37029         7.66178         4.50685
     2019.37303        10.87259         4.55782
     2019.37577         4.87740         4.61397
     2019.37850         5.61521         4.54831
     2019.38124        10.71803         4.50771
     2019.38398        10.10384         4.50598
     2019.38672        10.73165         4.53190
     2019.38945         2.06746         4.59583
     2019.39219         9.51927         4.72973
     2019.39493         8.51608         4.47748
     2019.39767         7.60590         4.46365
     2019.40041         9.25971         4.47748
     2019.40314         9.32652         4.48266
     2019.40588        12.00933         4.53276
     2019.40862         6.31614         4.51030
     2019.41136         8.94795         4.50253
     2019.41410         9.62577         4.51635
     2019.41683         7.22758         4.62433
     2019.41957        12.77939         4.54918
     2019.42231         5.83220         4.51721
     2019.42505        12.01501         4.63211
     2019.42778        13.40683         4.64766
     2019.43052         8.65564         4.86881
     2019.43326         5.87545         4.48957
     2019.43600         6.47226         4.56473
     2019.43874         1.21207         4.62952
     2019.44147         2.98988         4.56473
     2019.44421         6.16770         4.56473
     2019.44695         4.23151         4.63816
     2019.44969         8.44132         4.61829
     2019.45243         4.76513         4.60101
     2019.45516         7.72294         4.56818
     2019.45790         6.48475         4.55004
     2019.46064         3.95457         4.63211
     2019.46338         7.69138         4.78588
     2019.46611        12.79419         4.81093
     2019.46885        12.55000         4.79797
     2019.47159         7.82681         4.59755
     2019.47433         9.30062         4.73837
     2019.47707        12.05644         4.61051
     2019.47980         6.92725         4.62088
     2019.48254        13.97306         4.64679
     2019.48528         9.89187         4.62001
     2019.48802         6.69268         4.59928
     2019.49076         7.49549         4.50426
     2019.49349         8.01831         4.51289
     2019.49623         3.38612         4.54399
     2019.49897         4.52093         4.56127
     2019.50171         9.35274         4.49648
     2019.50444         7.45155         4.70986
     2019.50718         5.84737         4.50771
     2019.50992        10.24818         4.59669
     2019.51266         9.22399         4.49216
     2019.51540        12.02280         4.50857
     2019.51813         7.94761         4.54831
     2019.52087         3.77442         4.59583
     2019.52361         4.79724         4.54313
     2019.52635        10.38305         4.52585
     2019.52908         8.30086         4.69258
     2019.53182         8.14867         4.62693
     2019.53456         6.67748         4.63556
     2019.53730        13.44429         4.66321
     2019.54004        12.01111         4.68481
     2019.54277        11.63392         4.66753
     2019.54551         6.47673         4.80920
     2019.54825        10.48054         4.55695
     2019.54982        15.34016        11.55349
     2019.55373         6.62916         4.84808
     2019.55646         8.25598         4.67185
     2019.55920         6.25279         4.71245
     2019.56194         9.79160         4.51721
     2019.56468         8.55441         4.60619
     2019.56741         6.18522         4.63384
     2019.57015         6.26203         4.51549
     2019.57289         8.20985         4.58978
     2019.57563        11.07166         4.55263
     2019.57837        14.18747         4.60706
     2019.58110         8.27228         4.57250
     2019.58384         9.36209         4.86795
     2019.58658         6.83391         4.53276
     2019.58932        10.04072         4.53449
     2019.59206        14.25153         4.58978
     2019.59479        10.56034         4.48957
     2019.59753        15.10915         4.70899
     2019.60027        11.50296         4.71245
     2019.60301        10.74478         4.54486
     2019.60574         7.81959         4.88004
     2019.60848        12.91040         4.76947
     2019.61122         8.10721         4.49562
     2019.61396         9.97202         4.68049
     2019.61670        10.67883         4.53104
     2019.61943         9.82165         4.50512
     2019.62217        11.45346         4.66062
     2019.62491        12.66427         4.48611
     2019.62765        15.68408         4.55004
     2019.63039        16.33089         4.55263
     2019.63312         9.96470         4.55954
     2019.63586        15.37052         4.71418
     2019.63860         7.68333         4.55004
     2019.64134         5.81314         4.65111
     2019.64407         6.69595         4.86708
     2019.64681         9.47776         4.55782
     2019.64955         8.99857         4.53363
     2019.65229        16.38039         4.59928
     2019.65503         9.27320         4.62088
     2019.65776        14.41401         4.77551
     2019.66050        10.63182         4.67098
     2019.66324        14.86463         4.63816
     2019.66598         7.61644         4.55868
     2019.66872        10.26326         4.55090
     2019.67145         8.14007         4.54572
     2019.67419        13.16988        19.86140
     2019.67695        14.08671         4.77551
     2019.67967        11.92250         4.67789
     2019.68240        10.01532         4.54831
     2019.68514         5.50913         4.77897
     2019.68788        12.47694         4.60706
     2019.69062        10.46175         4.59237
     2019.69336         6.53856         4.52153
     2019.69609         9.79537         4.58114
     2019.69883        19.29319         4.89041
     2019.70157         6.93600         4.54227
     2019.70431         7.85181         4.62088
     2019.70705         9.53762         4.56732
     2019.70978        12.36143         4.69258
     2019.71252         3.26424         4.52326
     2019.71526         8.45606         4.49302
     2019.71800         9.61687         4.70208
     2019.72073        10.21168         4.77810
     2019.72347         8.62949         4.56300
     2019.72621         3.25930         4.62952
     2019.72895        13.48211         4.55522
     2019.73169        10.30593         4.53276
     2019.73442        24.97574         4.85585
     2019.73716        17.98555         4.58460
     2019.73990        16.87436         4.70122
     2019.74264        14.93417         4.57423
     2019.74538        10.52598         4.48871
     2019.74811        11.20080         4.60706
     2019.75085        11.29261         4.61742
     2019.75359        14.75342         4.77897
     2019.75633        14.97923         4.67876
     2019.75906        12.06604         4.54140
     2019.76180        10.08886         4.49648
     2019.76454        12.84267         4.61483
     2019.76728        14.69348         4.73750
     2019.77002        10.96629         4.58978
     2019.77275         8.92410         4.72973
     2019.77549        13.95091         4.60015
     2019.77823        11.23073         4.64507
     2019.78097        12.62754         4.66753
     2019.78371        12.34035         4.59496
     2019.78644        13.35716         4.67444
     2019.78918        19.07797         4.86622
     2019.79192        22.47278         4.65716
     2019.79466        15.08860         4.89732
     2019.79739        21.42441         4.62865
     2019.80013        17.64522         4.62779
     2019.80157       -10.83830        38.02873
     2019.80658        17.71784         8.23534
     2019.80835        11.14465         4.57337
     2019.81108        11.50747         4.61483
     2019.81382        11.43028         4.84981
     2019.81656        15.99709         4.60015
     2019.81930        10.71890         4.56991
     2019.82203         9.17971         4.61829
     2019.82477         7.31352         4.74269
     2019.82751         5.08634         4.60274
     2019.83025         9.10915         4.71677
     2019.83299         9.30296         4.72454
     2019.83572        11.62377         4.63384
     2019.83846        16.40958         4.61915
     2019.84120        15.04139         4.57855
     2019.84394        11.13721         4.71850
     2019.84668         8.15002         4.61829
     2019.84941        15.22383         4.60619
     2019.85215        13.24964         4.60447
     2019.85489        15.40445         4.73232
     2019.85763        10.13827         4.58978
     2019.86036         6.88408         4.66753
     2019.86310        15.48589         4.63297
     2019.86532        19.08416         6.19227
     2019.86978        30.05475        13.11452
     2019.87132        13.39332         6.49204
     2019.87303        19.68109         9.35320
     2019.88351        16.26284        14.67468
     2019.88501        19.39838         4.58632
     2019.88774        15.67719         4.72886
     2019.89048        20.10501         4.58373
     2019.89322        21.00682         4.78070
     2019.89596        15.68663         5.65926
     2019.89869        20.29244         4.55004
     2019.90143        18.71425         4.57509
     2019.90417        16.51706         4.62001
     2019.90691        16.81988         4.55868
     2019.90965        12.78369         4.54227
     2019.91146        17.04655         8.09798
     2019.91845        19.80073         5.94779
     2019.92060        20.01293         4.59064
     2019.92990         9.78149        10.17302
     2019.93155        12.55818         4.57596
     2019.93429        16.20599         4.56559
     2019.93702        14.04081         4.58114
     2019.93976        13.77462         4.64075
     2019.94156        11.13746         8.55498
     2019.94640        10.84744        11.75910
     2019.94798         5.23305         7.16672
     2019.95071        12.57986         4.77638
     2019.95345        16.26168         8.06948
     2019.95619        16.05449         4.56041
     2019.95770        -1.35597        16.54066
     2019.97640         6.84424         9.30482
     2019.97809        10.04398         4.57682
     2019.98022         8.99016         6.36073
     2019.98468        11.07275        10.24731
     2019.98573        11.55982         6.19918
     2019.99005         8.01026         9.02233
     2019.99084        -0.59593         8.69320
     2020.00111        15.33362        10.65247
     2020.00273        15.09029         4.61656
     2020.00417        25.35776        29.75452
     2020.00924        21.29196         9.54152
     2020.01095        12.66172         6.05146
     2020.01299         5.03382         7.18487
     2020.01758        -1.28347        12.56250
     2020.01791         6.25287        17.13846
     2020.02848        25.56273        10.91250
     2020.03011         6.03740         6.70801
     2020.03179        10.89913        10.50388
     2020.03663         1.78710         8.92558
     2020.03833        10.87084         4.49821
     2020.04106         8.54165         4.68653
     2020.04380         4.74246         4.59669
     2020.04654         4.61027         7.88633
     2020.04928        -0.25391         6.39615
     2020.05091         2.95276        10.93928
     2020.06150        14.44664        19.55472
     2020.06297         7.67314         4.60274
     2020.06570         5.97796         4.54918
     2020.06844         4.77877         4.69517
     2020.07118         8.82258         4.53363
     2020.07392         6.17539         4.61483
     2020.07666         6.28020         4.50771
     2020.07939         5.03401         4.53967
     2020.08213        12.30983         4.53881
     2020.08487         8.33564        11.29174
     2020.08761        10.99145         7.25138
     2020.09034         9.33126         4.48093
     2020.09308         6.28607         4.52585
     2020.09582         8.17188         4.53535
     2020.09754        18.39765        10.04344
     2020.10262        23.12087        98.33686
     2020.10403         4.42432         6.13785
     2020.10677         2.03113         5.39664
     2020.10951        -0.07706         4.53190
     2020.11225         8.90676         4.51030
     2020.11498         5.09057         4.47748
     2020.11772        11.42238         4.68740
     2020.12046         7.00019         4.65803
     2020.12320         1.55900         4.50598
     2020.12594         4.82781         6.34431
     2020.12867         4.69263         4.50598
     2020.13141         3.93644         4.56818
     2020.13415         2.40825         4.48871
     2020.13689         2.98906         4.57423
     2020.13963         6.72287         4.58028
     2020.14236         0.48368         4.61051
     2020.14510         4.36850         4.61915
     2020.14784         6.33331         4.52931
     2020.15058         3.80912         4.53535
     2020.15331         4.66193         4.52931
     2020.15605         5.96674         4.54313
     2020.15879        10.06055         4.52585
     2020.16153        10.17537         4.51721
     2020.16427         8.37418         4.51289
     2020.16700         9.60499         4.56041
     2020.16974         9.23680         4.54399
     2020.17248        13.03761         4.80402
     2020.17522        10.99842         4.49216
     2020.17796        13.50424         4.46365
     2020.18069        10.54205         4.46538
     2020.18343         7.32586         4.50944
     2020.18617         5.06667         4.53363
     2020.18891         5.91048         4.57855
     2020.19164         5.19230         4.62606
     2020.19438         4.55711         4.56818
     2020.19712         8.05692         4.56905
     2020.19986         5.29773         4.60706
     2020.20260         6.19954         4.68481
     2020.20533         7.97035         4.58719
     2020.20807         5.74617         4.60360
     2020.21081         1.57698         4.64420
     2020.21355         2.55279         5.03036
     2020.21629         6.67760         4.80057
     2020.21902         5.44341         4.66666
     2020.22179         6.47825         4.65543
     2020.22450        11.03004         4.67962
     2020.22724        10.04685         4.65371
     2020.22997         7.18166         4.56991
     2020.23271         6.06947         4.57855
     2020.23545        11.74928         4.59496
     2020.23819         6.95109         4.55090
     2020.24093         5.44791         4.59669
     2020.24366        10.28472         4.64939
     2020.24640         8.28953         4.85672
     2020.24914         4.99734         4.56386
     2020.25188         4.22515         4.55782
     2020.25462         7.23096         4.58028
     2020.25735         7.36778         4.64766
     2020.26009        12.25559         4.56559
     2020.26283        10.80540         4.55004
     2020.26557         5.66721         4.56386
     2020.26830         9.13002         4.54227
     2020.27104         8.56784         4.56905
     2020.27378         5.58665         4.58114
     2020.27652         5.74046         4.58200
     2020.27929         8.32430         4.69690
     2020.28199        11.08708         7.02764
     2020.28473         3.40089         6.77280
     2020.28747         6.05071         6.83413
     2020.29021         4.71252         4.62433
     2020.29295         4.77033         4.56905
     2020.29568         6.26514         4.56732
     2020.29842         9.56895         4.55609
     2020.30116         9.78076         4.55177
     2020.30390         6.40458         4.59410
     2020.30663         5.92339         4.65284
     2020.30937         9.85720         4.65025
     2020.31211         6.66601         4.67789
     2020.31485         7.17682         4.74096
     2020.31759         6.16363         4.55868
     2020.32032        11.06845         4.68308
     2020.32306         7.38326         4.53535
     2020.32580         6.20907         4.52672
     2020.32854         4.21788         4.55522
     2020.33128         4.93869         4.55090
     2020.33401         8.48150         4.58805
     2020.33675        13.58832         4.63038
     2020.33949         9.43213         4.53881
     2020.34223         1.60794         4.67098
     2020.34496         2.34275         4.73491
     2020.34770         4.13256         4.52240
     2020.35044         6.97137         4.59755
     2020.35318         2.31819         4.63729
     2020.35592         2.83900         4.61570
     2020.35865         4.67281         4.66753
     2020.36139         9.34562         4.53363
     2020.36413         7.58343         4.61051
     2020.36687         7.78325         4.61397
     2020.36961        10.73806         4.54399
     2020.37234        11.23187         4.53017
     2020.37508         6.29368         4.56386
     2020.37782        10.29249         4.52240
     2020.38056         7.59630         4.52585
     2020.38329         8.27912         4.87399
     2020.38603         3.78393         4.53190
     2020.38877        10.02474         4.59755
     2020.39151         7.34955         4.50339
     2020.39425         8.86236         4.50944
     2020.39698         2.09017         4.60274
     2020.39972         4.97999         4.49302
     2020.40246         9.69880         4.50166
     2020.40520         5.37661         4.56818
     2020.40794         2.72242         4.50339
     2020.41067         6.73323         4.56732
     2020.41341         4.38004         4.52844
     2020.41615         6.12886         4.49475
     2020.41889         9.47867         4.52758
     2020.42162         4.43148         4.59237
     2020.42436         5.07729         4.78847
     2020.42710         8.57610         4.80057
     2020.42984         7.85791         4.67185
     2020.43258         6.72473         4.59410
     2020.43531        -1.13746         4.65543
     2020.43805        13.54335         4.62001
     2020.44079         6.68016         4.61138
     2020.44353         3.43997         4.65111
     2020.44626         6.24579         4.53795
     2020.44900         6.44460         4.53363
     2020.45174        11.35141         4.51635
     2020.45448         6.87422         4.55004
     2020.45722         6.49303         4.54313
     2020.45995        10.79184         4.49562
     2020.46269         0.90266         4.51289
     2020.46543         1.34847         4.52499
     2020.46817        13.91728         4.57509
     2020.47091        11.49009         4.57682
     2020.47364         5.02390         4.52326
     2020.47638         5.56771         4.52240
     2020.47912         2.96753         4.62001
     2020.48186         7.63234         4.50080
     2020.48459         3.71515         4.70122
     2020.48733        -1.72704         4.79797
     2020.49007         9.82077         4.66407
     2020.49281         4.82258         4.63125
     2020.49555         3.43640         4.65284
     2020.49828        11.76421         4.52067
     2020.50102         8.12302         4.55436
     2020.50376         2.65383         4.56041
     2020.50650         4.45364         4.49907
     2020.50924         2.94045         4.49216
     2020.51197         6.15727         4.50685
     2020.51471         7.91308         4.49562
     2020.51745         8.55089         4.50339
     2020.52019         6.00970         4.67358
     2020.52292        10.51251         4.59496
     2020.52566         6.72633         4.67444
     2020.52840         7.85814         4.65371
     2020.53114         6.10695         4.60360
     2020.53388         6.05676         4.62865
     2020.53661         5.02857         4.69172
     2020.53935         5.72038         4.66494
     2020.54209         6.42520         4.64593
     2020.54483         5.62501         4.63384
     2020.54757         5.32682         4.61656
     2020.55030         8.31563         4.64593
     2020.55304        13.53544         4.80229
     2020.55578         7.74725         4.62347
     2020.55852        10.96007         4.59928
     2020.56125         9.28588         4.63384
     2020.56399        10.01169         4.58287
     2020.56673         4.20350         4.62261
     2020.56947         9.50931         4.65025
     2020.57221         8.20312         4.81871
     2020.57494        10.93094         4.66234
     2020.57768         5.33075         4.63988
     2020.58042         0.59056         4.76342
     2020.58316         3.66837         4.72714
     2020.58590         7.70218         4.65457
     2020.58863        14.58099         4.63470
     2020.59137         7.79181         4.59842
     2020.59411        12.35462         4.64507
     2020.59685        16.36543         4.90682
     2020.59958         7.34324         4.68135
     2020.60232        10.68305         4.60360
     2020.60506         9.08086         4.60878
     2020.60780        11.08768         4.69949
     2020.61054        13.81949         4.71072
     2020.61327        11.97530         4.69344
     2020.61601        12.01611         4.57077
     2020.61875         8.71792         4.68308
     2020.62149         5.32074         4.64679
     2020.62423         9.97455         4.71331
     2020.62696        10.56436         4.71418
     2020.62970        12.82017         4.63988
     2020.63244        12.93498         4.68567
     2020.63518        10.87179         4.80661
     2020.63791         2.18261         4.86190
     2020.64065         9.26242         4.69258
     2020.64339        10.29223         4.70295
     2020.64613        11.92204         4.61656
     2020.64887        13.69085         4.68221
     2020.65160         9.56166         4.68394
     2020.65434        10.23948         4.65716
     2020.65708        11.40729         4.67444
     2020.65982        10.17010         4.70036
     2020.66256        12.52291         4.63643
     2020.66529        11.99172         4.66926
     2020.66803        12.47553         4.70036
     2020.67077        15.79835         4.79106
     2020.67351        13.78016         4.63211
     2020.67624        12.10397         4.71245
     2020.67898        10.14478         4.65025
     2020.68172        10.18259         4.67703
     2020.68446        14.27040         4.72886
     2020.68720         9.92022         4.68394
     2020.68993        12.92103         4.61829
     2020.69267        13.80384         4.70467
     2020.69541        13.22665         4.88350
     2020.69815         9.58046         4.69776
     2020.70089        16.56728         4.60619
     2020.70362        15.45909         4.82130
     2020.70636        13.78490         5.19277
     2020.70910        11.42371         5.01135
     2020.71184        11.42652         4.77378
     2020.71457         9.42833         4.80402
     2020.71731         8.52815         4.76428
     2020.72008        10.41399         4.79020
     2020.72279        10.72877         4.62088
     2020.72553        15.22358         4.76342
     2020.72826        19.10939         4.92842
     2020.73100         8.85320         4.94224
     2020.73374        16.26202         4.82648
     2020.73648        20.45083         4.73232
     2020.73921        14.40264         4.72195
     2020.74195        15.99945         4.66234
     2020.74469        12.25826         4.68653
     2020.74743        12.81207         4.68740
     2020.75017        11.66189         4.61310
     2020.75290        12.33970         4.66753
     2020.75564        10.70151         4.58028
     2020.75838        18.50332         4.64679
     2020.76112        21.22013         4.61224
     2020.76386        23.13894         4.60274
     2020.76659        25.71576         4.54918
     2020.76933        24.17157         4.71850
     2020.77207        23.78838         4.62433
     2020.77481        27.11219         4.77810
     2020.77754        27.89200         4.63816
     2020.78028        21.43981         4.89300
     2020.78302        28.67863         4.83512
     2020.78576        32.18644         4.82303
     2020.78850        17.89525         4.70036
     2020.79123        18.74406         4.75910
     2020.79397        26.26287         4.79711
     2020.79671        22.99969         4.61397
     2020.79945        27.15350         4.71591
     2020.80219        13.52231         4.77897
     2020.80766        20.00593         4.65975
     2020.81040        19.96874         4.62952
     2020.81314        22.80756         4.63902
     2020.81587        16.79737         4.67789
     2020.81861        21.31218         4.62261
     2020.82135        19.59999         4.63556
     2020.82409        22.34980         4.60533
     2020.82683        20.42161         4.64679
     2020.82956        17.11143         4.83944
     2020.83230        22.37424         4.74269
     2020.83504        21.69605         4.71418
     2020.83778        23.10086         4.58460
     2020.84052        22.48967         4.85585
     2020.84325        20.87948         4.85240
     2020.84599        19.27830         4.83426
     2020.84873        22.66011         4.62261
     2020.85147        19.48792         4.63470
     2020.85420        26.30373         4.54572
     2020.85694        24.72354         4.64075
     2020.85968        26.28135         4.59237
     2020.86242        24.71917         4.61742
     2020.86516        24.38498         4.75132
     2020.86789        31.97179         4.82735
     2020.87063        33.38360         4.62952
     2020.87337        28.66541         4.71159
     2020.87611        23.13423         4.72282
     2020.87885        24.23004         4.80920
     2020.88158        19.56785         4.82043
     2020.88432        22.19166         4.64679
     2020.88706        23.82047         6.83932
     2020.88980        15.41528         5.56769
     2020.89253        19.61110         4.66839
     2020.89527        20.06091         4.89300
     2020.89801        25.47672         4.80316
     2020.90075        21.26253         4.65284
     2020.90349        20.56734         4.60792
     2020.90622        16.17815         5.73960
     2020.90896        23.08997         4.87572
     2020.91118        18.75825         6.29162
     2020.91543        31.42961         9.90262
     2020.91718        17.21140         4.74787
     2020.91991        15.64821         4.64075
     2020.92265        14.93902         4.68135
     2020.92539        13.69384         4.66753
     2020.92813         9.51965         4.61829
     2020.93086        14.50346         4.65457
     2020.93360        12.66727         4.65543
     2020.93634        10.96908         4.67876
     2020.93908         9.18089         4.69085
     2020.94182        12.46871         4.63902
     2020.94455        11.28352         4.62347
     2020.94729         9.88133         4.63384
     2020.95003         6.48814         4.73923
     2020.95277         2.10795         4.66234
     2020.95551         8.81777         4.64939
     2020.95824        12.75758         4.93965
     2020.96001        11.57739         9.14068
     2020.97564         9.87944         8.81587
     2020.97741         7.19126         4.69172
     2020.98015        14.45707         4.82130
     2020.98288        10.08288         4.74873
     2020.98562        22.17269         4.62347
     2020.98836        16.86151         4.60274
     2020.99110        17.16832         4.53017
     2020.99384        16.43413         4.56127
     2020.99657        21.91794        11.19930
     2020.99931        17.00075         7.69715
     2021.00135        13.72184         6.64753
     2021.00869        12.05939        12.62297
     2021.01026        15.30200         7.57275
     2021.01170        21.68748        21.79044
     2021.01680        17.54072         9.98383
     2021.01848        17.00743         8.36319
     2021.02121        14.90625         7.60644
     2021.02395        10.42506         4.57682
     2021.02774        11.29395         9.92595
     2021.02939        14.88064         4.68481
     2021.03591        15.75534         9.12773
     2021.03764        12.59512         4.60187
     2021.04038         6.42693         4.65371
     2021.04312        11.08174         4.61829
     2021.04585        15.45055         4.62347
     2021.04859        12.03236         4.64248
     2021.05133        11.26118         4.64507
     2021.05407        16.08799         5.05886
     2021.05681        14.14780         4.73750
     2021.05954        10.61961         8.15414
     2021.06228        10.63342         4.57941
     2021.06502        13.81123         4.59410
     2021.06776        14.44705         4.61656
     2021.07049        14.67086         4.62001
     2021.07323        12.33767         6.07997
     2021.07597        11.29748         6.63458
     2021.07871         8.59029        10.05812
     2021.08035        20.14898        11.30470
     2021.09071        11.78262         9.69184
     2021.09240         8.35835         5.31716
     2021.09425        13.95825         8.24484
     2021.09886        13.13098         9.25472
     2021.10061        14.37979         4.60706
     2021.10335        13.20460         7.24534
     2021.10609         6.57341         4.58632
     2021.10882        11.98422         4.55263
     2021.11156        10.95003         4.58719
     2021.11430         8.20384         4.58287
     2021.11704        10.13266         4.58546
     2021.11978        10.18647         4.59496
     2021.12251        13.51428         4.61829
     2021.12443        14.20325         7.48204
     2021.12899        22.51293         8.84005
     2021.13073        15.21972         4.57423
     2021.13347         8.62053         4.70208
     2021.13620        12.11734         4.68481
     2021.13894         9.65115         4.54227
     2021.14168         9.92596         4.67876
     2021.14442        18.56077         4.69690
     2021.14715        11.90059         4.92064
     2021.14989         6.23440         4.58200
     2021.15263         7.67821         4.75305
     2021.15537        14.85102         4.73405
     2021.15811        13.17783         4.81180
     2021.16084        11.03764         4.66407
     2021.16358        14.99146         4.64334
     2021.16632        16.49527         4.71504
     2021.16906        13.43308         4.75046
     2021.17180        12.64689         4.60101
     2021.17453         6.58570         4.74441
     2021.17727         7.32351         4.73923
     2021.18001         9.89833         4.68653
     2021.18275         6.09214         4.80488
     2021.18548         8.35995         4.57077
     2021.18822         7.22776         4.55782
     2021.19096         9.57957         4.53535
     2021.19370        10.16738         4.60619
     2021.19644         5.74620         4.54399
     2021.19917         8.91001         4.59928
     2021.20191        11.61882         4.57250
     2021.20465        13.00663         4.56473
     2021.20739         8.87944         4.58028
     2021.21013        16.96426         4.77033
     2021.21286         9.45707         4.68481
     2021.21560        12.24588         4.58546
     2021.21834        10.62869         4.66321
     2021.22108        10.95550         4.55695
     2021.22381         8.25331         4.58200
     2021.22655         9.49613         4.61742
     2021.22929        16.96694         4.53276
     2021.23203        14.68375         4.56041
     2021.23477         5.16556         4.55004
     2021.23750        13.52237         4.58200
     2021.24024        12.68018         4.56473
     2021.24298        10.19400         4.54054
     2021.24572         7.31081         4.55522
     2021.24846        15.17162         4.67789
     2021.25119        15.66343         4.56127
     2021.25393        13.46124         4.63297
     2021.25667        10.64205         4.59842
     2021.25941         5.39887         4.57337
     2021.26214        12.73468         4.64161
     2021.26488        11.83049         4.56041
     2021.26762        14.03530         4.63729
     2021.27036        13.77111         4.71418
     2021.27310        10.19592         4.55695
     2021.27583        10.88674         4.55695
     2021.27857         9.81255         4.63211
     2021.28131         8.31736         4.62347
     2021.28405        12.07917         4.65543
     2021.28679        15.91798         4.62952
     2021.28952        13.97579         4.75824
     2021.29226        10.94161         4.66494
     2021.29500        12.31442         4.64161
     2021.29774         9.53623         4.81784
     2021.30047        10.91704         4.75737
     2021.30321        15.91085         4.63038
     2021.30595        15.37567         4.77897
     2021.30869        20.96648         4.76255
     2021.31143        17.45529         4.56559
     2021.31416        21.26910         4.67098
     2021.31690        17.58591         4.59151
     2021.32021        16.15931         6.45230
     2021.32295        15.09712         6.33136
     2021.32569        10.63993         6.09379
     2021.32842         5.54174         6.30371
     2021.33116        21.65856         5.98753
     2021.33390        18.37637         5.95211
     2021.33664        11.34618         6.07651
     2021.33937        10.07899         6.01863
     2021.34211        17.23880         6.05664
     2021.34485        21.52962         6.39183
     2021.34759         9.25643         6.06874
     2021.35033        13.71324         6.40565
     2021.35306         8.02405         6.08342
     2021.35580        10.71086         6.08083
     2021.35854        12.64067         6.06874
     2021.36128         6.63249         6.05146
     2021.36402         7.26030         6.01950
     2021.36653         5.74887         5.42774
     2021.36892         6.50333         4.56300
     2021.37166         6.56015         4.60274
     2021.37440        11.16296         4.57682
     2021.37770        14.29836         6.16376
     2021.38044        14.24717         6.30198
     2021.38318        17.09798         6.57583
     2021.38592        14.06579         6.28816
     2021.38866        11.54560         6.12402
     2021.39413        16.18223         6.17327
     2021.39687         9.09404         6.12921
     2021.39938        13.64262         5.40010
     2021.40177        10.79908         4.70036
     2021.40451        11.48089         4.67530
     2021.40782        14.40928         6.08688
     2021.41056        21.17810         6.14908
     2021.41330        16.69791         6.28730
     2021.41603        15.14372         6.07392
     2021.41877        14.93753         6.11020
     2021.42151        14.36834         6.17240
     2021.42425        12.45115         6.12402
     2021.42699        19.62097         6.19573
     2021.42972        20.43678         6.10675
     2021.43246        22.94859         6.09120
     2021.43520        14.61140         6.09811
     2021.43794        16.27621         6.20005
     2021.44068        14.14803         6.21300
     2021.44341         6.99984         6.14735
     2021.44615        13.48865         6.00481
     2021.44889        17.72446         6.03505
     2021.45163        19.12227         6.27434
     2021.45436        11.77508         6.33999
     2021.45710        14.08290         6.17067
     2021.45984        19.36771         5.99531
     2021.46258        15.05852         5.97630
     2021.46527        10.14529         6.30889
     2021.46805        13.52914         5.88819
     2021.47079        17.18895         5.98840
     2021.47353        22.22577         6.16895
     2021.47627        11.92858         6.06442
     2021.47901        14.25039         6.01431
     2021.48174         4.13920         6.01604
     2021.48448         4.37401         6.02122
     2021.48722        10.47382         6.27261
     2021.48996         9.05164         6.08601
     2021.49269        13.56345         6.13439
     2021.49520        12.24503         5.33531
     2021.49817         9.00907         6.34863
     2021.50091         7.77688         6.33999
     2021.50365        13.78469         6.09465
     2021.50638         3.68351         6.01258
     2021.50912         5.77732         6.18795
     2021.51186         5.08613         6.44884
     2021.51458        15.81993         6.18190
     2021.51733        15.78875         6.07565
     2021.52007        10.10957         6.18709
     2021.52281        10.49738         5.97285
     2021.52555        11.87019         6.00999
     2021.52829        11.78800         5.99703
     2021.53102        12.91381         6.06960
     2021.53376        18.62562         6.12748
     2021.53650         5.39344         6.21560
     2021.53924        18.12425         6.44193
     2021.54198        17.55806         6.13957
     2021.54471         8.54087         6.10243
     2021.54745        11.93668         6.19400
     2021.55019        13.10249         6.07478
     2021.55293        13.67031         6.08083
     2021.55566        16.30512         6.20523
     2021.55840         6.73393         6.21732
     2021.56114        16.72574         6.08256
     2021.56388        17.33155         6.09811
     2021.56605        12.30278         4.60792
     2021.56878        10.20659         4.67271
     2021.57152         8.32540         4.65284
     2021.57426        10.63121         4.67617
     2021.57700        16.25203         5.03554
     2021.57974        11.36884         4.63384
     2021.58247         8.33265         4.65371
     2021.58521         8.92746         4.69863
     2021.58795         7.77327         4.74441
     2021.59069         3.73008         4.77724
     2021.59342         4.46790         4.68308
     2021.59616         8.18571         4.86190
     2021.59890         5.28452         4.77810
     2021.60164         9.62533         4.76255
     2021.60438        14.59114         4.62433
     2021.60711        19.36095         4.71245
     2021.60985        13.04777         4.65889
     2021.61259        13.25258         4.67530
     2021.61533         9.07939         4.64248
     2021.61807        15.87720         4.63988
     2021.62080        14.88001         4.63988
     2021.62354        12.20282         4.64593
     2021.62628        14.73564         4.81352
     2021.62902        17.18745         4.62433
     2021.63175        13.00426         4.69604
     2021.63449        16.96707         4.83339
     2021.63723        16.12888         4.85240
     2021.63997        16.79670         4.80661
     2021.64271        17.13951         4.74009
     2021.64544        11.84132         4.62952
     2021.64818        13.58613         4.65371
     2021.65092        16.84694         4.69172
     2021.65366        13.07375         4.63125
     2021.65639        16.35157         4.63816
     2021.65913        13.83738         4.64852
     2021.66187        12.68219         4.67703
     2021.66461        16.85400         4.62520
     2021.66735        18.89781         4.59928
     2021.67008        14.36462         4.67962
     2021.67282        17.61044         4.80661
     2021.67556        20.45425         4.87227
     2021.67830        13.41606         4.86104
     2021.68104        19.98387         4.69776
     2021.68377        15.89068         4.70122
     2021.68651        18.24649         4.73837
     2021.68925        21.71431         4.62606
     2021.69199        19.94212         4.64161
     2021.69472        17.06893         4.66062
     2021.69746        16.96774         4.73405
     2021.70020        18.45355         4.67185
     2021.70294        18.59836         4.77378
     2021.70568        14.28018         4.83166
     2021.70841        21.29399         4.73059
     2021.71115        19.82480         4.78588
     2021.71389        26.04661         4.99580
     2021.71663        15.71342         4.80748
     2021.71937        17.99523         4.72109
     2021.72210        14.36505         4.70381
     2021.72484        14.19786         4.75392
     2021.72758        16.02267         4.74182
     2021.73032        14.62148         4.99753
     2021.73305        24.84729         4.71072
     2021.73579        23.00911         4.86622
     2021.73855        26.26094         5.11329
     2021.74127        16.96573         4.83253
     2021.74401        17.35754         4.80575
     2021.74674        20.86435         4.84721
     2021.74948        13.69216         4.75132
     2021.75222        16.48998         4.79538
     2021.75496        28.12979         5.04245
     2021.75706        19.67294         6.56374
     2021.76043        25.34641         5.02345
     2021.76317        16.74822         4.75651
     2021.76591        17.82103         4.74700
     2021.76865        14.80385         4.78156
     2021.77138        20.77266         4.78242
     2021.77412        25.07147         4.83512
     2021.77686        20.56028         4.71850
     2021.77960        21.29209         4.75564
     2021.78234        20.95990         4.77638
     2021.78507        22.05672         4.73837
     2021.78781        24.64553         4.77292
     2021.79055        24.08934         4.71331
     2021.79329        22.62715         4.73232
     2021.79603        19.71896         4.72454
     2021.79876        19.10077         4.77378
     2021.80150        24.75859         4.90337
     2021.80424        20.21740         4.92064
     2021.80698        19.12421         4.78070
     2021.80971        17.30202         4.79625
     2021.81245        24.22883         4.88695
     2021.81519        22.72665         4.70899
     2021.81793        18.29646         4.82735
     2021.82067        18.95527         4.89732
     2021.82245        31.27410         8.34505
     2021.82713        10.58191        10.02443
     2021.82888        22.36970         4.78761
     2021.83162        21.50552         4.82130
     2021.83436        18.90733         4.86190
     2021.83709        20.20614         4.81439
     2021.83983         9.02995         4.97766
     2021.84257         8.51676         5.00271
     2021.84531         9.89357         4.87572
     2021.84804        19.81339         4.82216
     2021.85078        16.78420         4.85499
     2021.85352        18.57301         5.20918
     2021.85626        20.89882         4.81439
     2021.85900        21.66163         4.75132
     2021.86447        10.10726         4.94138
     2021.86595        14.15177        18.62519
     2021.87391        45.42795        17.99802
     2021.87542        14.38650         6.22596
     2021.87816         9.59831         4.70727
     2021.88090        12.86113         4.86708
     2021.88364        13.18794         4.79538
     2021.88637         7.43275         7.40688
     2021.88911        12.20256         7.36282
     2021.89185         5.41937         5.01999
     2021.89553        28.09915         8.77008
     2021.89733        16.28500         4.74009
     2021.90006         2.72681         4.85067
     2021.90212         7.90192         6.73738
     2021.91210        13.97917        10.26372
     2021.91369        13.42580         4.87140
     2021.91766        13.03488        12.91496
     2021.91923         6.22649         8.65950
     2021.92197         1.75730         8.24052
     2021.92404         8.61543         6.55856
     2021.92853        11.66604        10.58336
     2021.92937         6.69290         7.56497
     2021.93663        24.47236        10.11686
     2021.93839        19.28217         4.91028
     2021.94113        22.26898         5.00703
     2021.94387        24.01180         5.49685
     2021.94570        13.11668         8.36319
     2021.95304        13.49421         9.48623
     2021.95352        -7.91129        22.59643
     2021.95868        10.77300        11.60533
     2021.96030         9.04367         6.52054
     2021.96176         2.16217        18.77723
     2021.97771        22.73755         9.25558
     2021.97946        21.67835         4.84981
     2021.98220        10.36216        12.57114
     2021.98367        45.90767        21.24187
     2021.98894        19.39309        22.28803
     2021.99041        24.69060         4.89386
     2021.99315        16.08841         8.22843
     2021.99589        25.42322         5.47957
     2021.99863        14.51003         4.83944
     2022.00136        15.57084         4.88350
     2022.00410        14.30065         4.85931
     2022.00684        11.23147         4.87745
     2022.00958        11.77828         4.93706
     2022.01184         2.86060         6.03591
     2022.01893        12.57988        11.57163
     2022.01940        11.06036        13.22596
     2022.02345         6.00753         8.77267
     2022.02600         4.26915         4.96729
     2022.02792        11.64511         7.71961
     2022.03260         3.36992        11.59150
     2022.03422         6.20158         6.90065
     2022.03696         5.99239         4.85758
     2022.03969         0.00621         5.12193
     2022.04124         1.86679        14.82413
     2022.04618        19.23286         9.18215
     2022.04791        11.21564         4.84290
     2022.05063        10.45443         4.86795
     2022.05447        24.91138        10.27323
     2022.05612         1.52208         4.81352
     2022.05886         1.33689         6.80044
     2022.06160         2.85270         4.81525
     2022.06836        23.11565        27.07823
     2022.06981        10.56914         7.54251
     2022.07255         7.00295         6.86005
     2022.07529        10.08776         4.71763
     2022.07802        12.26357         4.78933
     2022.08076         9.22038         4.79279
     2022.08350        15.02319         4.81525
     2022.08624        10.62901         4.78242
     2022.08898        11.42782         4.75132
     2022.09171        10.00163         4.72454
     2022.09445         5.24344         5.60483
     2022.09719        16.48825        11.72627
     2022.09902         4.65013         8.46772
     2022.10377        -7.33399        10.80365
     2022.10540        10.22669         4.72022
     2022.10814        15.63450         5.78884
     2022.11088        12.41331         4.75651
     2022.11362        12.16312         6.84018
     2022.11635        16.02893         4.74182
     2022.11909        10.66075         4.71936
     2022.12183        14.52256         4.74960
     2022.12457        14.57037         4.86708
     2022.12731        10.02018         4.73837
     2022.13004         7.53199         4.77465
     2022.13278         7.45780         4.71936
     2022.13552        13.08662         4.77724
     2022.13826        19.21343         5.23164
     2022.14099        19.00924         4.70986
     2022.14373         3.05005         4.72368
     2022.14647        12.03286         4.70640
     2022.14921        10.31768         5.01740
     2022.15195         8.28349         4.91892
     2022.15468        11.70430         4.72800
     2022.15742        13.79311         4.75132
     2022.16016        13.21992         4.72886
     2022.16290        17.53973         7.02332
     2022.16564        11.03155         4.75737
     2022.16837         7.23636         6.12575
     2022.17111        12.22217         4.72022
     2022.17385        13.69098         4.75564
     2022.17659         9.52179         4.76428
     2022.17932         6.18660         4.72627
     2022.18206         7.70642         4.70640
     2022.18480         7.60623         4.72454
     2022.18754        11.68204         4.78156
     2022.19028         4.07385         4.81784
     2022.19301        10.62566         4.77206
     2022.19575        19.63547         4.74269
     2022.19849        14.70129         4.75132
     2022.20123        12.07510         4.85067
     2022.20397        11.97691         4.77292
     2022.20670         6.87672         5.14957
     2022.20944        13.55553         4.86104
     2022.21218        15.91434         4.80316
     2022.21492         9.95216         4.74096
     2022.21765        10.31397         4.73837
     2022.22039         4.46678         4.73837
     2022.22313         8.40759         4.83858
     2022.22587         6.50640         5.19881
     2022.22861        12.85821         4.84549
     2022.23134        15.68603         4.72627
     2022.23408        14.59184         4.77033
     2022.23682        18.32765         4.88954
     2022.23956         9.92946         4.79970
     2022.24230         5.11628         5.44847
     2022.24452        18.66856        11.82648
     2022.24778        16.60990         6.06960
     2022.25227         9.26951        13.66049
     2022.25598         9.27633         5.05368
     2022.25872        19.08014         4.90077
     2022.26146         8.17196         4.74614
     2022.26420         9.80377         4.73491
     2022.26694         2.97158         5.17030
     2022.26967        17.27439         4.90250
     2022.27241        21.52220         4.82562
     2022.27515        19.35601         4.92928
     2022.27789        16.37083         4.77724
     2022.28062         8.32464         4.72714
     2022.28336         8.93845         4.81871
     2022.28610        13.57126         4.84376
     2022.28884         9.43707         4.88954
     2022.29158         3.00188         4.74960
     2022.29431         8.87570         4.77206
     2022.29705         9.86051         4.79711
     2022.29979        14.05332         4.72714
     2022.30253        13.04213         4.87486
     2022.30527        13.91994         4.84549
     2022.30800         8.17775         4.75564
     2022.31074         4.99557         4.77119
     2022.31348         6.71338         4.74009
     2022.31622         8.18419         4.76601
     2022.31895        -7.43300         4.91114
     2022.32169        13.40181         4.90077
     2022.32443         5.64363         4.73750
     2022.32717         4.34244         4.86017
     2022.32991         7.81825         4.69863
     2022.33264         3.70306         4.85067
     2022.33538         5.57187         4.91460
     2022.33812         4.99668         4.93792
     2022.34086        11.08050         4.75046
     2022.34360         7.10031         4.74787
     2022.34633        10.60512         4.80316
     2022.34907         7.39093         4.75564
     2022.35181        15.00374         4.73491
     2022.35455         7.85655         4.73750
     2022.35728         3.13937         4.73405
     2022.36002        12.10518         4.75910
     2022.36276         9.17799         4.75996
     2022.36550         9.66780         4.78329
     2022.36824         8.14661         4.77638
     2022.37097         1.98042         4.92496
     2022.37371         1.53824         4.94915
     2022.37645        10.27405         4.90769
     2022.37919        11.94186         4.87831
     2022.38193         3.55267         4.84721
     2022.38466         4.03648         4.76774
     2022.38740        -7.57071         4.86017
     2022.39014         1.80311         4.73405
     2022.39288         7.57792         4.88004
     2022.39561         3.24473         4.78156
     2022.39835         4.56854         4.93101
     2022.40109         9.55135         5.09083
     2022.40383        10.14617         4.72714
     2022.40657         8.61998         4.67530
     2022.40930         0.60779         4.78070
     2022.41204         9.86660         4.78329
     2022.41478         6.31741         4.69776
     2022.41752         6.76922         4.80057
     2022.42026         4.90704         4.89473
     2022.42299         7.80085         4.71936
     2022.42573         2.91566         4.72109
     2022.42847         5.66647         4.70295
     2022.43121         7.25028         4.76947
     2022.43394        16.37609         4.80575
     2022.43668         2.50991         4.71591
     2022.43942         6.04972         4.85067
     2022.44216         6.58353         4.83685
     2022.44490        19.96834         4.76774
     2022.44763        10.74115         4.67098
     2022.45037         7.71596         4.65198
     2022.45311        -0.95022         4.71504
     2022.45585         8.44659         4.75737
     2022.45859        -6.62860         4.67185
     2022.46132         5.30521         4.67444
     2022.46406         0.56102         4.67012
     2022.46680         2.11983         4.66407
     2022.46954         7.17165         4.68567
     2022.47227        -6.50454         4.72541
     2022.47501        13.76627         4.71677
     2022.47775         3.04808         4.78415
     2022.48049         9.07389         4.70727
     2022.48323        14.21270         4.66753
     2022.48596        10.59852         4.71245
     2022.48870        10.59233         4.79106
     2022.49144         4.72714         4.66407
     2022.49418         7.13495         4.82303
     2022.49692         7.86876         4.69085
     2022.49965         1.84958         4.72800
     2022.50513         8.99120         4.92496
     2022.50787        20.54101         4.95952
     2022.51060         5.81582         4.84290
     2022.51334         5.75363         4.79452
     2022.51608        -2.06255         4.75478
     2022.51882        -1.37074         4.70122
     2022.52156        -4.27793         4.70899
     2022.52429         6.26388         4.67444
     2022.52703         0.30769         4.72454
     2022.52977         9.22350         4.73145
     2022.53251         3.74632         4.69085
     2022.53525        10.70113         5.06146
     2022.53798        -1.31306         4.76255
     2022.54072        -1.70125         4.69517
     2022.54347         5.28357         4.66580
     2022.54620         1.00637         4.67962
     2022.54893         8.58319         4.67962
     2022.55167        13.69800         4.71331
     2022.55441         4.78281         4.70554
     2022.55715        10.20662         4.70381
     2022.55989         3.23243         4.64679
     2022.56262        -0.48776         4.69431
     2022.56810         2.10987         4.75132
     2022.57084         3.48368         4.66753
     2022.57357         8.87149         4.81180
     2022.57631        -3.94570         4.75305
     2022.57905        -1.25188         4.72195
     2022.58179        11.38993         4.73145
     2022.58453         2.35474         4.93965
     2022.58726        -1.84545         4.72368
     2022.59000         8.85236         4.81352
     2022.59274         1.14417         4.63125
     2022.59548         4.44399         4.66148
     2022.59822        -3.68020         4.64161
     2022.60095        -4.75039         4.66062
     2022.60369         3.23342         4.69690
     2022.60643        10.87223         4.77897
     2022.60917         8.16704         4.82907
     2022.61190        12.71186         4.84203
     2022.61464         9.89467         4.75564
     2022.61738        15.56848         4.66580
     2022.62012         5.86829         4.63384
     2022.62286         9.97010         4.74528
     2022.62559         6.21391         4.64507
     2022.62833         7.95173         4.64679
     2022.63107         8.23454         4.69172
     2022.63381        12.54835         4.64075
     2022.63655         5.70016         4.63816
     2022.63928         7.86697         4.68653
     2022.64202         9.82678         4.96384
     2022.64476        12.26460         4.98284
     2022.64750        14.30741         4.77465
     2022.65023        16.28422         4.83771
     2022.65297        17.64503         4.86968
     2022.65571        15.86384         4.79452
     2022.65845        14.72865         4.72886
     2022.66119        11.78847         4.59928
     2022.66392        16.71628         4.64161
     2022.66666        11.05409         4.68394
     2022.66940        12.55590         4.63643
     2022.67214        13.37371         4.63988
     2022.67488        16.15653         4.64939
     2022.67761        11.56334         4.73491
     2022.68035        16.35815         4.62865
     2022.68309        22.46796         4.72973
     2022.68583        15.16077         4.81093
     2022.68856        16.16358         4.71418
     2022.69130        16.24940         4.66926
     2022.69404        22.70221         4.81698
     2022.69678        12.72702         4.81093
     2022.69952         9.65483         4.74182
     2022.70225        16.36564         4.80143
     2022.70499        16.97545         4.80402
     2022.70773        12.93727         4.72886
     2022.71047        16.91108         4.62261
     2022.71321        19.49489         4.60274
     2022.71868        15.81051         4.64852
     2022.72142        21.80432         4.63470
     2022.72416        14.16114         4.72973
     2022.72689        17.35895         4.67185
     2022.72963        18.71076         4.63988
     2022.73238        14.21759         4.70640
     2022.73511        14.55038         4.64420
     2022.73785        16.86719         4.60706
     2022.74058        15.18201         4.97680
     2022.74332        15.85882         4.87659
     2022.74606        18.83663         4.73232
     2022.74880        15.85744         4.66580
