# ================= DQRFIT RESULTS ================
# INPUT FILE: series/OLMP.rad
# OUTPUT: LDETRENDED
# FILTER FUNCTION: f(t)
# f(t)=+line(t)+annual(t)+jumps(t)
# line(t)=+P 1+P 2*t
# annual(t)=+P 3*sin(2*pi*t+P 4)
# jumps(t)=+P 5*heav(t-2018.5342  )+P 6*heav(t-2020.7597  )
# heav(t)=(t<0?0:1)
# TOTAL OBSERVATIONS MTOT= 3818
# INITIAL TIME INTERVAL= 2022.7488 - 2011.8960 = 10.8528
# TOTAL OBSERVATIONS AFTER PREFILTER M= 3772
# TIME-SPAN= 2022.7488 - 2011.8960 = 10.8528
# OBSERVATIONS: USED M=  3772 REJECTED MTOT-M=    46 %USED=   98.7952
# N=  6 PARAMETERS
# MAXSIG= 175.00000
# MAXRES=  22.58427
# SCALE FACTOR FOR LENGTHS: SCL=  10.00000
# SCALE FACTOR FOR SIGMAS: SCLSIG=   1.00000
# CHI^2=   4001.361 DOF=  3766 CHI^2/DOF=   1.06250
# RMS=      6.088 SDEV=      6.089 MEAN=   -0.02546
#  P #       PARAMETER +-    SIGMA %error PARAMETER NAME
# P 1 =      4294.68420 +-  131.105   3.05 YZERO                              
# P 2 =        -2.12520 +-    0.065   3.06 SLOPE                              
# P 3 =         5.33450 +-    0.136   2.54 ANNUAL AMPLITUDE                   
# P 4 =        -2.87046 +-    0.035   1.21 ANNUAL PHASE                       
# P 5 =       138.99272 +-    0.386   0.28 OFFSET 2018.5342                   
# P 6 =      -151.78777 +-    0.341   0.22 OFFSET 2020.7597                   
#       T            LDETRENDED       SIG_OBS
     2011.89596        -8.89298         5.73008
     2011.89869         0.93084         5.75791
     2011.90143        -5.77034         5.89397
     2011.90417        -4.18152         5.87026
     2011.90691        -2.42870         5.79089
     2011.90965        -2.93688         5.71255
     2011.91238        -0.32107         5.81872
     2011.91512       -10.53225         5.73729
     2011.91786        -4.71143         5.95582
     2011.92060        -8.20361         5.78161
     2011.92334       -10.24679         5.82903
     2011.92607       -15.44797         5.82182
     2011.92881        -6.98716         5.73935
     2011.93155         0.16666         5.84965
     2011.93429        -2.69052         5.80120
     2011.93702        -3.07370         5.77646
     2011.93976        -1.99488         5.85377
     2011.94250        -1.06406         5.82078
     2011.94524        -0.94124         5.85686
     2011.94798         5.19857         5.78883
     2011.95071         1.95139         5.65792
     2011.95345         2.61621         5.92489
     2011.95619         2.75703         5.87954
     2011.95893        -1.23115         5.68885
     2011.96165        -5.83036         6.07435
     2011.96449         1.27668         5.84758
     2011.96714        -9.94970         5.64968
     2011.96988        -1.25388         5.58989
     2011.97262        -3.98906         5.59814
     2011.97535        -6.53724         5.69194
     2011.97809        -0.16142         5.68885
     2011.98083        -5.56460         5.64349
     2011.98357         0.14821         5.61360
     2011.98631         1.82203         5.62597
     2011.98904        -5.44915         5.64658
     2011.99178         3.75767         5.64555
     2011.99452         2.31549         5.62391
     2011.99726        -3.88569         5.61360
     2012.00273        -9.48906         5.61875
     2012.00547         1.18476         5.66926
     2012.00821        -4.87842         5.65689
     2012.01095         0.99940         5.65071
     2012.01368        -1.73578         5.68678
     2012.01642         1.40604         5.59608
     2012.01916        -2.69314         5.61154
     2012.02190         5.81867         5.64246
     2012.02464         1.38649         5.69606
     2012.02737        -4.90869         5.58680
     2012.03011        -2.45887         5.60020
     2012.03285        -5.67105         5.59917
     2012.03559        -1.33624         5.63421
     2012.03833        -8.18742         5.54248
     2012.04106       -11.26260         5.55175
     2012.04380        -9.66378         5.54144
     2012.04654        -3.91296         5.54969
     2012.04928       -15.71814         6.32586
     2012.05201       -30.87132         5.90737
     2012.05475         2.74349         5.57649
     2012.05749         0.07532         5.65689
     2012.06023         1.92813         5.68781
     2012.06297        -6.43605         5.68885
     2012.06570        -0.70623         5.73523
     2012.06844        -2.65141         5.67545
     2012.07118        -8.50760         5.56618
     2012.07392        -2.59478         5.55381
     2012.07666        -2.92195         5.64452
     2012.07939        -1.67914         5.53423
     2012.08213        -0.29532         5.53732
     2012.08487         2.16450         5.57855
     2012.08761        -5.10568         5.58989
     2012.09034        -5.01587         5.62700
     2012.09308        -7.34105         5.59711
     2012.09582        -1.45622         5.64452
     2012.09856        -5.43941         5.57546
     2012.10130        -3.78859         5.78677
     2012.10403        -8.12577         5.56618
     2012.10677        -4.16696         5.81975
     2012.10951        -3.89314         5.80738
     2012.11225        -7.30832         5.58783
     2012.11498        -3.01750         5.60432
     2012.11772        -1.71268         5.57649
     2012.12046         1.52414         5.62391
     2012.12320        -4.51804         5.62597
     2012.12594        -3.02523         5.73008
     2012.12867        -8.71141         5.61875
     2012.13141        -5.83959         5.59401
     2012.13415        -5.32076         5.67235
     2012.13689        -4.99095         5.61566
     2012.13963         5.44687         5.97540
     2012.14236        -1.48331         5.95066
     2012.14510        -4.51750         5.71874
     2012.14784        -7.22968         5.58474
     2012.15058        -3.22586         5.54557
     2012.15332        -6.99603         5.58268
     2012.15605        -7.48522         5.67441
     2012.15879        -1.44940         5.69915
     2012.16153        -2.50859         5.58577
     2012.16427        -6.18477         5.68266
     2012.16700        -9.36495         5.67854
     2012.16974        -9.41513         5.59401
     2012.17248        -4.07530         5.65689
     2012.17522        -5.43149         5.69091
     2012.17796        -6.33567         5.67441
     2012.18069        -8.67786         5.67338
     2012.18343       -11.75804         5.62700
     2012.18617       -13.26922         5.74245
     2012.18891        -5.91740         5.73111
     2012.19164        -2.55358         5.67441
     2012.19438        -1.22976         5.88985
     2012.19712        -1.14895         5.52083
     2012.19986        -5.17813         5.57649
     2012.20260        -0.32531         5.73626
     2012.20533        -3.04949         5.62906
     2012.20807        -5.19867         5.57134
     2012.21081        -4.95584         5.49918
     2012.21355        -6.75903         5.57340
     2012.21629        -3.44222         5.63731
     2012.21902        -9.14440         5.54969
     2012.22176        -5.30758         5.59711
     2012.22450       -15.29576         5.56515
     2012.22724        -4.81194         5.57855
     2012.22998        -4.94411         5.58680
     2012.23271        -2.05831         5.66617
     2012.23545        -0.78949         5.59814
     2012.23819         1.95333         5.62803
     2012.24093        -4.19785         5.54454
     2012.24366         0.29997         5.69606
     2012.24640        -0.70721         5.61154
     2012.24914        -2.60139         5.68885
     2012.25188        -7.40758         5.60020
     2012.25462        -4.40176         5.64968
     2012.25735        -5.27394         5.53011
     2012.26009        -9.60112         5.54557
     2012.26283       -10.29330         5.64349
     2012.26557        -7.09448         5.64040
     2012.26831        -4.05166         5.66308
     2012.27104        -3.95285         5.75069
     2012.27378        -6.71503         5.56721
     2012.27652        -5.10321         5.60638
     2012.27926        -5.90739         5.73935
     2012.28199        -3.78157         5.66617
     2012.28473        -7.19875         5.61051
     2012.28747        -5.04894         5.64143
     2012.29021        -6.46112         5.71152
     2012.29295        -7.85530         5.67029
     2012.29568        -7.89348         5.63215
     2012.29842       -10.62966         5.64555
     2012.30116       -10.60884         5.63112
     2012.30390        -8.72303         5.65586
     2012.30664        -8.50920         5.65689
     2012.30937        -7.85839         5.61257
     2012.31211        -1.52157         5.70018
     2012.31485        -2.65075         5.67854
     2012.31759        -2.88793         5.57649
     2012.32032        -9.12911         5.76409
     2012.32306        -9.60030         5.55175
     2012.32580       -10.25647         5.58164
     2012.32854        -2.93766         5.54557
     2012.33128        -4.25184         5.67132
     2012.33401        -9.19302         5.69503
     2012.33675        -8.22120         5.57134
     2012.33949       -16.78339         5.60844
     2012.34223       -16.86157         5.61257
     2012.34497       -15.52874         5.54144
     2012.34770       -11.39493         5.71152
     2012.35044        -7.25911         5.86614
     2012.35318        -7.15229         5.73832
     2012.35592       -12.02247         5.59401
     2012.35865       -12.43266         5.59608
     2012.36139        -8.14684         5.62081
     2012.36413        -8.82801         6.41451
     2012.36687        -8.11920         5.57649
     2012.36961       -11.32938         5.61257
     2012.37234        -3.13956         5.82697
     2012.37508        -3.38575         5.61669
     2012.37782         0.70707         5.82078
     2012.38056       -11.54111         5.79501
     2012.38330        -6.33628         5.67751
     2012.38603        -8.45447         5.78058
     2012.38877        -7.02865         5.75997
     2012.39151         0.75117         5.65071
     2012.39425        -4.50302         5.68060
     2012.39698        -3.77620         5.75791
     2012.39972        -6.72438         5.63628
     2012.40246        -8.36356         5.93726
     2012.40520        -5.64574         5.65689
     2012.40794        -7.73292         5.59608
     2012.41067        -4.43610         5.61669
     2012.41341        -9.39829         5.71152
     2012.41615         1.44353         5.67029
     2012.41889        -2.84165         5.78265
     2012.42162        -5.61183         5.63628
     2012.42436         2.44199         5.60226
     2012.42710        -8.15219         5.62288
     2012.42984        -2.38038         5.64864
     2012.43258        -3.01256         5.76306
     2012.43531        -8.59874         5.66617
     2012.43805        -8.66792         5.76100
     2012.44079       -10.53209         5.70018
     2012.44353        -8.58628         5.69503
     2012.44626        -4.29546         5.68163
     2012.44900        -7.35365         5.69812
     2012.45174        -7.28383         5.68163
     2012.45448        -6.75801         5.67132
     2012.45722        -0.09719         5.66926
     2012.45995        -1.77637         5.77646
     2012.46269        -4.29655         5.64143
     2012.46543        -8.97374         5.66926
     2012.46817        -0.36092         5.82182
     2012.47091        -6.47210         5.61154
     2012.47364        -0.77328         5.75378
     2012.47638        -5.16046         6.41657
     2012.47912        -3.57864         5.74245
     2012.48186        -3.90282         5.61360
     2012.48459        -5.50401         5.68885
     2012.48733        -7.68119         5.58371
     2012.49007        -4.19237         5.71771
     2012.49281        -5.50155         5.63009
     2012.49555        -4.06873         5.63628
     2012.49833         3.01119         5.73935
     2012.50102        -4.04310         5.61772
     2012.50376         1.72372         5.68060
     2012.50650        -7.42146         5.70121
     2012.50924        -4.17964         5.94345
     2012.51197        -4.04582         5.72801
     2012.51471        -5.17300         5.60123
     2012.51745        -1.78217         5.72595
     2012.52019        -1.79237         5.57443
     2012.52292        -5.04855         5.63834
     2012.52566         0.94427         5.65380
     2012.52840         5.82409         5.71874
     2012.53114        -0.04009         5.65792
     2012.53388        -6.42527         5.76409
     2012.53661        -1.44146         5.75172
     2012.53935         2.86036         5.78986
     2012.54209         6.91318         5.63112
     2012.54483         6.36700         5.59608
     2012.54757         0.65382         5.61051
     2012.55030         7.88764         5.73317
     2012.55304         1.56746         5.62803
     2012.55578         0.35428         5.63628
     2012.55852        -5.41091         5.64143
     2012.56125         3.94391         5.68988
     2012.56399        -0.81127         5.61463
     2012.56673         0.52655         5.61154
     2012.56947         4.43937         5.61154
     2012.57221         4.76418         5.61978
     2012.57494         4.32000         5.62288
     2012.57768         3.81482         5.70843
     2012.58042         5.90364         6.27742
     2012.58316        -3.41754         5.70637
     2012.58590         6.12128         5.70843
     2012.58858        10.09097         5.73626
     2012.59138         0.72893         5.71358
     2012.59411         3.41074         5.58989
     2012.59685         7.31855         5.68885
     2012.59958         2.24337         5.67545
     2012.60232        15.32119         5.87954
     2012.60506         7.27101         5.65689
     2012.60780        -0.67218         5.59917
     2012.61054         2.47464         5.65277
     2012.61328         4.05247         5.67751
     2012.61601        11.60428         5.78986
     2012.61875        13.66310         5.75481
     2012.62149         4.50692         5.68472
     2012.62423         9.54074         5.63628
     2012.62696         5.90255         5.76306
     2012.62970         3.59737         5.74348
     2012.63244        11.99119         5.72286
     2012.63518         6.45201         5.63834
     2012.63791         5.07183         5.66720
     2012.64065         1.03265         5.68678
     2012.64339        11.74246         5.60226
     2012.64613         6.70428         5.74141
     2012.64887         8.12410         5.75791
     2012.65161        14.47493         5.70121
     2012.65434         6.97774         5.71565
     2012.65708        13.41256         5.87335
     2012.65982         8.30138         5.85377
     2012.66256         4.50119         5.64349
     2012.66529         3.66501         5.71565
     2012.66803         2.79683         5.65586
     2012.67077         5.57165         5.73317
     2012.67351         9.17147         5.68781
     2012.67624         4.80129         5.65895
     2012.67898        10.11611         5.65380
     2012.68172         5.14192         5.71668
     2012.68446         6.69874         5.66823
     2012.68720         6.51256         5.81666
     2012.68994        12.28139         5.74141
     2012.69267        10.81120         5.90531
     2012.69541         2.31602         5.71771
     2012.69815         1.14883         5.79914
     2012.70089         6.98965         5.87232
     2012.70362        -1.23653         5.66411
     2012.70636         3.14029         5.67441
     2012.70910         3.43312         5.69297
     2012.71184         6.36493         5.70637
     2012.71457         8.44675         5.65071
     2012.71731        10.66656         5.60226
     2012.72005         6.33538         5.53938
     2012.72279         9.09820         5.55691
     2012.72553         9.33602         5.73935
     2012.72826        11.06784         5.74141
     2012.73100         9.46866         5.76925
     2012.73374        12.14047         5.80532
     2012.73648         4.14729         5.62906
     2012.73921         5.59711         5.83212
     2012.74195         9.66193         6.17434
     2012.74469        16.02275         5.76821
     2012.74743         7.48458         5.71565
     2012.75017         3.78839         5.73008
     2012.75290        10.92220         5.69709
     2012.75564         6.15402         5.63112
     2012.75838         9.66184         5.66617
     2012.76112        10.36566         5.63009
     2012.76386         9.62148         5.69606
     2012.76659         9.48730         5.71049
     2012.76933         8.77511         5.77337
     2012.77207        10.87093         5.75688
     2012.77481        12.98075         5.75378
     2012.77754        10.23557         5.67441
     2012.78028         8.55639         5.91562
     2012.78302         7.02721         5.83109
     2012.78576        11.83504         5.74141
     2012.78850        10.05084         5.98571
     2012.79123        15.05466         6.09085
     2012.79397         6.40848         5.78574
     2012.79671         0.81630         5.76203
     2012.79945        14.79612         5.88263
     2012.80219        24.83594         5.96200
     2012.80493        11.14376         5.77028
     2012.80766         2.37757         6.02075
     2012.81040         3.73139         5.79811
     2012.81314         1.14121         5.74451
     2012.81587        -1.13897         5.71977
     2012.81861        -0.91815         5.81975
     2012.82135         2.89267         5.77955
     2012.82409         6.80348         5.83006
     2012.82683         9.96230         5.85892
     2012.82956         0.32512         5.75585
     2012.83230         4.20094         5.65689
     2012.83504         8.44276         5.81048
     2012.83778        13.41658         5.77646
     2012.84052         8.68739         5.82388
     2012.84326         4.13722         5.80841
     2012.84599         6.52703         6.02075
     2012.84873        -2.40015         5.81666
     2012.85147         7.23267         5.91871
     2012.85420         0.73049         5.71152
     2012.85694        -3.26669         5.73935
     2012.85968         1.66512         5.80532
     2012.86242        -0.26705         5.84037
     2012.86516         3.66776         5.79605
     2012.86789        -1.26042         5.83934
     2012.87063        -0.41760         5.63731
     2012.87337        -2.24278         5.73008
     2012.87611         6.36503         5.72080
     2012.87885         6.97185         5.71358
     2012.88158         5.84367         5.63215
     2012.88432         2.07049         5.69606
     2012.88706         5.35531         5.86305
     2012.88980        11.16413         5.88160
     2012.89253        -0.61905         5.67854
     2012.89527         0.78476         5.70225
     2012.89801         0.98458         5.85995
     2012.90075         0.46641         5.59608
     2012.90349        -5.46078         5.67132
     2012.90622        -7.16296         5.81254
     2012.90896        -1.59914         5.84655
     2012.91170         3.78567         7.85244
     2012.91444        -2.19251         7.51125
     2012.91718         0.79631         7.46281
     2012.91992         0.61214         8.04004
     2012.92265         2.97195         8.20703
     2012.92539         6.10877         7.75452
     2012.92816        -7.63934         8.76055
     2012.93086        -9.34560         7.02988
     2012.93360         1.61922         7.08245
     2012.93634         2.68704         6.24856
     2012.93908         0.66986         6.19392
     2012.94182         0.35268         6.94124
     2012.94459        11.22857         8.67397
     2012.94732         6.54039         8.67809
     2012.95003        -0.57687         9.03989
     2012.95277        12.54695         6.39802
     2012.95551         3.18777         6.16300
     2012.95825         8.49860         5.76100
     2012.96098         4.02941         5.80326
     2012.96372        -3.22377         5.70018
     2012.96646         4.13104         5.61257
     2012.96919        -2.45314         5.71771
     2012.97193        -2.82032         6.19083
     2012.97467         2.62650         5.68781
     2012.97741         2.32833         5.76615
     2012.98015        -2.23486         6.07435
     2012.98288       -11.25604         5.58474
     2012.98562         4.04877         5.60948
     2012.98836        -2.28941         5.54351
     2012.99110         1.68141         5.57237
     2012.99384         0.23123         5.55691
     2012.99657         4.44605         5.54248
     2012.99931        -5.45713         5.73523
     2013.00205         0.49668         5.64555
     2013.00479        -2.90050         5.71668
     2013.00752        -2.88968         5.70946
     2013.01026        -0.89586         5.66823
     2013.01300        -3.79104         5.67235
     2013.01574         3.35978         5.63112
     2013.01848        -0.91640         5.64143
     2013.02121         6.76341         5.63009
     2013.02395        -5.17677         5.69709
     2013.02669        -3.25595         5.73111
     2013.02943         0.65087         5.65483
     2013.03216        -3.87331         5.62081
     2013.03491        -6.85648         5.66411
     2013.03764        -6.16568         5.64349
     2013.04038       -14.64286         5.61360
     2013.04312        -9.47004         5.70843
     2013.04585        -8.34122         5.75997
     2013.04859       -10.56740         5.77543
     2013.05133        -4.39858         5.62597
     2013.05407         0.13724         5.71255
     2013.05681        -2.67295         5.57443
     2013.05954        -5.35213         5.64452
     2013.06228        -5.16031         5.83728
     2013.06502        -1.54149         5.85171
     2013.06776         4.19733         5.78780
     2013.07049        -0.22985         5.75997
     2013.07324         0.00497         6.17640
     2013.07597        -6.19122         5.58989
     2013.07871        -3.13940         5.61875
     2013.08145         1.56742         5.71874
     2013.08418        -7.95976         5.62391
     2013.08692        -6.80194         5.62184
     2013.08966       -10.90312         5.65998
     2013.09240        -7.12330         5.58989
     2013.09514         0.42051         5.59711
     2013.09787        -1.44267         5.89912
     2013.10061         0.40015         5.98468
     2013.10335        -1.57903         5.68988
     2013.10594        -5.81652         6.08982
     2013.11720        -5.65560         6.24340
     2013.11978        -9.19912         5.98571
     2013.12251        -9.18530         5.60329
     2013.12525       -10.12648         5.64143
     2013.12799        -4.73867         5.68575
     2013.13073       -10.81585         5.66411
     2013.13347        -6.68603         5.72492
     2013.13618         1.47774         5.71152
     2013.13894        -4.28739         5.67235
     2013.14168         0.45643         5.70534
     2013.14442        -1.06676         5.94860
     2013.14715         4.30706         5.91046
     2013.14990        -7.66211         5.68988
     2013.15263        -4.28530         5.70843
     2013.15537       -13.11248         5.69400
     2013.15811       -10.40166         5.64246
     2013.16084       -15.07184         5.60432
     2013.16358        -6.49703         5.83831
     2013.16632        -3.90121         5.65277
     2013.16906         3.73661         5.73935
     2013.17180        -7.53557         5.62906
     2013.17727        -4.71593         5.71771
     2013.18001        -7.39312         5.71977
     2013.18275        -5.60730         5.63318
     2013.18548        -3.39148         5.72492
     2013.18823       -12.80765         5.63421
     2013.19096        -3.91484         5.61463
     2013.19370        -1.66802         5.65586
     2013.19644        -3.73920         5.62391
     2013.19917        -1.72439         5.69297
     2013.20191        -5.22257         5.61978
     2013.20465        -5.54775         5.71771
     2013.20739        -1.13693         5.68163
     2013.21013         0.74989         5.69297
     2013.21286        -5.03529         5.61772
     2013.21560        -7.07947         5.61669
     2013.21834        -1.35166         5.63112
     2013.22108        -8.05584         5.59608
     2013.22381        -8.49902         5.60844
     2013.22656        -8.68119         5.56309
     2013.22929        -6.25538         5.65174
     2013.23203        -3.72356         5.57855
     2013.23477        -4.12075         5.60123
     2013.23750        -8.33393         5.71255
     2013.24024        -8.07511         5.72698
     2013.24298        -6.95829         5.83522
     2013.24572         0.56554         5.87026
     2013.24846        -3.66265         5.71255
     2013.25119         1.62617         5.77234
     2013.25393        -1.88802         5.73832
     2013.25667         0.19880         5.96715
     2013.25941         5.25362         5.76925
     2013.26214         3.14344         5.87335
     2013.26489        -2.80673         5.69606
     2013.26762        -3.79092         5.63834
     2013.27036        -8.13611         5.76718
     2013.27310         0.64271         5.99189
     2013.27583        -3.41647         5.79501
     2013.27857        -0.94265         5.85274
     2013.28131         6.89217         5.80945
     2013.28405         1.98100         5.78161
     2013.28679        -6.11419         5.75481
     2013.28952        -8.24938         5.73420
     2013.29226       -17.49456         5.76409
     2013.29500        -5.58174         5.71565
     2013.29765       -13.83610         5.96303
     2013.31690        -7.22019         5.71049
     2013.31964         0.36263         5.79398
     2013.32238        -9.73154         5.65483
     2013.32512         6.74626         5.88469
     2013.32785        -5.68492         5.69709
     2013.33059        -4.96210         5.78780
     2013.33333       -12.73228         5.77852
     2013.33607       -13.86346         5.78471
     2013.33880        -8.94364         5.80223
     2013.34155        -4.72982         5.76718
     2013.34428        -2.16901         5.79914
     2013.34702        -4.00019         5.73008
     2013.34976        -5.47237         5.73420
     2013.35249       -10.31455         5.67751
     2013.35523        -8.36373         5.83728
     2013.35797         1.89909         5.86820
     2013.36071       -10.84309         5.86408
     2013.36344        -2.56028         5.80429
     2013.36618        -2.68546         5.90325
     2013.36892        -1.15064         5.79398
     2013.37166        -3.76982         5.71565
     2013.37440        -7.46800         5.72389
     2013.37713        -7.84119         5.76203
     2013.37987        -4.93037         5.71977
     2013.38261        -9.27655         5.71977
     2013.38535        -1.46873         5.74966
     2013.38809        -3.70891         5.62597
     2013.39082        -8.02909         5.60432
     2013.39236       -21.25882        26.06107
     2013.39907        -7.43357         6.75776
     2013.40177        -5.69482         5.79708
     2013.40451        -4.29000         5.67132
     2013.40725         0.70182         5.85583
     2013.40999        -1.74936         5.88160
     2013.41273        -8.55055         5.72801
     2013.41546        -7.15173         5.85892
     2013.41821        -3.88590         5.66411
     2013.42094        -0.00409         5.75275
     2013.42368        -6.36127         5.78883
     2013.42642         0.26355         5.81666
     2013.42915        -3.83763         5.85892
     2013.43190        -9.10481         5.93005
     2013.43463        -8.82900         5.83934
     2013.43737        -1.53717         5.70328
     2013.44010        -0.33836         5.83522
     2013.44284        -2.64954         5.71358
     2013.44558        -4.77072         5.79708
     2013.44832       -10.65991         5.66411
     2013.45106        -6.83009         5.68060
     2013.45379        -4.11027         5.75481
     2013.45654        -0.66744         5.93108
     2013.45927       -11.74863         6.85362
     2013.46201        -2.51181         5.68575
     2013.46475        -3.28299         5.73008
     2013.46748        -1.86418         5.67132
     2013.47022        -3.69636         5.64968
     2013.47296        -5.25454         5.67338
     2013.47570        -2.71471         5.64143
     2013.47763         4.54439         9.63877
     2013.48121        10.85499         8.13384
     2013.48391        -5.54526         6.19289
     2013.48665        -3.16945         7.29582
     2013.48939        -0.97263         6.08672
     2013.49212        -2.82081         6.97113
     2013.49486        -9.42399         6.82785
     2013.49760        -1.65917         6.16712
     2013.50034        -2.29435         5.65277
     2013.50308        -3.57854         5.68266
     2013.50581         3.15528         5.68988
     2013.50855        -0.63090         5.61772
     2013.51129        -2.51808         5.64555
     2013.51403        -0.13425         5.66101
     2013.51676        -1.10244         5.61772
     2013.51950        -1.79962         5.84862
     2013.52224         5.30519         5.74554
     2013.52498         3.99201         5.78780
     2013.52772         1.71583         5.64349
     2013.53023        -4.19984         6.21866
     2013.54798       -12.82610        15.23794
     2013.54855        -9.79489        13.58355
     2013.56149         1.28260        11.01073
     2013.56331        -4.60353         5.76512
     2013.56605        -3.36671         5.70946
     2013.56878         3.84511         5.74348
     2013.57152         4.01993         5.62906
     2013.57426         6.00174         5.62288
     2013.57700         1.49356         5.61051
     2013.57974        -0.60662         5.68575
     2013.58247         5.33820         5.58061
     2013.58521         3.63902         5.64864
     2013.58795         5.63784         5.64864
     2013.59069         2.68266         5.73626
     2013.59342        -1.12353         5.67545
     2013.59616         4.48029         5.74245
     2013.59890         0.34311         5.69400
     2013.60164         7.72693         5.66823
     2013.60438         5.86575         5.72905
     2013.60711        -0.59343         5.66720
     2013.60985         9.95938         5.69400
     2013.61259         4.90820         5.64349
     2013.61533         7.35102         5.79501
     2013.61807         5.39384         5.84346
     2013.62080        12.20166         6.04240
     2013.62354         1.48648         5.66411
     2013.62628         8.28930         5.92283
     2013.62902         1.21511         5.72905
     2013.63175        -0.77507         5.80841
     2013.63449         4.98775         5.84243
     2013.63723         2.85657         5.67235
     2013.63997        10.27239         5.71668
     2013.64271         5.73221         5.71668
     2013.64544         9.97902         5.72080
     2013.64818         5.67984         5.72698
     2013.65092        10.20766         5.72905
     2013.65366         8.90048         5.80738
     2013.65639        12.61330         5.76821
     2013.65913        14.37612         6.04549
     2013.66187         8.25694         5.81357
     2013.66461         2.14075         5.70534
     2013.66735         7.93257         5.74657
     2013.67008        14.70939         5.73214
     2013.67282         9.83621         6.01766
     2013.67556         2.32203         5.84758
     2013.67830         8.94985         5.73935
     2013.68104         8.16666         5.81460
     2013.68377        10.88348         5.70225
     2013.68651         5.84530         5.78883
     2013.68925         8.45312         5.66411
     2013.69199         6.89794         5.65071
     2013.69472         9.14876         5.67648
     2013.69746         3.10958         5.68988
     2013.70020        13.44839         5.89294
     2013.70294        14.33921         5.68885
     2013.70568        10.71703         5.70534
     2013.70841         5.81185         5.64555
     2013.71115         6.67467         5.66823
     2013.71389        -0.02151         5.77440
     2013.71663         5.43430         5.79398
     2013.71937         5.41212         5.81563
     2013.72210        12.69194         5.67751
     2013.72484        18.56576         5.88675
     2013.72758        10.48258         5.77955
     2013.73032         4.74940         5.77028
     2013.73305         8.95722         5.64968
     2013.73579         4.04103         5.62803
     2013.73853         7.87585         5.77440
     2013.74127        10.10367         5.68575
     2013.74401        16.50049         5.80635
     2013.74674         8.86031         6.02385
     2013.74948         0.04513         8.46781
     2013.75222        -1.30905         5.65174
     2013.75496        -0.66824         5.63524
     2013.75770        -2.85742         5.90118
     2013.76043        -6.22360         5.71461
     2013.76317        -0.25978         5.71049
     2013.76591        13.30104         5.94963
     2013.76865        12.41686         5.74760
     2013.77138         1.69867         5.66101
     2013.77412         0.42749         5.72080
     2013.77686        -5.61769         5.67854
     2013.77960        -1.91387         5.67235
     2013.78182        -1.26214         7.09482
     2013.78593        -9.94042        10.21704
     2013.78781        -8.70641         5.71358
     2013.79055        -1.24460         5.77543
     2013.79329        -1.31578         5.69915
     2013.79603        -1.61296         5.65689
     2013.79876        -0.39714         5.66308
     2013.80150         7.50068         5.80945
     2013.80424         6.89350         5.74554
     2013.80698         4.13531         5.62906
     2013.80971         2.82013         5.68781
     2013.81245         6.29195         5.70637
     2013.81519         5.45877         5.73420
     2013.81793        -5.41341         5.61772
     2013.82067         2.47141         5.68266
     2013.82340         0.83523         5.72080
     2013.82569         0.69807         7.05771
     2013.82888         2.85486         5.74760
     2013.83162        -1.81232         5.66823
     2013.83436        -2.14550         5.72698
     2013.83709         7.74132         5.95994
     2013.83983         6.89114         5.82182
     2013.84257        -5.04205         5.80532
     2013.84531        -2.23623         5.72595
     2013.84804         3.88559         5.62494
     2013.85078        -2.10459         5.67132
     2013.85352         7.95123         5.85377
     2013.85626        -2.63795         5.68266
     2013.85900         5.20887         5.72698
     2013.86173        -0.61932         5.64452
     2013.86447        -5.07550         5.75585
     2013.86721        -4.86268         5.78883
     2013.86995        -5.85786         5.70946
     2013.87269        -1.54404         5.81975
     2013.87542        11.35178         5.75069
     2013.87816         7.20659         5.62391
     2013.88090         9.17441         5.79501
     2013.88364         6.52023         6.12899
     2013.88637         0.71905         5.67029
     2013.88911        -6.74313         5.63937
     2013.89185        -6.44331         5.64761
     2013.89459        -2.79449         5.61875
     2013.89733        -1.45668         5.70431
     2013.90006        -6.64386         5.89294
     2013.90280       -15.09904         5.74657
     2013.90554        -1.39022         5.67029
     2013.90828        -0.24540         5.68472
     2013.91102        -2.81558         5.71461
     2013.91375        -3.34077         5.74451
     2013.91649        -1.01695         5.63318
     2013.91923         4.88687         5.96612
     2013.92197        -1.59931         5.78161
     2013.92470         4.53751         5.64349
     2013.92744        -1.84867         5.77440
     2013.93018         1.55115         9.73154
     2013.93292        -2.04404         5.70431
     2013.93566        -0.97922         5.72905
     2013.93839         3.17160         5.64246
     2013.94113        -3.68658         5.64968
     2013.94301         3.02342         9.26460
     2013.94661         2.27506         5.73111
     2013.94935        -0.10213         5.67029
     2013.95208         1.57469         5.63318
     2013.95482        -7.18849        15.81414
     2013.95756        -4.94467         5.58783
     2013.96030        -3.02785         5.81975
     2013.96303         3.54897         5.66204
     2013.96577         3.17379         5.66204
     2013.96851         6.56660         5.69503
     2013.97125         2.44342         5.67132
     2013.97399        -1.19976         5.71977
     2013.97672        -7.41894         5.86098
     2013.97946        -4.80512         5.62494
     2013.98220        -3.22130         5.77955
     2013.98494        -3.09349         5.60226
     2013.98767       -11.20367         5.71461
     2013.99041        -7.79885         5.76100
     2013.99315       -10.79703         5.67545
     2013.99589        -2.46021         5.69812
     2013.99863        -1.00239         5.63524
     2014.00410        -3.65076         5.72080
     2014.00684        -5.50194         5.90222
     2014.00958        -3.80812         5.63524
     2014.01232        -6.63130         5.72389
     2014.01505        -5.34748         5.77646
     2014.01779        -7.46666         5.75997
     2014.02053        -1.50284         5.71152
     2014.02327        -2.83703         5.86614
     2014.02600         3.39279         5.76409
     2014.02874         0.72861         5.75894
     2014.03148         7.63843         5.76718
     2014.03422         3.32625         5.72595
     2014.03696        -5.56493         5.64658
     2014.03969        -0.28312         5.60638
     2014.04243        -4.01830         5.83006
     2014.04517         4.37152         5.86511
     2014.04791         5.15434         5.94138
     2014.05065        -3.16084         5.68885
     2014.05338        -0.26602         5.61051
     2014.05612        -6.50920         5.62288
     2014.05886        -0.23239         5.67338
     2014.06160         2.65843         5.71461
     2014.06433        -4.00375         5.95066
     2014.06707        -2.24593         5.79398
     2014.06981        -2.72411         5.66204
     2014.07255         1.92071         5.67029
     2014.07529         1.29252         5.77131
     2014.07802        -3.18766         5.67751
     2014.08076         2.48616         5.67441
     2014.08350         3.54698         5.61154
     2014.08624        -0.33420         5.68060
     2014.09017        11.71216        23.13986
     2014.09171        -3.18456         5.82491
     2014.09445        -4.34075         5.57855
     2014.09711        -7.78610         5.92695
     2014.09995         4.03494         5.81975
     2014.10266         4.51971         5.75275
     2014.10540         6.19553         5.62081
     2014.10814        -3.12865         5.56928
     2014.11088         1.39016         5.77749
     2014.11362         3.21098         5.71152
     2014.11635         3.54480         5.82285
     2014.11909         1.52662         5.78677
     2014.12183         1.62644         5.79501
     2014.12457         3.19226         7.69886
     2014.12731         9.23608         5.69400
     2014.13004         9.42889         5.63421
     2014.13278        -0.00929         5.86202
     2014.13552         6.13353         5.86820
     2014.13826         2.32835         6.50831
     2014.14099         4.82017         5.69194
     2014.14373         0.09199         5.65895
     2014.14647        -0.04220         5.67441
     2014.14921        -0.36738         5.69503
     2014.15195         0.64344         5.71255
     2014.15468         2.80926         5.87129
     2014.15742         1.75508         5.80635
     2014.16016         2.77690         5.91355
     2014.16290         2.24472         5.76100
     2014.16564        -1.92447         5.77543
     2014.16837        -0.49465         5.97128
     2014.17111         2.68117         5.93314
     2014.17385        -1.40701         5.93417
     2014.17659         0.03481         5.85171
     2014.17932         1.63463         6.05168
     2014.18206        -5.87156         5.87645
     2014.18480        -1.81674         5.77234
     2014.18754        -5.56992         6.11352
     2014.19028        -6.88110         5.98159
     2014.19301        -4.53628         5.87851
     2014.19575        -6.80846         5.77852
     2014.19849         1.24836         6.00632
     2014.20123        -5.92483         5.86305
     2014.20397        -4.48201         5.71874
     2014.20670        -4.60519         5.68472
     2014.20944        -4.41037         5.75378
     2014.21218         2.10145         5.82903
     2014.21492        -3.39573         5.98880
     2014.21765        -3.57692         5.72286
     2014.22039         0.16590         8.88322
     2014.22313        -6.28928         5.84758
     2014.22587        -7.88046         5.89294
     2014.22861         1.55536         5.75172
     2014.23134        -0.33082         5.70946
     2014.23408         0.57500         5.73832
     2014.23682        -1.14219         5.76821
     2014.23956        -3.04137         5.86511
     2014.24230        -4.03255         5.75069
     2014.24503        -8.62473         6.03725
     2014.24777         4.27009         6.16506
     2014.25051        -5.94409         5.76615
     2014.25325        -5.46628         5.81254
     2014.25598         0.30954         5.89500
     2014.25873        -2.89663         5.76100
     2014.26146        -1.38682         5.82182
     2014.26420       -10.02700         5.70843
     2014.26694       -11.76218         5.73317
     2014.26967        -7.22436         5.84758
     2014.27241        -9.10755         5.91252
     2014.27515        -8.84173         5.89191
     2014.27789        -6.27591         5.69709
     2014.28062        -7.63009         5.75997
     2014.28336        -3.33527         5.67545
     2014.28610        -6.76545         5.95272
     2014.28884        -4.51163         5.95582
     2014.29158        -6.63282         5.63834
     2014.29431        -3.43800         5.73832
     2014.29705        -3.37918         5.78677
     2014.29979        -7.77836         5.82491
     2014.30253        -4.09054         5.86098
     2014.30527        -3.49872         5.77028
     2014.30800        -4.17191         5.68369
     2014.31074        -2.56809         5.84552
     2014.31348        -5.86727         5.75997
     2014.31622        -4.62845         5.71874
     2014.31895        -0.77963         5.88263
     2014.32169        -9.18881         5.83212
     2014.32443       -10.97299         5.81872
     2014.32717       -11.35918         5.89706
     2014.32991        -3.32636         5.89603
     2014.33264        -3.27754         5.80326
     2014.33538        -7.66072         5.78780
     2014.33812        -6.44390         5.77955
     2014.34086        -2.98908         5.69400
     2014.34360         0.21673         5.87851
     2014.34633        -8.86745         5.74554
     2014.34907        -7.34363         5.89603
     2014.35181         4.51019         5.85377
     2014.35455        -2.83099         5.69503
     2014.35728        -9.72217         5.73420
     2014.36002       -10.97335         5.83625
     2014.36276        -4.96954         5.75069
     2014.36550        -5.30072         5.80738
     2014.36824        -3.17390         5.82697
     2014.37097        -2.57508         5.95685
     2014.37371        -0.94826         5.72595
     2014.37645        -0.00644         5.70740
     2014.37919        -2.38463         5.82594
     2014.38193        -9.66981         5.84449
     2014.38466        -4.56599         5.72905
     2014.38740        -4.45417         5.79398
     2014.39014        -3.63435         5.82285
     2014.39288        -4.22453         5.77646
     2014.39561         2.44729         5.91046
     2014.39835        -5.61690         5.79398
     2014.40109        -2.81008         5.87129
     2014.40383        -5.27826         5.83212
     2014.40657        -4.44744         5.94860
     2014.40930        -6.36062         5.84140
     2014.41204        -8.37880         5.78368
     2014.41478        -8.81099         5.68575
     2014.41752        -3.64817         5.70121
     2014.42026        -1.24835         5.78883
     2014.42299        -2.23653         5.82491
     2014.42573        -3.44571         5.78161
     2014.42847        -2.07289         5.71461
     2014.43121        -5.25907         5.73111
     2014.43394        -4.77526         5.79914
     2014.43668        -2.20044         5.68266
     2014.43942         1.45738         5.82491
     2014.44216        -4.89180         5.76821
     2014.44490         6.81502         6.01869
     2014.44763         1.24284         5.83522
     2014.45037        -3.93735         5.74554
     2014.45311        -5.57853         5.70431
     2014.45585        -3.42071         5.74038
     2014.45859        -8.88089         5.77028
     2014.46132        -0.97407         5.70740
     2014.46406        -0.95025         5.83006
     2014.46680        -2.43343         5.95788
     2014.46954        -6.81362         5.70637
     2014.47227         3.05920         5.74760
     2014.47501         0.01202         5.75894
     2014.47775        -5.08116         5.86717
     2014.48049        -4.87234         5.84965
     2014.48323         5.46048         5.88469
     2014.48596        -1.97071         6.05889
     2014.48870         2.75911         5.82078
     2014.49144         3.77493         5.76925
     2014.49418        -0.70625         5.67648
     2014.49692        -0.66143         5.75378
     2014.49965        -1.23661         5.74141
     2014.50239         0.56921         5.70740
     2014.50513        -1.22198         5.71461
     2014.50787         1.18784         5.79811
     2014.51060        -0.79234         5.81048
     2014.51334         4.62748         5.74141
     2014.51608         6.61930         5.72801
     2014.51882         3.96312         5.72183
     2014.52156         9.51894         5.85171
     2014.52429         3.54275         5.74554
     2014.52703        10.53057         5.76409
     2014.52977         2.94939         5.69915
     2014.53251         5.32621         5.75172
     2014.53525         8.52203         5.73214
     2014.53798         7.91385         5.66514
     2014.54072         7.36466         5.86820
     2014.54346         7.37848         5.63112
     2014.54620        10.29630         5.86305
     2014.54893         4.92912         5.75172
     2014.55167         3.21294         5.70225
     2014.55441         1.77576         5.62597
     2014.55715         6.30258         5.89397
     2014.55989        -1.38761         5.74657
     2014.56262        -3.32679         5.63834
     2014.56536        -0.92797         5.68369
     2014.56810         1.06285         5.64143
     2014.57084        -2.23933         5.71874
     2014.57357         2.47549         5.64968
     2014.57631        -0.63770         5.66411
     2014.57905        -0.95888         5.70637
     2014.58179        12.67194         5.95375
     2014.58453         8.07776         5.83522
     2014.58726         1.88858         5.96200
     2014.59000         5.17040         5.79605
     2014.59274         8.72122         5.86511
     2014.59548         8.74103         5.86202
     2014.59822         3.69285         5.81460
     2014.60095         3.99067         5.95685
     2014.60369         1.79949         5.76615
     2014.60643        -5.04669         5.81975
     2014.60917         0.57113         5.86408
     2014.61190         4.79394         5.97746
     2014.61464         6.23276         5.73935
     2014.61738         7.76658         5.99292
     2014.62012         5.34940         5.91149
     2014.62286         4.20222         5.85789
     2014.62559         5.22804         5.80429
     2014.62833         4.42786         5.82491
     2014.63107        13.92167         5.89088
     2014.63381         7.33449         6.01766
     2014.63655         4.21731         5.88985
     2014.63928         3.93913         5.82594
     2014.64202         2.90695         5.77543
     2014.64476         7.40177         5.89603
     2014.64750         6.04658         5.83006
     2014.65023         3.91340         5.87645
     2014.65297        12.69722         5.84037
     2014.65571        13.81204         5.96097
     2014.65845        12.92086         5.74038
     2014.66119         9.86668         6.02900
     2014.66392         5.48850         5.90737
     2014.66666         7.20731         5.77131
     2014.66940         5.99213         5.82078
     2014.67214        12.95995         5.82594
     2014.67488         8.17677         5.82903
     2014.67761        -2.18941         5.90943
     2014.68035         3.33841         5.87438
     2014.68309        -2.55078         5.83728
     2014.68583         4.47204         5.82078
     2014.68856        12.17286         5.90737
     2014.69130         5.65868         5.80017
     2014.69404         6.80350         5.88778
     2014.69678         8.02532         5.83625
     2014.69952         3.99814         5.75688
     2014.70225         9.10895         5.86408
     2014.70499         9.52077         5.82697
     2014.70773        11.81659         5.74451
     2014.71047        11.86241         5.85377
     2014.71321        11.81123         5.72905
     2014.71594        10.00005         5.82903
     2014.71868         5.63986         5.75069
     2014.72142         6.85268         5.76512
     2014.72416         9.96550         5.73626
     2014.72689         0.90732         5.94242
     2014.72963         6.82914         5.90015
     2014.73237         5.67296         5.85892
     2014.73511         2.75878         5.69091
     2014.73785         3.94559         5.77337
     2014.74058        -2.29259         5.75378
     2014.74332        -4.76177         6.02694
     2014.74606         9.68005         5.95066
     2014.74880        -0.10013         5.79398
     2014.75154         0.20269         5.80326
     2014.75427         0.38550         5.85274
     2014.75701         2.96432         5.92283
     2014.75975         1.35514         5.98880
     2014.76249         0.51096         5.87542
     2014.76522        -3.29922         5.72183
     2014.76794         6.54555         5.80841
     2014.77002         6.63996         7.78544
     2014.79021        -6.03013         6.73405
     2014.79260         1.03796         5.72698
     2014.79534        11.11378         5.81048
     2014.79808         6.22260         5.89809
     2014.80082         5.71842         5.98674
     2014.80355        -0.78376         5.91974
     2014.80629         5.02806         5.83934
     2014.80903         9.47087         5.86717
     2014.81177        10.10769         5.66720
     2014.81451         2.56451         5.70946
     2014.81724         3.24233         5.90943
     2014.81998         1.09515         5.76512
     2014.82272        13.10097         6.08672
     2014.82546         5.82079         5.83212
     2014.82820        -5.03640         5.72286
     2014.83093         1.23642         5.78161
     2014.83367         2.13824         5.75481
     2014.83641        -2.67494         5.73214
     2014.83915         3.65688         5.78471
     2014.84188        -1.96530         5.96715
     2014.84462        -2.98649         5.84346
     2014.84736        -1.00867         6.04859
     2014.85010        -1.39485         5.69400
     2014.85284         0.82697         5.73214
     2014.85557        -1.38621         6.21660
     2014.85831         2.48361         5.90840
     2014.86105        -5.49057         5.79398
     2014.86379        -0.91176         5.73729
     2014.86653         0.89706         5.66101
     2014.86926        -2.36012         5.69297
     2014.87200        -1.38630         5.84758
     2014.87474        -4.17148         5.76203
     2014.87748        -2.32166         5.79295
     2014.88021         1.12015         5.71152
     2014.88295         4.87897         5.84243
     2014.88569        -1.77421         6.12796
     2014.88843         3.30361         6.12280
     2014.89117         7.79443         6.08363
     2014.89390         6.29525         6.00323
     2014.89664        -0.92193         5.91562
     2014.89938        -0.49112         5.90943
     2014.90212        -3.74630         6.05065
     2014.90485        -7.64648         5.97128
     2014.90759         5.07734         6.15682
     2014.91033         4.33916         5.86098
     2014.91307         2.11598         5.64761
     2014.91581        -0.09421         5.78883
     2014.91854        -0.50839         5.78986
     2014.92128        -3.02357         5.77543
     2014.92402         6.02025         5.75172
     2014.92676        -1.11793         5.80223
     2014.92950        -6.42711         5.92902
     2014.93223        -4.49929         5.74863
     2014.93497        -6.23548         5.85789
     2014.93771        -4.33966         6.04343
     2014.94045        -4.47484         5.84449
     2014.94318        -0.19402         5.93211
     2014.94592         0.20380         5.83831
     2014.94866       -16.73138         5.68472
     2014.95140        -4.63757         5.61566
     2014.95414        -1.63875         5.72595
     2014.95687         0.70207         5.66617
     2014.95961         1.05789         5.71255
     2014.96235         0.26571         5.68163
     2014.96509         3.06353         5.75791
     2014.96783        -8.37365         5.69606
     2014.97056        -0.45584         5.85068
     2014.97330        -4.15602         5.81048
     2014.97604       -10.23020         5.70328
     2014.97878        -4.98438         5.65277
     2014.98151        -1.58856         5.72595
     2014.98425        -1.43874         5.82182
     2014.98699        -2.95693         5.70121
     2014.98973        -1.11311         5.69400
     2014.99247        -6.10129         5.70946
     2014.99520        -7.05247         5.68781
     2014.99794         0.43635         5.71977
     2015.00068        -2.53783         5.60741
     2015.00342        -4.52601         5.78780
     2015.00616       -10.51720         5.65071
     2015.00889        -5.89538         5.76512
     2015.01163        -3.91856         5.75069
     2015.01437        -7.14174         5.77028
     2015.01711         3.61608         5.80841
     2015.01984         0.59190         5.74863
     2015.02258        -0.33829         5.89809
     2015.02532         3.87853         5.82078
     2015.02806         0.94835         5.94138
     2015.03080         1.08117         5.70843
     2015.03353        -4.99801         5.70843
     2015.03627        -6.77619         5.74038
     2015.03901         0.05063         5.85789
     2015.04175         3.52144         5.70431
     2015.04449        -3.32374         5.78161
     2015.04722        10.99008         5.98159
     2015.04996        -1.82810         5.71771
     2015.05270        -9.89128         5.71771
     2015.05544        -9.74146         5.67441
     2015.05817        -0.00464         5.74554
     2015.06091         3.52617         5.77131
     2015.06365         5.36099         5.85480
     2015.06639        -0.56319         5.71049
     2015.06913        -1.26037         5.74038
     2015.07186        -8.95655         5.76409
     2015.07460        -2.28973         5.64246
     2015.07734       -10.44092         5.82491
     2015.08008       -10.05710         5.64968
     2015.08282        -4.33928         5.67648
     2015.08555        -0.10646         5.69709
     2015.08829         3.50236         5.68266
     2015.09103         2.04918         5.64246
     2015.09377         1.24300         5.72595
     2015.09650        -7.03019         5.88469
     2015.09924         1.26363         5.96406
     2015.10198         4.43945         6.25886
     2015.10472        -0.00373         5.70328
     2015.10746         6.15909         5.74863
     2015.11019        -7.55609         5.96406
     2015.11293        -4.24428         6.48254
     2015.11567        -4.14546         5.85789
     2015.11841        -6.10164         5.66308
     2015.12115        -1.68782         5.77131
     2015.12388        -5.83200         5.75069
     2015.12662       -10.83418         5.70946
     2015.12936        -5.53336         5.76203
     2015.13210        -8.04555         5.77440
     2015.13483        -5.95773         5.73008
     2015.13757        -4.07891         5.81666
     2015.14031        -8.81109         5.70946
     2015.14305        -4.60327         5.72080
     2015.14579        -4.22045         5.81048
     2015.14852        -1.29964         5.72492
     2015.15126        -9.65782         5.76718
     2015.15400        -4.14700         5.74141
     2015.15674         2.72382         5.69606
     2015.15948         2.79264         5.75997
     2015.16221        -1.77154         5.74966
     2015.16495         1.30228         5.73214
     2015.16769        -2.13591         5.79192
     2015.17043         4.04291         5.75275
     2015.17316        -5.67827         6.25165
     2015.17590        -3.76745         5.97540
     2015.17864        -6.57363         5.70225
     2015.18138        -0.37881         5.73832
     2015.18412        -2.29100         5.71049
     2015.18685         1.10982         5.74760
     2015.18959         5.07064         5.82903
     2015.19233        -1.85654         6.04549
     2015.19507         0.62528         5.66617
     2015.19780         2.73410         5.67957
     2015.20054        -1.54808         6.43410
     2015.20328         1.51773         5.67957
     2015.20602       -11.74045         5.81666
     2015.20876        -1.40463         5.72905
     2015.21149        -8.71981         5.75378
     2015.21423        -8.08799         5.82903
     2015.21697         0.70683         5.71461
     2015.21971         2.86764         5.76615
     2015.22245        -6.17854         5.62803
     2015.22518         0.64628         5.63215
     2015.22792        -0.53890         5.65895
     2015.23066        -5.89408         5.75585
     2015.23340         0.13474         5.85789
     2015.23613        -3.17244         5.90222
     2015.23887        -5.81663         5.97128
     2015.24161         0.72919         6.12280
     2015.24435         4.54101         6.02385
     2015.24709         0.01683         5.78471
     2015.24982        -7.28835         5.65792
     2015.25256        -6.42453         5.62906
     2015.25530       -10.42472         5.68266
     2015.25804        -4.52090         5.74348
     2015.26078         5.89792         5.68988
     2015.26351         0.09174         5.58164
     2015.26625        -5.48544         5.71668
     2015.26899        -7.92962         5.63421
     2015.27173         3.70520         5.83315
     2015.27446         5.38401         5.79089
     2015.27720         3.31883         5.71565
     2015.27994        -6.04535         5.72183
     2015.28268        -1.36853         5.70431
     2015.28542        -7.46971         5.80532
     2015.28815       -12.17289         5.87954
     2015.29089         1.41692         5.82903
     2015.29363        -3.66926         5.73214
     2015.29637        -9.38544         5.74141
     2015.29911         0.90638         5.77131
     2015.30184         3.51820         5.63421
     2015.30458         0.00102         5.75997
     2015.30732         2.36784         5.63834
     2015.31006         1.22365         5.66204
     2015.31279        -4.68053         5.76409
     2015.31553        -3.58071         5.64968
     2015.31827         0.94611         5.65998
     2015.32101        -3.62407         5.53320
     2015.32375        -6.27325         5.61051
     2015.32648        -8.06543         5.69400
     2015.32922        -5.80162         5.71874
     2015.33196         1.49920         5.57340
     2015.33470         2.34802         5.57237
     2015.33744        -2.89616         5.47341
     2015.34017        -1.73834         5.69194
     2015.34289        -5.29956         5.58164
     2015.34566        -4.21768         5.51877
     2015.34839         0.36011         5.56103
     2015.35112         0.25393         5.62803
     2015.35386         2.12875         5.52083
     2015.35660        -2.68043         5.47547
     2015.35934        -1.98261         5.82697
     2015.36208        -0.07479         5.55278
     2015.36481         1.78302         5.56000
     2015.36755        -2.03116         5.60844
     2015.37029         3.09266         5.47754
     2015.37303        -4.44852         5.59298
     2015.37577        -8.10270         5.47341
     2015.37850         1.20212         5.67545
     2015.38124        -2.68607         5.46517
     2015.38398        -5.39225         5.49094
     2015.38672        -1.69343         5.42497
     2015.38945        -0.82361         5.49506
     2015.39219         2.21621         5.47857
     2015.39493        -3.15297         5.45898
     2015.39767        -5.46315         5.64349
     2015.40041        -7.01234         5.46723
     2015.40314        -2.19952         5.74863
     2015.40588        -1.92770         5.57855
     2015.40862         3.12612         5.57134
     2015.41136         4.52294         5.54969
     2015.41410        -2.99624         5.65895
     2015.41683         1.79557         5.58474
     2015.41957        -0.08361         5.51361
     2015.42231         2.43121         5.63112
     2015.42505        -1.13097         5.82182
     2015.42778         2.13785         5.62906
     2015.43052         4.65267         5.58680
     2015.43326         0.05749         5.54660
     2015.43600         8.61230         5.57134
     2015.43874        -3.29788         5.52083
     2015.44147         3.93894         5.83522
     2015.44421         4.16076         5.59401
     2015.44695         0.93158         5.54763
     2015.44969        -1.68360         5.59814
     2015.45243         1.73821         5.68472
     2015.45516         4.77303         5.57134
     2015.45790         3.90685         5.90840
     2015.46064         6.45867         5.77749
     2015.46338         2.76549         5.79708
     2015.46611        -0.99969         5.67957
     2015.46885         3.95413         5.67338
     2015.47159         6.80894         5.71461
     2015.47433         5.46676         5.84862
     2015.47707         3.23858         5.86408
     2015.47980         6.29640         5.74038
     2015.48254         5.06622         5.97025
     2015.48528         4.77904         5.59504
     2015.48802        -0.97615         5.56412
     2015.49076        -2.31733         5.68885
     2015.49349         0.32149         5.76718
     2015.49623        13.09031         6.03209
     2015.49897         4.37013         5.69297
     2015.50171        11.27195         5.59711
     2015.50444         8.70277         5.64246
     2015.50718         6.13358         5.62081
     2015.50992        11.23540         5.62494
     2015.51266        11.25122         5.61669
     2015.51540         5.43204         5.60123
     2015.51813         8.81886         5.87748
     2015.52087         6.15468         5.53423
     2015.52361        10.19149         5.74554
     2015.52635         6.20631         5.56000
     2015.52908        11.92113         5.61978
     2015.53182         9.31595         5.64968
     2015.53456         5.31377         5.58680
     2015.53730        10.09459         5.57649
     2015.54004        10.11941         5.67132
     2015.54277        10.87522         5.91768
     2015.54551        14.69204         5.86820
     2015.54825        13.32086         5.87542
     2015.55099        12.18868         5.64761
     2015.55373        12.91450         5.64864
     2015.55646        16.79832         5.68678
     2015.55920        12.40813         5.72183
     2015.56194         8.47395         5.75172
     2015.56468        12.66577         5.64864
     2015.56741         8.97159         5.80223
     2015.57015         8.71741         6.01251
     2015.57289        13.28723         6.18980
     2015.57563         8.86005         6.24649
     2015.57837         8.99586         5.92386
     2015.58110        10.58968         5.88985
     2015.58384        15.87250         6.05992
     2015.58658        14.19332         6.06508
     2015.58932        14.03314         6.10631
     2015.59206         6.02796         6.03519
     2015.59479        11.83978         5.92283
     2015.59753        12.81059         5.86408
     2015.60027        16.08741         5.97437
     2015.60301         9.12723         6.26402
     2015.60574        18.04105         6.04240
     2015.60848        11.96487         5.93314
     2015.61122        14.08669         5.96303
     2015.61396        12.69850         5.90943
     2015.61670        10.26432         5.73523
     2015.61943         8.07214         5.78368
     2015.62217        18.66996         5.87954
     2015.62491        14.94678         5.87645
     2015.62765        19.06060         5.81357
     2015.63039        13.61142         5.90222
     2015.63312         4.89023         5.88882
     2015.63586        13.04105         5.70121
     2015.63860        17.98687         5.75791
     2015.64134        15.81169         5.93005
     2015.64407        10.78851         5.69606
     2015.64681         4.68433         5.91355
     2015.64955        16.21414         5.70328
     2015.65229        15.42196         5.85995
     2015.65503        19.61978         5.76925
     2015.65776        13.50660         6.42791
     2015.66050        11.36142         6.02797
     2015.66324        13.70824         5.69400
     2015.66598        17.65806         5.93314
     2015.66872        13.56787         5.97540
     2015.67145        13.65069         5.88263
     2015.67419         6.94151         5.59195
     2015.67693         6.32933         5.63112
     2015.67967         8.65515         5.84346
     2015.68240         4.05797         5.73420
     2015.68514         5.08378         5.76306
     2015.68788         4.09460         5.81254
     2015.69062        12.03042         6.10528
     2015.69336         1.47124         5.91458
     2015.69609        11.05006         5.74038
     2015.69883        15.38788         5.89191
     2015.70157        10.00270         5.77646
     2015.70431        12.76951         5.74451
     2015.70705        10.26033         5.69400
     2015.70978         7.79615         5.67132
     2015.71252         5.65997         5.71358
     2015.71526        10.02579         5.63628
     2015.71800        21.99161         5.80841
     2015.72073        10.28842         6.04343
     2015.72347         6.18624         5.74760
     2015.72621         1.73406         5.68988
     2015.72895         4.01888         5.68163
     2015.73169         7.22070         5.63112
     2015.73442         8.66152         5.68060
     2015.73702        -1.21296         6.16919
     2015.73992         5.01220         5.84552
     2015.74264         2.21197         5.81048
     2015.74538         9.17879         5.93211
     2015.74811         0.91061         5.88985
     2015.75085         1.59743         5.69709
     2015.75359         9.92825         5.72389
     2015.75633         4.88906         5.66720
     2015.75906         8.62988         5.81872
     2015.76180         9.35970         5.77028
     2015.76454         3.43452         5.73008
     2015.76728         2.96634         6.04652
     2015.77002         6.64216         5.80326
     2015.77275        13.79798         5.99292
     2015.77549        10.49979         5.76615
     2015.77823         5.84561         5.81872
     2015.78097        10.95943         5.74451
     2015.78371         8.39725         5.71977
     2015.78644         3.61807         5.80841
     2015.78918        -0.28711         5.71255
     2015.79192        10.60470         5.83728
     2015.79466         5.77852         5.75894
     2015.79739        16.42734         5.89809
     2015.80013        10.41316         5.93417
     2015.80287        -6.10502         5.96818
     2015.80561         5.02280         5.87645
     2015.80835        -2.67738         5.79192
     2015.81108         3.16943         5.85068
     2015.81382         5.14025         5.87954
     2015.81656         0.85707         6.07951
     2015.81930         4.25989         5.77749
     2015.82203         7.75971         5.94035
     2015.82477         8.44253         5.93932
     2015.82751        12.79334         6.15166
     2015.83025        14.26516         5.84037
     2015.83299        10.72898         6.10012
     2015.83572         8.36780         5.85892
     2015.83846        -1.27338         5.83831
     2015.84120        -8.05156         5.93520
     2015.84394         2.03226         5.88882
     2015.84668        -3.81693         5.89500
     2015.84941         2.96989         5.84449
     2015.85215         1.44271         5.81872
     2015.85489         5.55353         5.93932
     2015.85763        -4.61165         5.89706
     2015.86036         8.24117         6.08879
     2015.86310        -0.23101         5.77028
     2015.86584        -2.54220         5.86614
     2015.86858        -2.25838         5.80841
     2015.87132         0.42544         5.83728
     2015.87405        -5.81874         6.07229
     2015.87679        -2.90092         6.01766
     2015.87953         0.04590         6.19805
     2015.88227         1.38371         6.13723
     2015.88501        -8.26147         7.51229
     2015.88774        -6.15765         5.91149
     2015.89048        -1.16683         5.93314
     2015.89322         2.78099         5.94035
     2015.89596         5.02881         5.79089
     2015.89869        -2.40337         5.83728
     2015.90143        -4.30356         5.81563
     2015.90417        -8.03774         5.78471
     2015.90691        -5.60092         5.87026
     2015.90965        -2.34810         6.07642
     2015.91238        -6.33528         5.99189
     2015.91512        -2.44646         5.91149
     2015.91786        -1.38265         5.76409
     2015.92060        -1.62183         5.79192
     2015.92334        -9.75501         5.92180
     2015.92606        -9.74422         5.79605
     2015.92881        -2.69637         6.05786
     2015.93155        -7.77055         6.40111
     2015.93429         1.25827         6.05786
     2015.93702        -1.01592         6.06095
     2015.93976        -2.36610         6.14754
     2015.94250         5.91772         6.08260
     2015.94524         1.77254         5.90222
     2015.94798         1.71036         6.10837
     2015.95071         1.85118         5.89912
     2015.95345        -6.59301         5.85892
     2015.95619         2.40081         5.91252
     2015.95893        -6.08337         6.00014
     2015.96167         7.27845         6.03003
     2015.96440         1.65327         5.82594
     2015.96714         6.58109         6.09497
     2015.96988         2.87791         5.73626
     2015.97262        10.52772         5.73832
     2015.97535         4.64154         5.81357
     2015.97809         3.26836         5.73214
     2015.98083         2.22118         5.87954
     2015.98357       -15.83700         5.80429
     2015.98631        -6.96018         6.32277
     2015.98904        -2.47137         5.81048
     2015.99178        -2.31155         5.80841
     2015.99452        -7.41373         5.84965
     2015.99726        -5.04991         5.82182
     2016.00000        -4.47609         5.80841
     2016.00273        -8.19627         5.85171
     2016.00547        -8.30545         5.77543
     2016.00821       -20.72764         5.87335
     2016.01095         0.87818         5.82078
     2016.01368        -2.13000         5.79605
     2016.01642        -9.61418         5.94551
     2016.01916        -7.32936         5.97540
     2016.02190        -0.70654         5.91562
     2016.02464        -2.49973         5.76615
     2016.02744        -5.38678         6.07745
     2016.03011        -5.67009         5.85892
     2016.03285         3.13773         5.79089
     2016.03559        -0.70845         5.73214
     2016.03833        -0.36263         5.91562
     2016.04106         4.62919         5.78574
     2016.04380        -0.67400         6.91031
     2016.04654         0.56782         5.92902
     2016.04928        -2.57336         5.72698
     2016.05201        -2.02754         5.74245
     2016.05475        -3.19172         5.72698
     2016.05749        -4.80690         5.82491
     2016.06023        -5.39709         5.82182
     2016.06297         0.25573         5.67132
     2016.06570        -3.27245         5.68369
     2016.06844        -8.40763         5.95788
     2016.07118        -2.56481         6.36297
     2016.07392        -3.59799         6.24649
     2016.07666        -2.67917         6.03106
     2016.07939         7.32764         5.68266
     2016.08213        -1.36854         5.85377
     2016.08487        -0.13072         5.69297
     2016.08761       -12.76090         5.75069
     2016.09034        -4.75508         6.68560
     2016.09308       -10.22526         6.02694
     2016.09582        -9.10145         5.70946
     2016.09856       -14.26263         5.86098
     2016.10130       -16.64081         5.72080
     2016.10403       -15.27499         5.76409
     2016.10677       -15.40817         5.66308
     2016.10951       -10.04135         5.84449
     2016.11225        -9.29853         6.36503
     2016.11498        -2.89772         5.78368
     2016.11772       -11.48890         5.74760
     2016.12046        -5.21008         6.14136
     2016.12320        -2.19826         5.71565
     2016.12594        -8.77744         5.78574
     2016.12867        -6.18762         5.69091
     2016.13141         1.03920         5.65071
     2016.13415         1.07701         5.61978
     2016.13689        -0.24617         6.24134
     2016.13957        -8.78647         5.88366
     2016.14239       -12.24248         5.86820
     2016.14510       -19.10371         5.71668
     2016.14784       -14.78789         5.66926
     2016.15058        -7.26708         5.63009
     2016.15331       -11.64426         5.80326
     2016.15605        -7.46544         5.63731
     2016.15880       -16.64960         5.82697
     2016.16153        -1.66480         5.68781
     2016.16427        -8.38098         5.64349
     2016.16700        -2.56316         5.73214
     2016.16974       -12.76035         5.75481
     2016.17248       -15.25153         5.89294
     2016.17522        -6.15871         5.73523
     2016.17796         0.96611         5.71565
     2016.18069        -3.29107         5.68885
     2016.18343        -6.87825         6.74951
     2016.18617        -9.96244         5.57443
     2016.18891       -12.17962         5.66308
     2016.19164        -4.18280         5.45177
     2016.19438         1.32202         5.57546
     2016.19712        -1.39716         5.56000
     2016.19986        -4.66534         5.91871
     2016.20260        -9.56852         6.04034
     2016.20533       -10.49271         6.06199
     2016.20807       -11.49589         5.81357
     2016.21081        -5.17307         5.72389
     2016.21355        -6.23525         5.60432
     2016.21629        -9.83043         6.46914
     2016.21902        -4.40161         5.60432
     2016.22176        -2.11980         5.56309
     2016.22450        -7.01898         5.61154
     2016.22724        -9.50016         5.90015
     2016.22997        -9.08934         5.57958
     2016.23271        -7.07652         5.55794
     2016.23545        -4.40870         5.58164
     2016.23819        -9.95388         5.59195
     2016.24093        -6.58007         5.64761
     2016.24366       -10.04225         5.53835
     2016.24640        -6.65243         5.60741
     2016.24914        -3.69361         5.52908
     2016.25188         3.38421         6.39183
     2016.25462        -5.66597         5.85583
     2016.25735        -5.75616         5.69915
     2016.26009       -13.90534         5.69503
     2016.26283       -13.00252         5.65895
     2016.26557        -3.19570         5.67751
     2016.26830        -5.66988         5.63834
     2016.27104        -1.68806         5.61978
     2016.27378        -1.09124         5.56721
     2016.27652        -5.04043         5.58783
     2016.27926         2.12839         5.63215
     2016.28199        -5.73479         6.19908
     2016.28473        -2.39097         5.60948
     2016.28747       -11.65515         6.22794
     2016.29021       -12.47233         5.62494
     2016.29295        -5.38052         5.65689
     2016.29568        -1.15470         5.67545
     2016.29848        -0.39376         5.82285
     2016.30116        -4.87106         5.73935
     2016.30390        -8.91224         5.74554
     2016.30663         0.28958         5.65998
     2016.30937        -4.22060         5.63318
     2016.31211        -9.31479         5.71565
     2016.31485        -1.11397         5.63318
     2016.31759        -6.80915         5.60226
     2016.32032        -7.31333         5.60020
     2016.32306       -11.77151         5.61772
     2016.32580        -6.67769         5.61360
     2016.32854        -8.26888         5.63009
     2016.33128        -7.30906         5.61360
     2016.33401        -5.76224         5.74451
     2016.33675         0.52558         5.72492
     2016.33908        -2.72648         6.85053
     2016.34770         0.98985         5.73935
     2016.34914       -42.49109        71.45845
     2016.36442        -3.51661         6.23928
     2016.36687        -0.72542         5.54248
     2016.36961         8.20140         5.55175
     2016.37234         3.95722         5.57546
     2016.37508         2.06304         5.72080
     2016.37782       -12.42014         5.65483
     2016.37979        -9.65795         8.57708
     2016.39513        -1.54436         9.39345
     2016.39698         2.90459         5.59195
     2016.39972         9.06641         5.67751
     2016.40246        -4.05778         5.75481
     2016.40520        -1.57296         5.63731
     2016.40794        -8.05114         5.65483
     2016.41067       -11.87032         5.76925
     2016.41341        -5.40150         5.60123
     2016.41615        -1.15868         5.68885
     2016.41889        -5.35687         5.68060
     2016.42162         2.63095         5.65998
     2016.42436        -5.11923         5.56309
     2016.42710        -0.13741         5.56000
     2016.42984        -5.30859         5.73832
     2016.43258        -1.61377         5.61360
     2016.43531         9.94605         5.76203
     2016.43805         2.63586         5.56721
     2016.44079        -4.28332         5.74451
     2016.44355        -8.92046         5.58886
     2016.44626        -7.97868         5.64246
     2016.44900        -3.94586         5.66823
     2016.45174         3.31996         5.64040
     2016.45448         1.88777         5.58061
     2016.45722         0.27059         5.62803
     2016.45995         3.01141         5.56000
     2016.46269        -7.69577         5.58474
     2016.46543        -6.84095         5.53732
     2016.46817        -1.33013         5.58061
     2016.47091         4.98669         5.61978
     2016.47364         2.99550         5.59401
     2016.47638         6.20932         5.69606
     2016.47912         0.50114         5.71565
     2016.48186        -3.85004         5.80532
     2016.48459         1.27878         5.64761
     2016.48733         1.36060         5.68678
     2016.49007        -1.68859         5.59814
     2016.49281        -2.03177         5.51464
     2016.49555        -0.95995         5.62597
     2016.49828        -3.45913         5.66101
     2016.50102         2.92369         5.55484
     2016.50376         6.03651         5.72905
     2016.50650         3.98833         5.64864
     2016.50924        -0.42986         5.56515
     2016.51197        -1.79304         5.57443
     2016.51471         7.89878         5.61360
     2016.51745        -1.10840         5.75481
     2016.52019        -4.44658         5.69400
     2016.52292         5.28924         5.54557
     2016.52566         3.59205         5.50331
     2016.52840         0.19987         5.60844
     2016.53114         0.92369         5.53629
     2016.53388        -0.41049         5.64349
     2016.53661         2.05533         5.62081
     2016.53935         2.49215         5.47547
     2016.54209         4.26997         5.62288
     2016.54483         4.50278         5.52186
     2016.54757         1.97260         5.58371
     2016.55030         2.77942         5.70328
     2016.55304         4.83624         5.57340
     2016.55578         4.99006         5.71358
     2016.55852         4.93188         5.62184
     2016.56125         0.98269         5.47135
     2016.56399         4.67051         5.62288
     2016.56673         7.56633         5.68885
     2016.56947         0.64115         5.89191
     2016.57221         6.11097         5.51980
     2016.57494         3.75979         5.80120
     2016.57768        11.66661         5.66617
     2016.58042         4.93442         5.58989
     2016.58316         0.80224         5.49712
     2016.58590        -5.98194         5.50124
     2016.58863         2.45788         5.58680
     2016.59137        -1.16930         5.54041
     2016.59411         6.41252         5.69091
     2016.59685         5.88433         5.61978
     2016.59958         1.22715         5.53011
     2016.60232         1.88397         5.55794
     2016.60506         3.05579         5.65174
     2016.60780         4.94261         5.55381
     2016.61054         3.36043         5.57031
     2016.61327         1.74025         5.54248
     2016.61601         1.63606         5.48784
     2016.61875         2.11188         5.56103
     2016.62149        -1.91030         5.60535
     2016.62423         4.23052         5.69194
     2016.62696         6.54034         5.60226
     2016.62970         4.43816         5.62597
     2016.63244         0.59298         5.69606
     2016.63518         8.58479         5.58680
     2016.63791        16.66061         5.62803
     2016.64065        12.27843         5.64452
     2016.64339         3.97225         5.58061
     2016.64613         4.23707         5.54351
     2016.64887         3.04589         5.55691
     2016.65183         5.83719         6.23206
     2016.65434         5.71252         6.01148
     2016.65708        -0.66166         5.58268
     2016.65982         0.62016         5.58371
     2016.66256         5.30598         5.60226
     2016.66529         5.31880         5.69400
     2016.66803         3.80262         5.61875
     2016.67077        11.34143         5.81975
     2016.67351         3.67325         5.52289
     2016.67624         7.01307         5.65586
     2016.67898         4.60089         5.56928
     2016.68172        12.25471         5.53732
     2016.68446         7.84253         5.69503
     2016.68720         6.57234         5.85686
     2016.68993         7.25616         5.57855
     2016.69267         0.67098         5.73111
     2016.69541        12.55780         5.56206
     2016.69815         6.92762         5.57855
     2016.70089         6.96444         5.50124
     2016.70362         9.58426         5.77337
     2016.70636        -1.10493         5.90222
     2016.70910         8.83689         5.79605
     2016.71184        12.66271         5.70946
     2016.71457         8.24153         5.55484
     2016.71731        11.48135         5.67957
     2016.72005         4.38817         5.47754
     2016.72279         9.06398         5.54866
     2016.72553         5.69280         5.69503
     2016.72826         8.05162         5.65174
     2016.73100         9.56044         5.54041
     2016.73374         4.89426         5.54351
     2016.73648         7.30408         5.53732
     2016.73921        10.32890         5.85480
     2016.74195         6.08471         5.57134
     2016.74469         5.28253         5.47754
     2016.74743         2.53435         5.47032
     2016.75017         7.19617         5.54454
     2016.75290         7.25599         5.52083
     2016.75564         8.94381         5.58680
     2016.75838        12.88862         5.65174
     2016.76112        11.36844         5.50537
     2016.76386         7.81326         5.50846
     2016.76659         7.28808         5.76203
     2016.76933        10.76490         5.63318
     2016.77207         3.93072         5.71049
     2016.77481         7.84954         5.66823
     2016.77754         5.51335         5.54969
     2016.78028        -0.37983         5.59711
     2016.78302         7.33199         5.52289
     2016.78576        -4.50119         5.76409
     2016.78850         4.87263         5.62288
     2016.79123         8.92845         5.62288
     2016.79397        14.27026         5.52598
     2016.79671        -1.70092         5.53217
     2016.79945        -7.46610         5.51155
     2016.80219        -3.18928         5.68885
     2016.80492        -3.42146         5.52495
     2016.80766         6.39336         5.65792
     2016.81040         1.54818         5.70637
     2016.81314        -2.50701         5.60123
     2016.81587        -2.56619         5.63009
     2016.81861        -5.56137         5.58886
     2016.82135         2.48245         5.59092
     2016.82409         3.44527         5.52083
     2016.82683        -5.69991         5.54248
     2016.82956        -0.63410         5.47032
     2016.83230         8.31972         5.56000
     2016.83504         0.47754         5.60741
     2016.83778         5.99636         5.50743
     2016.84052       -10.73582         5.61463
     2016.84325        -3.64500         5.58371
     2016.84599        -4.15218         5.73832
     2016.84873         5.30763         5.79708
     2016.85147         4.93045         5.58989
     2016.85420        -1.27173         5.57031
     2016.85694         3.44009         5.73523
     2016.85968        -2.42409         5.73111
     2016.86242        -5.05927         5.67648
     2016.86516         6.75954         5.67132
     2016.86789        -3.64764         5.51671
     2016.87063        -1.50882         5.59814
     2016.87337         4.05400         5.59917
     2016.87611        -0.32218         5.50434
     2016.87885        -2.79136         5.49197
     2016.88158        -7.85854         5.49403
     2016.88432         2.19827         5.62597
     2016.88706         3.75509         5.52083
     2016.88980         1.74291         5.68988
     2016.89253        -5.66127         5.56309
     2016.89527         0.73255         5.56928
     2016.89801        -7.57763         5.48991
     2016.90075        -4.42981         5.51258
     2016.90349         1.69800         5.67751
     2016.90622        -0.51118         5.66514
     2016.90896         4.17164         5.58164
     2016.91170        -5.46554         5.56103
     2016.91444         0.48028         5.65586
     2016.91718        -2.87290         5.71977
     2016.91991        -8.30409         5.66308
     2016.92265        -5.89227         5.61360
     2016.92539        -0.08045         5.58680
     2016.92813       -11.82963         5.59814
     2016.93086        -2.94581         5.46929
     2016.93360        -2.98099         5.56721
     2016.93634        -1.12017         5.63112
     2016.93908        -9.16536         5.65483
     2016.94182         2.88346         5.72286
     2016.94455        -0.59372         5.71565
     2016.94729        -0.04890         5.65586
     2016.95003        -1.67208         6.63716
     2016.95368        -0.44432         9.15843
     2016.95551        -8.43345         5.58886
     2016.95824         0.78437         5.57134
     2016.96098        -0.80181         5.50949
     2016.96372        -8.31499         5.75172
     2016.96646         8.74583         5.56928
     2016.96919        -1.33835         5.79811
     2016.97193        -9.73553         5.61154
     2016.97467         3.68528         5.79708
     2016.97741         0.40310         5.51052
     2016.98015         0.50592         5.54866
     2016.98288        -4.06726         5.50331
     2016.98562        -4.60544         5.57443
     2016.98836         3.20138         5.61360
     2016.99110        -1.70681         5.62288
     2016.99384         3.11701         6.12486
     2016.99657         1.36583         5.56412
     2016.99931        -2.17435         5.52804
     2017.00074       -41.56032       107.75615
     2017.00479         2.89429         5.57443
     2017.00752        -6.59589         5.46929
     2017.01300         3.82874         6.15476
     2017.01574        -2.38044         5.50124
     2017.01848        -1.22762         5.55588
     2017.02121         2.13720         5.54144
     2017.02395        -1.96398         5.50846
     2017.02669        -2.16317         5.49815
     2017.02943         2.37365         5.54866
     2017.03216        -5.50353         5.50124
     2017.03490        -7.46571         5.52083
     2017.03764        -7.57489         5.55588
     2017.04038        -7.09707         5.51258
     2017.04312        -4.99525         5.52701
     2017.04585         1.46356         5.83934
     2017.04859        -0.79062         5.86614
     2017.05133         6.46520         5.55381
     2017.05407         0.10402         5.55897
     2017.05681         6.35184         5.59195
     2017.05954        -2.90434         5.54763
     2017.06228        -0.32753         5.56928
     2017.06502        -7.21071         5.55484
     2017.06776        -9.31189         5.59298
     2017.07049        -3.25107         5.60123
     2017.07323       -18.50325         5.64246
     2017.07597       -11.40243         5.58886
     2017.07871        -5.28161         5.71668
     2017.08145        -8.12180         5.51877
     2017.08418        -6.00698         5.58577
     2017.08665        -3.38374         6.36400
     2017.09314       -28.68894        69.95970
     2017.09514        -1.22470         5.65689
     2017.09787       -10.23189         5.47135
     2017.10061        11.77393         5.50227
     2017.10335        -8.87325         5.67648
     2017.10609        -8.28943         5.47238
     2017.10882        -9.62561         5.63524
     2017.11156        -6.13879         8.01840
     2017.11430       -11.07597         5.55691
     2017.11704       -19.98416         5.55381
     2017.11978       -11.22034         5.58989
     2017.12251        -8.46452         5.66926
     2017.12525        -8.20370         5.56103
     2017.12799        -1.82288         5.57958
     2017.13073        -2.83406         5.53114
     2017.13347        -0.39025         5.51361
     2017.13620        -1.44043         5.55278
     2017.13894        -1.89061         5.55794
     2017.14168        -6.57879         5.50227
     2017.14442       -11.00197         5.57237
     2017.14715       -12.77615         5.61978
     2017.14989        -6.12133         5.61360
     2017.15263        -0.90752         5.69091
     2017.15537         0.30530         5.47547
     2017.15811         0.54412         5.69297
     2017.16084        -1.92106         5.62803
     2017.16358        -5.88824         5.57958
     2017.16632        -3.85142         5.56103
     2017.16906        -1.28060         5.61566
     2017.17180         1.32621         5.58164
     2017.17453         0.98103         5.51980
     2017.17727        -4.00615         5.70843
     2017.18001        -7.09033         5.64246
     2017.18275         1.11049         5.61360
     2017.18548        -5.55969         5.48063
     2017.18822        -0.04188         5.67854
     2017.19096       -11.46306         5.65174
     2017.19370        -3.12024         5.64040
     2017.19644        -7.53842         5.64349
     2017.19917        -3.20060         5.57443
     2017.20082        -8.91811        13.67632
     2017.20465        -4.35496         5.74451
     2017.20739       -14.52315         9.52745
     2017.21013        -2.82133         5.53526
     2017.21286        -8.89351         5.64143
     2017.21560        -7.11569         5.56928
     2017.21834         3.56313         5.53629
     2017.22108         4.19695         5.60123
     2017.22381        -2.80524         5.71358
     2017.22655        -4.44742         5.67751
     2017.22929        -6.54260         5.57134
     2017.23203        -0.72578         5.51567
     2017.23477        -4.40496         5.60638
     2017.23750        -9.98014         5.51258
     2017.24024        -6.92832         5.59092
     2017.24298        -8.81651         5.51671
     2017.24572        -6.96269         5.59504
     2017.24846       -17.00487         5.54969
     2017.25119        -6.71905         5.54763
     2017.25393        -6.91923         5.54763
     2017.25667       -10.08441         5.64555
     2017.25941        -8.79460         5.53629
     2017.26214        -1.11878         5.69606
     2017.26488         3.34504         5.64555
     2017.26762        -1.28914         5.54248
     2017.27036        -2.61532         5.57237
     2017.27310        -7.75550         5.86614
     2017.27583        -5.79968         5.64968
     2017.27857        -4.29087         5.52392
     2017.28131        -5.82005         5.55794
     2017.28405       -14.29723         5.58371
     2017.28679       -13.32741         5.51877
     2017.28952        -9.73159         5.65071
     2017.29226        -6.42177         5.59401
     2017.29500        -8.15196         5.70843
     2017.29774       -14.28414         5.56206
     2017.30047        -3.49432         5.55381
     2017.30321       -16.67650         5.52701
     2017.30595        -6.12768         5.58577
     2017.30869       -10.28286         5.57752
     2017.31143        -0.99304         5.49300
     2017.31416        -8.41323         5.53732
     2017.31690         0.94859         5.59917
     2017.31964        -9.10659         5.78471
     2017.32238       -13.62977         5.66101
     2017.32512       -11.14795         5.54866
     2017.32785        -9.04813         5.71874
     2017.33059       -12.69432         5.45074
     2017.33333       -13.86050         5.58371
     2017.33607       -15.26668         5.57443
     2017.33880        -5.69086         5.67029
     2017.34154        -2.89704         6.58150
     2017.34428       -11.41522         5.61257
     2017.34702        -8.55140         5.50331
     2017.34976        -3.32459         5.52495
     2017.35249        -8.82877         5.56103
     2017.35523       -10.31895         5.59401
     2017.35797       -11.89213         5.60948
     2017.36071        -7.71231         5.55691
     2017.36344        -6.50749         5.49712
     2017.36618        -7.63368         5.57134
     2017.36892        -7.76986         5.69606
     2017.37166        -6.04704         5.58989
     2017.37440        -7.16322         5.48578
     2017.37713        -5.92040         5.70328
     2017.37987       -10.64358         5.66514
     2017.38261        -5.08676         5.57237
     2017.38535        -6.04895         5.60844
     2017.38809        -6.16913         5.64246
     2017.39082        -3.90931         5.74451
     2017.39356         2.95951         5.77337
     2017.39630         0.73433         5.63834
     2017.39904         0.23915         5.62494
     2017.40177        -5.26404         5.63628
     2017.40451        -3.78022         5.75997
     2017.40725         4.79960         5.64864
     2017.40999         1.30342         5.63215
     2017.41273        -1.70276         5.61360
     2017.41546        -5.31794         5.60948
     2017.41820        -3.59212         5.74657
     2017.42094        -1.74631         5.71255
     2017.42368        -5.53649         5.58268
     2017.42642        -5.20367         5.47238
     2017.42915         0.69615         5.61257
     2017.43189         5.07997         5.78265
     2017.43463         0.13679         5.54557
     2017.43737         3.19161         5.53732
     2017.44010         5.07842         5.65380
     2017.44284        -1.06376         5.59917
     2017.44558         1.81806         5.54660
     2017.44832         6.02588         5.63731
     2017.45106         7.78070         5.58474
     2017.45379         4.33752         5.69606
     2017.45653         5.54033         5.81151
     2017.45927        -4.71885         5.65071
     2017.46201         0.02497         5.60329
     2017.46475        -1.45321         5.64761
     2017.46748        -1.15939         5.64246
     2017.47022        -2.16457         5.67338
     2017.47296         3.08025         5.60844
     2017.47570        -0.49594         5.65277
     2017.47843        -4.69212         5.62597
     2017.48117        -4.35730         5.77646
     2017.48391         2.91152         5.59195
     2017.48666         4.45337         5.60226
     2017.48939         2.63716         5.52804
     2017.49212         2.26997         5.60741
     2017.49486        -0.69921         5.54866
     2017.49760         2.83061         5.64040
     2017.50034        -2.30157         5.54557
     2017.50308         7.23925         5.56206
     2017.50581         2.78407         5.59298
     2017.50855        -1.22811         5.71358
     2017.51129         0.95470         5.66204
     2017.51403         7.05852         5.72286
     2017.51676         1.23634         5.68885
     2017.51950         3.73716         5.66617
     2017.52224         6.59198         5.74451
     2017.52498        -0.96520         5.58989
     2017.52772        -1.34839         5.78677
     2017.53045         3.59843         5.61051
     2017.53319         0.19225         5.68060
     2017.53593         4.72607         5.67545
     2017.53867         4.56289         5.65380
     2017.54141        13.15771         5.68266
     2017.54414         6.49653         5.63834
     2017.54688         2.58834         5.58886
     2017.54962         1.37516         5.67235
     2017.55236         3.72698         5.72389
     2017.55509        10.76180         5.58989
     2017.55783         9.16262         5.65277
     2017.56057         0.17744         5.68575
     2017.56331        -0.08275         5.68060
     2017.56605         6.27907         5.69091
     2017.56878         5.97189         5.61875
     2017.57152        14.59971         5.78677
     2017.57426         9.51353         5.65277
     2017.57700         1.56035         5.63937
     2017.57974        -2.89483         5.64864
     2017.58247         5.93698         7.26593
     2017.58522         1.01481         7.97304
     2017.58795        18.19062        41.73709
     2017.59069         5.91844         6.04755
     2017.59342         9.16726         5.70637
     2017.59616         9.96208         5.64968
     2017.59890         7.79289         5.64452
     2017.60164         1.10071         5.62700
     2017.60438         5.70253         5.64040
     2017.60711         6.83034         5.77131
     2017.60984         1.24915         8.03489
     2017.61258         5.65797         7.14739
     2017.61532         7.12979         7.02267
     2017.61806         6.33061         7.44116
     2017.62079         2.80242         8.86775
     2017.62355         6.22327         6.65880
     2017.62627         3.28306         7.19584
     2017.62901        11.88389         8.57604
     2017.63174        -3.48330         7.82049
     2017.63449         3.48352         6.94845
     2017.63722        -1.28867         8.02458
     2017.63996        14.10215         7.92150
     2017.64271         8.80099         5.98880
     2017.64544         7.80481         5.58989
     2017.64818         7.83963         5.70843
     2017.65092         5.53445         5.55381
     2017.65366         7.84926         5.68369
     2017.65639        11.95108         5.60432
     2017.65913         7.59390         5.65380
     2017.66187         3.96872         5.58886
     2017.66461        13.46454         5.75481
     2017.66735         8.94036         5.77234
     2017.67008        14.27117         5.56309
     2017.67282        14.18099         5.70534
     2017.67556        11.58281         5.59711
     2017.67830         8.57963         5.49918
     2017.68104         7.16045         5.61463
     2017.68377        12.49127         5.86305
     2017.68651        11.65409         5.91458
     2017.68925        12.13690         5.50846
     2017.69199        11.71272         5.66411
     2017.69472         9.94054         5.56309
     2017.69746        12.86536         5.75791
     2017.70020        10.54318         5.80841
     2017.70294        14.00400         5.85892
     2017.70568         7.94382         5.69915
     2017.70841        11.95063         5.55175
     2017.71115        11.84745         5.72389
     2017.71389        10.15527         5.68369
     2017.71663        13.96609         5.62081
     2017.71937         7.74691         5.57340
     2017.72210         9.57073         5.67751
     2017.72484         7.53954         5.59711
     2017.72758        10.81636         5.57958
     2017.73032         7.36118         5.58061
     2017.73305        10.64500         5.56824
     2017.73579         6.30082         5.55381
     2017.73853         6.41564         5.83728
     2017.74127         6.35446         5.52804
     2017.74401         7.98027         5.71565
     2017.74674         9.99709         5.62700
     2017.74948         9.69491         5.57134
     2017.75222         9.96673         5.52495
     2017.75496         4.42855         5.51567
     2017.75770         4.40137         5.67441
     2017.76043         4.12218         5.56928
     2017.76317         7.61900         5.56721
     2017.76591        12.50382         5.68163
     2017.76865         5.92564         5.47238
     2017.77138        -1.56354         5.58680
     2017.77412         4.47428         5.74863
     2017.77686         7.15810         5.50021
     2017.77960         4.19591         5.64555
     2017.78234         2.26273         5.61669
     2017.78507         5.84755         5.55794
     2017.78781        -2.89863         5.49300
     2017.79055         5.26419         5.81460
     2017.79329        14.84901         5.79192
     2017.79603         6.80282         5.56618
     2017.79876        16.41764         5.63937
     2017.80150        11.63146         5.82182
     2017.80424         6.80628         5.49815
     2017.80698         0.25010         5.99705
     2017.80971         0.81392         5.53217
     2017.81245        -4.27026         5.54866
     2017.81519        -4.87745         5.72389
     2017.81793        -0.00063         5.60741
     2017.82067       -15.51180         6.32999
     2017.82341        -4.23198         7.19687
     2017.82614        -4.28617         6.34442
     2017.82888        -1.38634         6.23722
     2017.83162        -0.20553         7.11750
     2017.83436         9.23329         6.20423
     2017.83709         7.84110         5.92180
     2017.83982        -9.16211         6.01148
     2017.84255         5.03971         8.68531
     2017.84529         0.32553         7.67515
     2017.84805        -1.88561         7.51847
     2017.85079         7.00420         6.66911
     2017.85351         4.81498         7.06596
     2017.85626         5.60484         7.36076
     2017.85900         8.89866         7.41952
     2017.86172        -1.17756         6.91856
     2017.86448        10.63730         7.17007
     2017.86721         3.11110         6.94742
     2017.86993         1.04089         6.79074
     2017.87269         6.77975         6.72374
     2017.87541        11.52053         7.54424
     2017.87815         8.04435         7.44425
     2017.88088         2.75117         6.93299
     2017.88364         5.36902         5.93417
     2017.88637         2.82383         5.62184
     2017.88858        -1.29147         7.23810
     2017.89459        16.78629         6.68457
     2017.89732         5.47710         6.38256
     2017.90007        -0.55406         6.98041
     2017.90281         1.22275         7.08451
     2017.90554        11.18256         6.85465
     2017.90828         5.29639        11.91575
     2017.91100         6.63517         7.36488
     2017.91376         4.77703         6.75157
     2017.91648         3.76681         6.65571
     2017.91886         1.72187         8.83683
     2017.92197         6.55348         6.87939
     2017.92470        -7.66172         6.58459
     2017.92745        -9.21788         8.33897
     2017.93018        -6.52807         6.74024
     2017.93292        -7.80124         6.93917
     2017.93566        -1.49342         6.47739
     2017.93840         6.38140         7.11853
     2017.94114         1.75821         6.88557
     2017.94387         1.05103         6.47017
     2017.94661         9.06585         8.06272
     2017.94935         5.18267         7.69267
     2017.95116       -11.21148        14.35766
     2017.95483         3.92831         7.29170
     2017.95642         3.61070        19.85272
     2017.96028         7.00590         7.34221
     2017.96302         8.80772         6.57943
     2017.96577         5.28556         6.45677
     2017.96851         9.13840         7.40921
     2017.97124        -2.77681         7.58135
     2017.97398         7.61100        11.58178
     2017.97673         3.54885         6.51965
     2017.97946         1.75165         7.41952
     2017.98219       -24.23354         6.52893
     2017.98493        -3.41272         6.27433
     2017.98740        -7.04546         7.12471
     2018.04905        -1.95244        23.82842
     2018.05064         5.53893         6.65365
     2018.05338        -3.41124         6.78250
     2018.05611        -9.90944         7.24428
     2018.05886        -6.72960         6.39183
     2018.06160        -9.38778         6.67117
     2018.06433         1.61301         6.77425
     2018.06707         6.64485         7.56898
     2018.06980        -4.47935         6.81445
     2018.07255         2.89750         6.90001
     2018.07529        -7.64469         6.77013
     2018.07803       -23.11686         6.60520
     2018.08076         8.28395         7.33912
     2018.08622        -7.34245         6.47326
     2018.08896       -11.93763         7.13399
     2018.09170        -9.55480         7.14327
     2018.09444        -2.54099         6.84950
     2018.09717        -5.63717         7.85759
     2018.09991        -6.36936         7.42055
     2018.10266       -14.44851         7.48136
     2018.10540        -9.06869         7.26696
     2018.10813        -4.93189         7.15151
     2018.11086        -7.16708         7.04019
     2018.11361        -4.17825         6.48976
     2018.11634        -7.00344         7.34839
     2018.11908        -4.30763         7.89264
     2018.12182        -0.03480         7.20511
     2018.12457         1.26605         6.99071
     2018.13003        -0.06535         8.18538
     2018.13278         4.96050         7.10513
     2018.13551         0.96429         6.57737
     2018.13826        -9.89287         6.20423
     2018.14099        -7.34605         5.68781
     2018.14373        -4.78223         5.64658
     2018.14647        -2.68541         5.88469
     2018.14921         9.93741         5.75688
     2018.15195         7.75023         5.67029
     2018.15468        -3.20596         5.68988
     2018.15742        -4.03414         5.61566
     2018.16016         2.05468         5.63215
     2018.16290        -2.86150         5.70225
     2018.16564        -2.73268         5.64555
     2018.16837       -11.93386         5.59195
     2018.17111        -5.38705         5.69709
     2018.17385        -4.96823         5.71049
     2018.17659        -7.49941         5.62906
     2018.17932        -2.36659         5.63421
     2018.18206         5.34923         5.76512
     2018.18480         1.93505         5.79089
     2018.18754        -4.26013         5.59917
     2018.19028        -9.97932         5.66720
     2018.19301        -6.86750         5.57237
     2018.19575         5.23432         5.52804
     2018.19842         0.77299         5.74554
     2018.27099        -8.44179       134.84903
     2018.27114       -14.26146        40.77641
     2018.28165         3.49387        10.94580
     2018.28336        -3.59549         5.54969
     2018.28610        -0.35267         5.51671
     2018.28884         2.15715         5.46620
     2018.29158         5.72597         5.72492
     2018.29431        -8.80221         5.63731
     2018.29705        -6.57540         5.60741
     2018.29979        -6.50758         5.62288
     2018.30253        -4.96076         5.55278
     2018.30527        -5.72494         5.43115
     2018.30800        -5.12812         5.51774
     2018.31074        -5.83230         5.46620
     2018.31245        -3.80667        15.29154
     2018.32840         3.05123        22.41110
     2018.32991        -2.45357         5.71152
     2018.33166        -6.40484        10.67986
     2018.34086        -0.19630         5.64143
     2018.34360        -3.21248         5.58577
     2018.42974         1.83959        23.66968
     2018.43121         7.34471         5.48578
     2018.43394         4.14153         5.46517
     2018.43668         0.75735         5.58268
     2018.43942         1.24016         5.50021
     2018.44216         3.48398         5.52392
     2018.44490         2.52180         5.48269
     2018.44763         3.21362         5.61978
     2018.45037         8.53544         5.71565
     2018.51975         2.42288        10.84478
     2018.53525       147.13981         5.71565
     2018.53798       146.85563         5.67338
     2018.54072       147.72345         5.73523
     2018.54346       163.72827         6.00220
     2018.54620       142.27609         5.60638
     2018.54893       143.85990         5.87129
     2018.55167       140.43172         5.69091
     2018.55441       144.48554         5.68885
     2018.55715       152.56136         6.04240
     2018.55989       138.76318         5.77337
     2018.56262       142.26000         5.67751
     2018.56536       142.20681         5.72905
     2018.56810       145.91663         5.59814
     2018.57084       155.82245         6.00632
     2018.57357       146.64727         5.84346
     2018.57631       141.75609         6.10940
     2018.57905       139.47991         6.07539
     2018.58179       146.88073         5.83109
     2018.58453       151.19954         6.07848
     2018.58726       147.08536         5.62597
     2018.59000       149.59618         5.79192
     2018.59274       142.44400         5.70225
     2018.59548       151.17582         5.88882
     2018.59822       141.32764         5.68369
     2018.60095       147.57645         5.78161
     2018.60369       154.43627         5.90531
     2018.60643       153.85709         5.91665
     2018.60917       150.41691         5.80429
     2018.61190       142.69873         5.62597
     2018.61464       146.62455         5.80120
     2018.61738       155.38237         5.84758
     2018.62012       143.12818         5.60844
     2018.62286       145.58100         5.84037
     2018.62559       146.03082         5.84862
     2018.62833       147.88064         5.74966
     2018.63107       150.61246         5.80945
     2018.63381       158.43328         5.98983
     2018.63655       149.15809         5.91252
     2018.63928       146.25091         5.91768
     2018.64202       155.04573         6.28360
     2018.64476       162.44255         6.09085
     2018.64750       155.85137         5.93417
     2018.65023       154.15419         5.77543
     2018.65297       150.64801         5.70328
     2018.65571       143.02082         5.71874
     2018.65845       146.87164         5.66204
     2018.66119       163.87046         6.03312
     2018.66392       157.10528         5.93211
     2018.66666       144.95210         5.68060
     2018.66940       142.41292         5.71461
     2018.67214       145.03873         5.91871
     2018.67488       155.11555         5.92489
     2018.67761       155.02637         5.90325
     2018.68035       145.40619         5.91046
     2018.68309       133.25101         5.84965
     2018.68583       150.99583         5.89191
     2018.68856       157.56965         5.89912
     2018.69130       149.93346         5.93829
     2018.69404       150.59828         5.88160
     2018.69678       145.21410         5.81975
     2018.69952       138.53092         5.67957
     2018.70225       132.00074         5.69812
     2018.70499       138.44956         5.75172
     2018.70773       148.03637         5.91252
     2018.71047       128.66019         5.55691
     2018.71321       135.87801         5.64864
     2018.71594       148.77583         5.89500
     2018.71868       138.65065         5.73832
     2018.72142       139.90547         5.74348
     2018.72416       141.16229         5.90015
     2018.72689       142.21210         5.72801
     2018.72963       140.15092         5.71565
     2018.73237       139.71674         5.72905
     2018.73511       132.94256         5.61463
     2018.73785       137.81338         5.62700
     2018.74058       133.68920         5.68163
     2018.74332       142.70202         5.64968
     2018.74606       144.46383         5.72595
     2018.74880       141.42265         5.86923
     2018.75154       142.25247         5.98055
     2018.75427       135.11629         5.53732
     2018.75701       144.82111         5.87232
     2018.75975       135.34093         5.55897
     2018.76249       135.71674         5.61772
     2018.76522       134.33956         5.80326
     2018.76796       137.02238         5.74554
     2018.77070       140.90120         5.75585
     2018.77344       133.27702         5.54763
     2018.77618       131.83684         5.52495
     2018.77891       146.92366         5.80635
     2018.78165       144.01647         5.85995
     2018.78439       139.84029         5.64246
     2018.78713       139.66411         5.73008
     2018.78987       132.24893         5.74348
     2018.79260       136.57975         5.66308
     2018.79534       145.85457         5.77337
     2018.79808       142.25138         5.83109
     2018.80082       147.32820         5.82594
     2018.80355       150.04902         6.00220
     2018.80629       144.60384         5.94963
     2018.80903       144.33066         5.79192
     2018.81177       147.91648         6.12383
     2018.81451       158.29130         6.29803
     2018.81724       148.10511         6.64128
     2018.81999       147.36794         5.90428
     2018.82272       148.04075         6.40729
     2018.82546       151.77758         6.45677
     2018.83094       143.08922         6.34854
     2018.83367       151.05602         6.59902
     2018.83641       158.42484         6.40936
     2018.83915       151.78266         6.28773
     2018.84188       156.17048         6.38359
     2018.84462       146.68330         5.97746
     2018.84736       138.00012         6.18877
     2018.85010       135.69694         6.00735
     2018.85284       140.92676         6.28773
     2018.85558       112.34858        16.88203
     2018.85832       144.25040         6.45986
     2018.86104       144.24820         6.23722
     2018.86379       140.88504         6.25577
     2018.87200       143.49248         6.29700
     2018.87474       155.72831         6.42997
     2018.87748       140.07212         6.39286
     2018.88021       144.50294         6.10631
     2018.88295       151.02476         6.23516
     2018.88569       146.97158         6.03209
     2018.88843       150.92539         5.97540
     2018.89117       140.46521         5.84449
     2018.89390       150.35903         6.13002
     2018.89664       145.33185         6.27123
     2018.89938       139.10967         5.90325
     2018.90212       145.22949         6.06508
     2018.90485       147.44030         6.00942
     2018.90759       142.13312         5.84243
     2018.91033       145.78994         5.94963
     2018.91307       152.74776         6.08054
     2018.91581       150.12758         5.99705
     2018.91854       152.37640         5.92283
     2018.92128       151.83122         6.00632
     2018.92402       145.20903         5.91046
     2018.92676       146.98785         5.90428
     2018.92950       141.11967         5.71461
     2018.93223       151.78649         6.16197
     2018.93497       139.67731         5.82697
     2018.93771       143.74813         5.88572
     2018.94045       146.36494         5.90840
     2018.94318       141.73776         5.90015
     2018.94592       151.03658         5.94654
     2018.94866       156.39640         6.17125
     2018.95140       159.09622         6.32174
     2018.95414       156.44104         6.85362
     2018.95687       143.15186         5.82697
     2018.95961       149.60367         6.08466
     2018.96235       156.08249         5.92180
     2018.96509       147.83831         5.79914
     2018.96783       153.05513         6.17846
     2018.97056       158.82495         6.29700
     2018.97330       139.78677         5.93417
     2018.97604       138.35558         5.82903
     2018.97878       144.80340         5.96715
     2018.98151       139.17722         6.04549
     2018.98425       146.49504         5.99086
     2018.98699       137.87986         6.01354
     2018.98973       130.02968         5.69812
     2018.99247       144.91550         6.04859
     2018.99520       145.20731         5.98365
     2018.99794       139.61913         6.07951
     2019.00068       133.99095         5.99189
     2019.00342       135.65277         6.03622
     2019.00616       144.36359         6.11455
     2019.00889       141.18841         5.86717
     2019.01163       137.92423         5.86717
     2019.01437       142.31904         5.75997
     2019.01711       144.57486         5.80635
     2019.01984       143.09468         6.05168
     2019.02258       133.91550         5.94242
     2019.02532       137.48832         6.12796
     2019.02806       135.64614         5.97334
     2019.03080       136.30895         5.85171
     2019.03353       139.00077         5.99602
     2019.03627       136.76259         5.98880
     2019.03901       145.69441         5.99705
     2019.04175       131.26923         5.78161
     2019.04449       144.06705         5.92180
     2019.04722       133.98787         5.96406
     2019.04996       137.72968         5.95582
     2019.05270       126.83650         6.02694
     2019.05544       122.44432         5.70328
     2019.05817       134.58514         6.27123
     2019.06091       143.27596         6.24443
     2019.06365       141.59478         6.03828
     2019.06639       133.86159         5.74966
     2019.06913       132.91241         5.97849
     2019.07186       135.63223         5.99705
     2019.07460       138.34105         5.82285
     2019.07734       145.99187         6.11662
     2019.08008       143.25669         5.96612
     2019.08282       134.36951         6.00529
     2019.08555       141.48932         6.02282
     2019.08829       134.04914         5.77955
     2019.09103       144.19196         5.86511
     2019.09377       144.38778         5.78677
     2019.09650       151.38360         5.85377
     2019.09924       146.13442         6.05889
     2019.10198       135.93423         5.90325
     2019.10472       136.33205         6.01766
     2019.11567       141.40633         5.99705
     2019.11841       143.98215         5.64040
     2019.12115       156.28796         5.90531
     2019.12388       150.87078         5.93108
     2019.12662       141.41560         6.06405
     2019.12936       141.72342         5.96715
     2019.13210       143.16824         5.98159
     2019.13483       144.41306         6.10528
     2019.13757       145.47387         6.03828
     2019.14031       154.17469         6.13826
     2019.14305       144.78451         5.88985
     2019.14579       127.90133         5.83315
     2019.14852       139.58015         5.95685
     2019.15126       150.65897         5.94963
     2019.15400       138.44679         5.84552
     2019.15674       135.02560         5.80738
     2019.15948       135.70542         5.80120
     2019.16221       139.83524         6.25783
     2019.16495       139.81106         5.92283
     2019.16769       140.88688         5.99911
     2019.17043       134.01970         5.96303
     2019.17316       130.21251         5.75069
     2019.17590       133.51333         5.88160
     2019.17864       132.09115         5.78161
     2019.18138       141.28697         5.88057
     2019.18412       138.35779         6.06714
     2019.18685       140.57061         5.95582
     2019.18959       135.92543         5.89603
     2019.19233       134.80824         5.82697
     2019.19507       138.51006         5.91665
     2019.19780       130.53388         5.90737
     2019.20054       142.85370         6.13311
     2019.20328       132.58352         5.83418
     2019.20602       136.09934         6.27742
     2019.20876       128.62815         5.85892
     2019.21149       130.46597         5.88469
     2019.21423       138.08179         5.84346
     2019.21697       138.22561         5.76306
     2019.21971       135.32443         6.06611
     2019.22245       139.80425         6.06405
     2019.22518       131.80707         5.75791
     2019.22792       138.57988         5.92386
     2019.23066       129.99570         5.77646
     2019.23340       132.17752         5.71152
     2019.23613       131.21034         5.83934
     2019.23887       136.11416         5.89706
     2019.24161       123.16998         5.96097
     2019.24435       133.27779         5.96200
     2019.24709       135.18061         5.85892
     2019.24982       143.97943         5.96200
     2019.25256       137.38325         5.96818
     2019.25530       135.60507         5.85686
     2019.25804       129.56089         5.71255
     2019.26078       138.91071         5.72286
     2019.26351       136.75552         5.81357
     2019.26625       143.12234         5.80945
     2019.26899       132.75516         5.80017
     2019.27173       138.54898         5.94448
     2019.27446       123.33380         5.51464
     2019.27720       128.92562         5.62494
     2019.27994       134.15044         5.82182
     2019.28268       136.41825         6.01148
     2019.28542       140.27707         5.60741
     2019.28815       134.38189         5.73935
     2019.29089       138.68471         5.84243
     2019.29363       142.25153         5.92798
     2019.29637       135.93235         6.01972
     2019.29911       135.54316         5.75172
     2019.30184       132.65198         5.83625
     2019.30458       129.28880         5.61257
     2019.30732       128.68162         5.62494
     2019.31006       140.69944         5.93005
     2019.31279       128.35826         5.79708
     2019.31553       155.30208         6.12177
     2019.31827       137.23589         5.77543
     2019.32101       131.65571         5.70534
     2019.32375       130.73653         5.79089
     2019.32648       129.73835         5.67957
     2019.32922       142.98017         6.07539
     2019.33196       140.79799         5.96406
     2019.33470       145.24580         6.01354
     2019.33744       143.73362         5.96509
     2019.34017       131.62544         5.69400
     2019.34291       134.07026         5.71874
     2019.34565       141.13108         6.13311
     2019.34839       129.83390         5.89500
     2019.35112       135.95072         5.68472
     2019.35386       138.53253         5.85686
     2019.35660       142.87935         6.00942
     2019.35934       153.32217         6.11146
     2019.36208       134.83399         5.97643
     2019.36481       146.40581         6.00942
     2019.36755       139.00563         5.81048
     2019.37029       134.68144         5.77749
     2019.37303       140.06326         5.69503
     2019.37577       155.22708         6.22485
     2019.37850       141.25190         5.94860
     2019.38124       151.57872         6.04446
     2019.38398       144.63254         5.87438
     2019.38672       140.31136         5.76821
     2019.38945       133.51417         5.87542
     2019.39219       148.29199         5.96509
     2019.39493       138.55381         5.72389
     2019.39767       144.92063         5.75069
     2019.40041       135.50145         5.67854
     2019.40314       153.43227         5.96200
     2019.40588       150.03208         5.87335
     2019.40862       138.27690         5.87129
     2019.41136       145.89072         5.93829
     2019.41410       146.38154         5.89088
     2019.41683       147.89436         6.21557
     2019.41957       147.38218         6.20836
     2019.42231       133.76900         5.80223
     2019.42505       152.89581         6.04034
     2019.42778       139.47863         5.90943
     2019.43052       142.91345         6.19289
     2019.43326       138.33727         5.81666
     2019.43600       130.51109         5.91458
     2019.43874       143.79591         6.10425
     2019.44147       138.89472         5.97437
     2019.44421       140.37454         6.03312
     2019.44695       140.69636         6.07745
     2019.44969       144.26118         5.90428
     2019.45243       138.16000         6.01766
     2019.45516       142.39682         6.04962
     2019.45790       141.08864         5.89912
     2019.46064       139.67345         5.87335
     2019.46338       140.26027         6.15063
     2019.46611       152.55909         6.31143
     2019.46885       148.51591         6.08466
     2019.47159       155.06973         6.13311
     2019.47433       148.15355         6.07848
     2019.47707       149.59836         5.92386
     2019.47980       148.84018         6.08157
     2019.48254       152.95600         6.06920
     2019.48528       128.51382         6.09703
     2019.48802       142.13664         5.94138
     2019.49076       137.12746         5.91355
     2019.49349       144.28528         5.87026
     2019.49623       134.75209         5.96818
     2019.49897       147.74891         6.23309
     2019.50171       126.93773         5.71874
     2019.50444       132.09655         6.05786
     2019.50718       139.81237         5.85583
     2019.50992       150.50619         6.16403
     2019.51266       131.52800         5.73935
     2019.51540       134.71882         5.84758
     2019.51813       134.49564         5.73111
     2019.52087       132.56246         5.82491
     2019.52361       141.46128         5.86305
     2019.52635       127.89610         5.82903
     2019.52908       142.57692         6.04962
     2019.53182       134.58673         5.98674
     2019.53456       132.76055         6.01560
     2019.53730       133.80537         6.23000
     2019.54004       142.93719         6.41966
     2019.54277       147.57001         6.12074
     2019.54551       135.19983         6.20939
     2019.54825       144.43865         6.00839
     2019.55099       129.89746         6.08363
     2019.55373       143.01128         6.10940
     2019.55646       133.87310         6.00735
     2019.55920       138.46492         6.10115
     2019.56194       146.49574         5.99499
     2019.56468       145.97556         6.50831
     2019.56741       142.35337         6.12486
     2019.57015       136.85419         5.74966
     2019.57289       137.96901         5.93211
     2019.57563       147.42483         5.93829
     2019.57837       153.86965         6.20939
     2019.58110       131.54547         5.95066
     2019.58384       143.82429         6.39389
     2019.58658       140.89410         5.81563
     2019.58932       150.09992         6.02282
     2019.59206       157.66374         6.09703
     2019.59479       142.64156         5.92592
     2019.59753       135.63638         6.08775
     2019.60027       151.38620         6.23103
     2019.60301       154.13401         6.15476
     2019.60574       148.03483         6.23516
     2019.60848       150.32165         6.37122
     2019.61122       134.75447         5.89706
     2019.61396       144.50029         6.13414
     2019.61670       152.24311         5.97746
     2019.61943       141.53193         5.93417
     2019.62217       163.74074         6.24340
     2019.62491       144.78856         5.76925
     2019.62765       148.65238         5.95994
     2019.63039       142.15720         5.88366
     2019.63312       150.02302         6.05374
     2019.63586       151.53484         6.07126
     2019.63860       142.56565         5.96509
     2019.64134       138.84147         5.90118
     2019.64407       150.91929         6.13723
     2019.64681       137.87011         6.00839
     2019.64955       148.09593         6.26814
     2019.65229       139.33575         5.86511
     2019.65503       139.92757         6.36297
     2019.65776       146.55038         6.11455
     2019.66050       149.55520         6.07951
     2019.66324       146.18802         5.90943
     2019.66598       139.38584         5.77337
     2019.66872       139.42666         5.82697
     2019.67145       153.12648         6.19289
     2019.67419       120.15529        26.78777
     2019.67695       150.13415         6.19289
     2019.67967       147.63093         5.99086
     2019.68240       138.12775         5.85480
     2019.68514       152.95957         6.13929
     2019.68788       142.29339         5.89294
     2019.69062       136.68321         5.73935
     2019.69336       139.20402         5.79811
     2019.69609       146.88184         5.77440
     2019.69883       152.60866         6.23619
     2019.70157       131.72348         5.76615
     2019.70431       140.08930         5.86098
     2019.70705       139.92212         5.85480
     2019.70978       136.61493         5.96097
     2019.71252       121.81075         5.78883
     2019.71526       132.80457         5.69400
     2019.71800       142.52139         6.32793
     2019.72073       136.72121         6.06302
     2019.72347       134.96103         5.73317
     2019.72621       151.72785         6.29494
     2019.72895       150.87466         5.91355
     2019.73169       148.79048         5.92489
     2019.73442       166.83130         6.29288
     2019.73716       142.68112         5.75275
     2019.73990       141.31694         5.99395
     2019.74264       140.44076         5.90428
     2019.74538       144.27757         5.81357
     2019.74811       149.77939         6.12177
     2019.75085       149.16921         6.17125
     2019.75359       149.26803         6.18259
     2019.75633       145.12585         6.00942
     2019.75906       138.31267         5.72801
     2019.76180       141.43649         5.87438
     2019.76454       142.52930         5.95272
     2019.76728       147.23712         5.96200
     2019.77002       143.00594         5.95788
     2019.77275       147.46376         6.14032
     2019.77549       148.09958         6.11352
     2019.77823       136.44440         5.89912
     2019.78097       149.36821         6.01560
     2019.78371       132.74803         5.70534
     2019.78644       148.83785         6.02385
     2019.78918       148.66267         6.33617
     2019.79192       134.06349         5.77131
     2019.79466       141.60731         6.16300
     2019.79739       139.19913         5.91458
     2019.80013       148.01594         5.93726
     2019.80287       149.52176         6.05889
     2019.80561       155.18958         6.30525
     2019.80835       139.14140         5.77749
     2019.81108       133.46022         5.81151
     2019.81382       146.95504         6.25268
     2019.81656       147.40886         6.10322
     2019.81930       140.06167         5.95169
     2019.82203       137.83949         6.00323
     2019.82477       142.39631         6.17434
     2019.82751       133.50413         5.91562
     2019.83025       137.86095         6.21557
     2019.83299       148.53477         6.22176
     2019.83572       141.46558         6.17434
     2019.83846       140.88740         5.90118
     2019.84120       144.79022         6.10115
     2019.84394       139.83404         6.19599
     2019.84668       133.16786         5.98674
     2019.84941       143.09468         6.07539
     2019.85215       127.49650         5.78471
     2019.85489       149.33531         6.10631
     2019.85763       128.79013         5.81666
     2019.86036       129.99195         5.90015
     2019.86310       144.96277         6.12589
     2019.86584       143.07959         6.06095
     2019.86858       145.20741         5.91046
     2019.87132       141.02222         5.93314
     2019.87405       138.84304         5.83625
     2019.87679       143.38986         6.06302
     2019.87953       144.37068         6.02900
     2019.88227       142.56350         5.85377
     2019.88501       138.20232         5.71874
     2019.88774       136.23614         5.87645
     2019.89048       145.01495         5.90222
     2019.89322       145.68877         6.06714
     2019.89596       138.45559         6.00220
     2019.89869       131.06941         5.71977
     2019.90143       137.49123         5.73111
     2019.90417       139.28205         5.82903
     2019.90691       136.95486         5.73420
     2019.90965       147.89268         6.11146
     2019.91238       135.81350         5.73214
     2019.91512       133.98632         5.74038
     2019.91786       142.89714         5.78780
     2019.92060       144.26796         5.81563
     2019.92607       133.67459         5.68472
     2019.92881       131.35941         5.65174
     2019.93155       142.76623         5.98055
     2019.93429       138.11105         5.79192
     2019.93702       136.64587         5.81872
     2019.93976       142.62569         5.90325
     2019.94250       125.87350         5.74348
     2019.94524       133.31832         5.97540
     2019.94798       125.27114         5.78058
     2019.95071       135.69696         6.10115
     2019.95345       133.54878         5.69915
     2019.95619       143.02560         6.04137
     2019.95893       133.59442         5.83109
     2019.96167       133.20023         5.75378
     2019.96440       148.78005         6.35885
     2019.96714       130.31687         5.94860
     2019.96988       125.48669         5.81563
     2019.97262       127.55951         5.90531
     2019.97535       126.57633         5.70946
     2019.97809       131.38414         5.73626
     2019.98083       126.45096         5.69709
     2019.98357       129.79378         5.80326
     2019.98631       124.51060         5.71049
     2019.98904       126.23542         5.72286
     2019.99178       137.27724         5.93932
     2019.99452       132.34506         5.83315
     2019.99726       140.14487         5.87645
     2020.00000       144.76469         6.04034
     2020.00273       146.61351         6.00323
     2020.00547       134.56633         6.03622
     2020.00821       133.62315         6.00220
     2020.01095       128.40997         6.03106
     2020.01368       126.84078         5.98674
     2020.01642       125.24160         6.04343
     2020.01916       135.86442         6.00323
     2020.02190       125.93924         5.82388
     2020.02464       118.71806         5.86202
     2020.02737       123.82888         5.71874
     2020.03011       134.27670         5.95272
     2020.03285       129.35451         5.92902
     2020.03559       136.42333         5.79811
     2020.03833       135.50115         5.80120
     2020.04106       125.15097         5.87748
     2020.04380       122.65079         5.68885
     2020.04654       127.76461         5.73935
     2020.04928       125.11242         5.82285
     2020.05201       121.78324         5.74554
     2020.05475       132.42706         5.73008
     2020.05749       132.64288         5.81254
     2020.06023       139.51270         6.07023
     2020.06297       136.25552         5.99911
     2020.06570       142.74934         6.03312
     2020.06844       129.76815         5.85583
     2020.07118       130.42897         5.78265
     2020.07392       141.33279         6.03312
     2020.07666       140.21361         6.13620
     2020.07939       132.33343         5.88675
     2020.08213       132.37025         5.81357
     2020.08487       141.81507         5.92283
     2020.08761       132.65988         5.69297
     2020.09034       139.77870         5.86408
     2020.09308       139.36452         6.03828
     2020.09582       140.65934         6.11352
     2020.09856       134.25916         5.80429
     2020.10130       129.55998         5.74348
     2020.10403       142.50879         5.96612
     2020.10677       137.28861         6.17434
     2020.10951       133.63243         5.92695
     2020.11225       129.24825         5.87232
     2020.11498       127.55207         5.75069
     2020.11772       129.06389         5.78574
     2020.12046       133.93471         6.06920
     2020.12320       115.56052         5.54454
     2020.12594       128.72234         5.80223
     2020.12867       132.69116         5.99292
     2020.13141       127.55098         5.79811
     2020.13415       132.45980         5.86305
     2020.13689       137.42962         6.07951
     2020.13963       132.76543         5.86820
     2020.14236       137.17925         6.04343
     2020.14510       135.41807         6.06199
     2020.14784       127.27589         5.63524
     2020.15058       135.04871         6.07848
     2020.15331       127.94253         6.00942
     2020.15605       128.92835         5.95788
     2020.15879       136.82916         5.94448
     2020.16153       144.30498         5.95375
     2020.16427       125.44780         5.66823
     2020.16700       137.18962         5.99395
     2020.16974       133.30144         5.99292
     2020.17248       144.14426         6.21866
     2020.17522       136.31907         5.87954
     2020.17796       132.64189         5.63318
     2020.18069       133.75771         5.87438
     2020.18343       136.82553         5.86820
     2020.18617       141.21035         6.17434
     2020.18891       135.54017         6.08672
     2020.19164       139.34699         6.02385
     2020.19438       133.47680         5.99395
     2020.19712       129.82962         5.99808
     2020.19986       128.19044         5.87748
     2020.20260       133.56126         6.15476
     2020.20533       138.96008         5.98365
     2020.20807       130.27690         5.82491
     2020.21081       125.56671         5.86202
     2020.21355       128.23953         6.44956
     2020.21629       133.91735         6.29700
     2020.21902       131.57817         6.12589
     2020.22179       119.20105         5.77646
     2020.22450       134.70581         5.94963
     2020.22724       134.19363         5.92283
     2020.22997       127.46144         5.73523
     2020.23271       131.17826         5.94242
     2020.23545       135.70508         6.00323
     2020.23819       129.53290         5.89088
     2020.24093       124.05872         5.78058
     2020.24366       141.69154         6.05786
     2020.24640       131.97035         5.95272
     2020.24914       127.61017         5.95582
     2020.25188       128.68099         5.93108
     2020.25462       134.88981         5.97025
     2020.25735       130.79063         6.06714
     2020.26009       144.51245         5.98262
     2020.26283       134.41027         5.94860
     2020.26557       134.62908         6.10734
     2020.26830       135.56290         6.13517
     2020.27104       132.93872         5.86820
     2020.27378       140.26254         6.11455
     2020.27652       136.59336         5.93829
     2020.27929       125.67525         5.95375
     2020.28199       132.48599         9.09349
     2020.28473       128.95281         8.91517
     2020.28747       135.85163         9.31408
     2020.29021       126.89245         5.75275
     2020.29295       141.63927         6.18774
     2020.29568       139.83209         6.06611
     2020.29842       142.50791         5.93932
     2020.30116       139.45372         6.02591
     2020.30390       137.84254         5.93108
     2020.30663       124.24336         5.83625
     2020.30937       135.10918         6.10734
     2020.31211       140.64600         6.42379
     2020.31485       135.16382         6.03828
     2020.31759       133.76263         5.80841
     2020.32032       146.49145         6.25371
     2020.32306       131.58627         5.91046
     2020.32580       135.89009         5.99911
     2020.32854       132.71991         5.98880
     2020.33128       129.22773         5.90634
     2020.33401       135.83055         6.09806
     2020.33675       142.33336         5.87335
     2020.33949       141.60918         5.95788
     2020.34223       133.02900         6.04859
     2020.34496       142.35382         6.13105
     2020.34770       127.95864         5.90531
     2020.35044       143.50246         6.37843
     2020.35318       128.63228         6.05683
     2020.35592       136.05909         6.15785
     2020.35865       132.43991         5.99808
     2020.36139       126.60373         5.67751
     2020.36413       136.30655         6.04240
     2020.36687       134.20037         6.06199
     2020.36961       137.58319         6.04343
     2020.37234       129.14400         5.79811
     2020.37508       140.32082         5.92695
     2020.37782       131.26264         5.75172
     2020.38056       126.58246         5.75791
     2020.38329       134.04128         5.82388
     2020.38603       129.94110         5.77131
     2020.38877       131.20192         5.92180
     2020.39151       131.61773         5.74141
     2020.39425       133.35255         5.87129
     2020.39698       128.19937         5.93829
     2020.39972       134.97719         5.89500
     2020.40246       132.43501         5.93829
     2020.40520       129.69483         5.85583
     2020.40794       131.75864         5.86820
     2020.41067       139.69746         5.95375
     2020.41341       130.36428         5.72183
     2020.41615       133.18010         5.92489
     2020.41889       130.48492         5.83934
     2020.42162       127.76374         5.96818
     2020.42436       129.62656         6.15372
     2020.42710       148.45837         6.46914
     2020.42984       146.25019         6.23516
     2020.43258       134.79101         5.94345
     2020.43531       127.45083         5.88057
     2020.43805       128.16865         5.83315
     2020.44079       133.77247         6.00632
     2020.44353       139.26228         6.01560
     2020.44626       132.46310         5.94138
     2020.44900       125.28392         5.78058
     2020.45174       140.23574         5.96715
     2020.45448       133.56056         5.86717
     2020.45722       132.48338         5.98365
     2020.45995       131.18620         5.83109
     2020.46269       126.79201         6.00323
     2020.46543       138.54983         5.95169
     2020.46817       142.90665         5.96922
     2020.47091       146.98947         6.13929
     2020.47364       141.18329         6.07023
     2020.47638       137.15411         5.79811
     2020.47912       147.72892         6.16506
     2020.48186       135.23374         5.82285
     2020.48459       139.28456         6.16712
     2020.48733       144.94538         6.53099
     2020.49007       133.36920         6.12280
     2020.49281       137.23002         6.01148
     2020.49555       142.66884         6.23722
     2020.49828       137.52365         5.87335
     2020.50102       138.26047         5.93829
     2020.50376       139.12029         6.12692
     2020.50650       136.18011         5.88675
     2020.50924       143.11393         6.06817
     2020.51197       132.74475         5.78883
     2020.51471       145.72856         5.92283
     2020.51745       144.56238         6.13002
     2020.52019       135.57420         6.09394
     2020.52292       133.58102         5.93520
     2020.52566       140.55784         6.02797
     2020.52840       131.12566         6.06817
     2020.53114       136.64248         6.02591
     2020.53388       127.87229         5.97643
     2020.53661       132.89011         6.20423
     2020.53935       150.46593         6.39699
     2020.54209       139.11875         6.04549
     2020.54483       142.10057         6.17022
     2020.54757       139.61839         6.14960
     2020.55030       128.84620         5.86923
     2020.55304       136.46302         6.01148
     2020.55578       132.74184         5.97025
     2020.55852       144.34066         6.03725
     2020.56125       147.83648         6.19496
     2020.56399       137.98330         6.03931
     2020.56673       129.67012         5.91149
     2020.56947       139.95893         6.09600
     2020.57221       140.98575         6.21969
     2020.57494       148.54357         6.24649
     2020.57768       141.98339         6.19599
     2020.58042       145.05921         6.24134
     2020.58316       133.97003         6.08363
     2020.58590       137.42985         6.05992
     2020.58863       143.51066         6.03519
     2020.59137       126.15748         5.76718
     2020.59411       140.28530         6.18259
     2020.59685       152.28012         6.40214
     2020.59958       136.68094         6.23000
     2020.60232       143.44076         5.99086
     2020.60506       130.91957         5.85789
     2020.60780       140.69739         6.24856
     2020.61054       153.58721         6.16300
     2020.61327       152.91603         6.16403
     2020.61601       136.29485         6.01663
     2020.61875       138.36967         6.07745
     2020.62149       129.20549         6.12899
     2020.62423       133.53830         6.06095
     2020.62696       141.51812         6.17640
     2020.62970       134.98094         6.04446
     2020.63244       132.66476         5.84552
     2020.63518       152.66258         6.23000
     2020.63791       130.01640         6.34442
     2020.64065       141.14021         5.99499
     2020.64339       133.61703         5.95375
     2020.64613       131.55085         6.27639
     2020.64887       131.11467         5.88882
     2020.65160       136.88749         6.12486
     2020.65434       133.29231         6.30009
     2020.65708       136.87513         6.29288
     2020.65982       136.48894         6.20939
     2020.66256       132.78976         6.41760
     2020.66529       143.06158         6.31349
     2020.66803       135.31040         6.16197
     2020.67077       144.88122         6.17537
     2020.67351       143.73104         6.37534
     2020.67624       144.42885         6.10837
     2020.67898       140.52667         6.11455
     2020.68172       134.17549         6.03725
     2020.68446       132.90431         6.07126
     2020.68720       133.63813         5.92798
     2020.68993       141.92595         6.11559
     2020.69267       135.48777         6.12280
     2020.69541       140.13958         6.75879
     2020.69815       134.94240         6.02694
     2020.70089       142.98422         6.08466
     2020.70362       138.59804         6.13517
     2020.70636       151.10286         6.70416
     2020.70910       133.91868         6.34751
     2020.71184       138.34549         6.26402
     2020.71457       135.22431         6.11043
     2020.71731       127.54813         5.89191
     2020.72008       127.42002         6.05992
     2020.72279       133.38577         5.97746
     2020.72553       143.98659         6.35163
     2020.72826       152.35041         6.51346
     2020.73100       158.44022         6.35988
     2020.73374       157.79004         6.29700
     2020.73648       148.11686         6.08157
     2020.73921       129.98268         5.86923
     2020.74195       138.26550         6.14857
     2020.74469       131.99832         6.10322
     2020.74743       128.08913         5.92592
     2020.75017       139.96795         6.01663
     2020.75290       126.87177         5.87129
     2020.75564       129.21659         5.93520
     2020.83230        -6.23049         5.85377
     2020.83504        -3.70667         5.82182
     2020.83778        -4.04286         5.61772
     2020.84052        -5.18604         6.03106
     2020.84325        -4.64822         6.04034
     2020.84599         2.07560         6.02385
     2020.84873        -2.46958         5.74245
     2020.85147        -4.93676         5.64864
     2020.85420         0.24206         5.56515
     2020.85694         0.79487         5.73008
     2020.85968        -3.99531         5.65277
     2020.86242        -2.17449         5.62391
     2020.86516         1.71333         6.06095
     2020.86789        -2.43085         5.86923
     2020.87063         5.44697         5.64246
     2020.87337         7.58378         5.71668
     2020.87611         0.67460         5.78986
     2020.87885        -4.70258         5.85274
     2020.88158        -5.41076         5.89088
     2020.88432        -4.35994         5.73111
     2020.88706        -9.11312         6.06508
     2020.88980        -9.55630         5.70946
     2020.89253       -13.15749         5.76925
     2020.89527         1.27733         6.11146
     2020.89801        -3.19385         5.85480
     2020.90075        -0.17703         5.66926
     2020.90349        -2.53721         5.58268
     2020.90622        -5.68839         5.65998
     2020.90896         0.77242         6.05065
     2020.91170        -9.99876         6.05580
     2020.91444        -9.62594         5.96509
     2020.91718        -7.85212         5.63009
     2020.91991        -9.24430         5.70121
     2020.92265        -7.96148         5.78471
     2020.92539       -10.84066         5.72801
     2020.92813       -15.98285         5.65895
     2020.93086       -15.47603         5.77440
     2020.93360       -10.07221         5.66411
     2020.93634       -12.71639         5.77440
     2020.93908       -23.60357         5.76925
     2020.94182       -13.53775         5.64864
     2020.94455       -17.03094         5.61051
     2020.94729       -16.28512         5.59092
     2020.95003        -8.98330         5.80120
     2020.95277       -20.80548         5.70534
     2020.95551       -13.24166         6.01972
     2020.95824       -18.35284         5.79089
     2020.96104        -7.13190         6.38256
     2020.96372       -16.25721         5.68678
     2020.96646       -14.65039         5.78780
     2020.96919       -10.23557         5.82800
     2020.97193       -23.57875         5.63009
     2020.97467        -9.40993         5.68885
     2020.97741       -16.85911         5.76821
     2020.98015       -11.79130         5.87438
     2020.98288       -19.57648         5.82078
     2020.98562       -13.52366         5.80635
     2020.98836       -12.02784         5.65689
     2020.99110        -7.95002         5.58061
     2020.99384        -7.56720         5.59504
     2020.99657       -11.64338         5.60226
     2020.99931        -9.19157         5.60638
     2021.00205       -13.37975         5.66514
     2021.00479       -10.26693         5.57855
     2021.00752        -8.05711         5.63834
     2021.01026       -12.46129         5.63318
     2021.01300       -11.73647         5.57546
     2021.01574        -9.69266         5.76409
     2021.01848       -11.76484         5.55897
     2021.02121       -13.17902         5.64555
     2021.02395       -15.14620         5.53320
     2021.02669       -14.59238         5.84552
     2021.02943       -12.89156         5.61566
     2021.03216       -11.55574         5.66101
     2021.03490        -9.29693         5.90325
     2021.03764       -14.67411         5.62288
     2021.04038       -17.30729         5.74863
     2021.04312       -14.86947         5.63524
     2021.04585        -7.63065         5.65277
     2021.04859       -14.27583         5.59917
     2021.05133       -15.95602         5.69091
     2021.05407       -13.20420         6.13517
     2021.05681       -10.61938         5.84552
     2021.05954       -15.55656         5.68988
     2021.06228       -19.23474         5.61669
     2021.06502       -18.22192         5.58268
     2021.06776       -11.91810         5.59195
     2021.07049       -12.92529         5.57340
     2021.07323        -7.88147         5.56721
     2021.07597       -14.34965         5.63834
     2021.07871       -14.53183         5.58371
     2021.08145       -13.51901         5.55691
     2021.08418       -22.79519         5.60226
     2021.08692       -21.83538         5.63318
     2021.08966       -12.62056         5.66308
     2021.09240       -20.81374         5.60123
     2021.09514       -18.82992         5.72595
     2021.09787       -16.68510         5.77234
     2021.10061       -18.87028         5.60329
     2021.10335       -10.11146         5.65586
     2021.10609       -16.88165         5.59917
     2021.10882       -12.23083         5.54041
     2021.11156       -17.12101         5.62081
     2021.11430       -18.58319         5.58989
     2021.11704       -12.36237         5.57855
     2021.11978        -8.45155         5.61051
     2021.12525       -17.08592         5.59504
     2021.12799       -12.76610         5.58371
     2021.13073       -21.32228         5.58371
     2021.13347       -23.05046         5.80738
     2021.13620       -16.25764         5.71049
     2021.13894       -16.67582         5.56618
     2021.14168       -17.11701         5.70740
     2021.14442       -14.82019         5.69709
     2021.14715       -15.04937         5.63524
     2021.14989       -20.09655         5.63112
     2021.15263       -17.81073         5.78471
     2021.15537       -15.10791         5.69400
     2021.15811       -13.49109         5.85686
     2021.16084       -14.70728         5.67235
     2021.16358       -17.19146         5.75791
     2021.16632       -14.98564         5.85583
     2021.16906        -8.27482         5.86408
     2021.17180       -16.13000         5.59608
     2021.17453       -20.92118         5.77337
     2021.17727       -16.11237         5.72595
     2021.18001       -14.55055         5.68369
     2021.18275       -23.02473         5.88572
     2021.18548       -23.09191         5.60844
     2021.18822       -19.47409         5.50743
     2021.19096       -14.34127         5.52289
     2021.19370       -20.82945         5.68988
     2021.19644       -18.54464         5.61772
     2021.19917       -23.66482         5.61051
     2021.20191       -15.33600         5.67648
     2021.20465       -10.64318         5.60741
     2021.20739       -18.62536         5.92180
     2021.21013        -8.14854         5.89809
     2021.21286       -19.01373         5.82182
     2021.21560       -18.36791         5.58680
     2021.21834       -21.55209         5.68575
     2021.22108       -23.76327         5.69400
     2021.22381       -16.66045         5.67029
     2021.22655       -18.35863         5.78780
     2021.22929        -9.62181         5.51567
     2021.23203       -17.80900         5.69297
     2021.23477       -15.55218         5.54557
     2021.23750       -12.53636         5.65071
     2021.24024       -17.36154         5.60226
     2021.24298       -16.02572         5.55897
     2021.24572       -25.50690         5.51980
     2021.24846       -12.61509         5.82182
     2021.25119       -14.68627         5.56824
     2021.25393       -19.20545         5.74760
     2021.25667       -15.20763         5.67545
     2021.25941       -16.91681         5.55072
     2021.26214       -14.70299         5.65380
     2021.26488        -8.30017         5.69812
     2021.26762        -9.77236         5.71152
     2021.27036       -18.30954         5.79708
     2021.27310       -16.86472         5.58474
     2021.27583       -14.03590         5.58783
     2021.27857       -10.95808         5.75894
     2021.28131       -13.19226         5.76925
     2021.28405       -12.15045         5.78161
     2021.28679       -11.91063         5.83006
     2021.28952       -14.44481         5.81151
     2021.29226       -20.84499         5.82182
     2021.29500       -13.01717         5.70431
     2021.29774       -13.35535         5.97128
     2021.30047        -8.91753         5.99911
     2021.30321        -7.49672         5.76100
     2021.30595        -8.82990         5.82285
     2021.30869        -1.39608         5.82388
     2021.31143        -8.26026         5.58680
     2021.31416        -5.56444         5.79295
     2021.31690        -7.52062         5.63937
     2021.32021        -8.26459         8.13900
     2021.32295       -19.31677         7.79678
     2021.32569       -21.89396         7.69061
     2021.32842        -5.92114         7.59269
     2021.33116        -5.70132         7.59372
     2021.33390       -14.53750         7.29479
     2021.33664       -16.05668         7.45662
     2021.33937       -10.42186         7.38344
     2021.34211       -11.40805         7.50301
     2021.34485        -9.89823         7.95036
     2021.34759       -14.03441         7.64629
     2021.35033       -10.67759         7.68958
     2021.35306       -18.77977         7.56898
     2021.35580       -15.28195         7.61124
     2021.35854        -8.79213         7.61949
     2021.36128       -11.45532         7.56795
     2021.36402       -17.32850         7.70195
     2021.36653       -20.59716         6.89073
     2021.36892       -15.27207         5.67132
     2021.37166       -17.14325         5.70121
     2021.37440       -11.75544         5.73111
     2021.37770        -8.35841         7.50610
     2021.38044        -3.15659         8.04417
     2021.38318       -12.67277         8.42349
     2021.38592       -26.83095         8.08437
     2021.38866       -25.79913         7.59578
     2021.39413       -10.81649         7.70916
     2021.39687        -7.55268         7.93696
     2021.39938        -7.03234         6.86496
     2021.40177       -18.53125         6.01354
     2021.40451       -14.72143         5.82182
     2021.40782       -11.97340         7.59166
     2021.41056        -4.64358         7.86069
     2021.41330       -10.12477         7.70401
     2021.41603       -14.28795         7.78029
     2021.41877       -10.27613         7.73390
     2021.42151        -7.70531         7.86996
     2021.42425       -13.85349         7.70504
     2021.42699        -4.28667         7.67618
     2021.42972       -11.49085         7.90089
     2021.43246       -21.28704         7.82358
     2021.43520       -12.39822         7.51744
     2021.43794        -9.02040         7.70916
     2021.44068       -10.71158         7.75246
     2021.44341       -20.73976         7.63907
     2021.44615       -18.69894         7.41127
     2021.44889       -12.76712         7.66484
     2021.45163       -19.36431         7.81946
     2021.45436       -15.80849         8.08230
     2021.45710       -17.41267         7.52981
     2021.45984       -13.59185         7.96995
     2021.46258       -15.12903         7.40508
     2021.46527       -21.90931         7.77307
     2021.46805       -14.53540         7.31953
     2021.47079       -13.58358         7.30613
     2021.47353       -14.12576         7.55249
     2021.47627       -19.52494         7.49682
     2021.47901       -21.24912         7.38344
     2021.48174       -26.23230         7.34427
     2021.48448       -25.71948         7.33396
     2021.48722       -24.19767         7.48033
     2021.48996       -21.49985         7.47312
     2021.49269       -16.40903         7.41333
     2021.49520       -21.74970         6.60933
     2021.49817        -9.96739         8.10189
     2021.50091       -33.48057         7.78235
     2021.50365       -23.63576         7.45765
     2021.50638       -22.90494         7.58856
     2021.50912       -28.18912         7.79369
     2021.51186       -21.50630         7.84213
     2021.51458        -8.86051         7.62876
     2021.51733       -17.75066         7.73803
     2021.52007       -17.24984         7.73699
     2021.52281       -25.62803         7.63907
     2021.52555       -16.68621         7.28758
     2021.52829       -14.39139         7.47724
     2021.53102       -20.16257         7.53599
     2021.53376       -14.53975         7.53187
     2021.53650       -24.21193         7.89264
     2021.53924        -5.36512         8.14003
     2021.54198       -10.72430         7.52775
     2021.54471       -18.88848         7.95861
     2021.54745       -17.79566         7.94315
     2021.55019       -13.46784         7.77823
     2021.55293       -15.43202         7.48961
     2021.55566       -16.66520         7.71638
     2021.55840       -19.08639         7.65144
     2021.56114       -13.24157         7.61639
     2021.56388       -12.49775         7.36901
     2021.56605       -13.32114         5.64658
     2021.56878       -11.84432         5.75275
     2021.57152       -14.76751         5.84552
     2021.57426       -14.45369         5.78058
     2021.57700        -0.85487         6.22072
     2021.57974       -12.15205         5.75378
     2021.58247       -18.12423         5.75585
     2021.58521       -14.21841         5.81975
     2021.58795       -15.21060         5.81460
     2021.59069       -20.29978         5.91252
     2021.59342       -19.15296         5.71255
     2021.59616        -9.79814         6.11765
     2021.59890        -3.70532         6.02591
     2021.60164       -19.13050         5.89912
     2021.60438       -14.41468         5.67029
     2021.60711        -8.69887         5.72389
     2021.60985        -7.83005         5.74554
     2021.61259       -11.69923         5.80532
     2021.61533       -16.52141         5.85068
     2021.61807       -12.92259         5.69400
     2021.62080       -12.28777         5.77337
     2021.62354        -3.93396         5.77852
     2021.62628       -16.67714         6.04755
     2021.62902        -8.67532         5.70225
     2021.63175        -8.93650         5.80532
     2021.63449        -7.88468         5.90943
     2021.63723        -6.40786         6.03828
     2021.63997       -10.50204         5.81872
     2021.64271       -11.50323         5.80017
     2021.64544       -12.43941         5.66720
     2021.64818       -11.66359         5.78471
     2021.65092        -5.76977         5.86717
     2021.65366        -6.34495         5.68472
     2021.65639        -4.44813         5.77337
     2021.65913       -14.19831         5.74451
     2021.66187       -13.32350         5.62803
     2021.66461        -7.09668         5.70328
     2021.66735        -8.35386         5.66101
     2021.67008        -5.86404         5.82903
     2021.67282        -3.96822         5.97952
     2021.67556        -6.71340         6.02591
     2021.67830        -5.86859         5.94138
     2021.68104        -7.78977         5.74038
     2021.68377        -9.89595         5.78265
     2021.68651        -7.28613         5.85274
     2021.68925        -8.38031         5.65483
     2021.69199        -9.05449         5.70843
     2021.69472       -11.03567         5.71668
     2021.69746       -11.38186         5.84655
     2021.70020        -1.56104         5.77852
     2021.70294        -4.43122         5.83006
     2021.70568        -6.38740         5.92592
     2021.70841        -8.58658         5.78058
     2021.71115        -8.49476         5.83831
     2021.71389        -3.25895         6.09085
     2021.71663        -7.50513         5.88366
     2021.71937        -9.49631         5.77955
     2021.72210       -17.69049         5.80223
     2021.72484       -18.35867         5.78265
     2021.72758        -6.62885         5.81872
     2021.73032        -7.96703         6.20526
     2021.73305        -7.36822         5.80326
     2021.73579         1.66760         6.11043
     2021.73855        -5.55154         6.34648
     2021.74127       -11.02576         5.90222
     2021.74401        -7.62694         5.89912
     2021.74674        -1.95412         5.99086
     2021.74948        -6.68931         5.80223
     2021.75222        -8.97849         5.84862
     2021.75496         1.73433         6.19702
     2021.75706        -0.22320         8.04313
     2021.76043        -1.08403         6.27536
     2021.76317        -1.78021         5.89500
     2021.76591       -10.18139         5.77852
     2021.76865       -14.04658         5.87748
     2021.77138       -12.78176         5.82285
     2021.77412        -7.49194         5.99292
     2021.77686        -3.63712         5.78161
     2021.77960        -8.70930         5.76821
     2021.78234        -9.13148         5.80223
     2021.78507        -6.08067         5.78368
     2021.78781        -2.87985         5.84140
     2021.79055        -0.24603         5.82594
     2021.79329        -2.56021         5.75481
     2021.79603        -4.04839         5.71461
     2021.79876       -11.83257         5.75688
     2021.80150        -6.37275         5.96818
     2021.80424        -7.94994         5.97334
     2021.80698        -8.31812         5.91871
     2021.80971       -10.70630         5.93932
     2021.81245        -4.92148         5.96509
     2021.81519        -0.60966         5.85480
     2021.81793         1.24416         5.82182
     2021.82067        -7.74003         5.99499
     2021.82340       -12.69521         6.01045
     2021.82614        -7.98839         5.86202
     2021.82888        -9.70457         5.81254
     2021.83162       -12.33175         5.87335
     2021.83436       -12.35993         5.93314
     2021.83709        -8.97011         5.93417
     2021.83983       -17.19830         6.19805
     2021.84257       -22.57848         6.06817
     2021.84531       -23.49366         6.07539
     2021.84804       -15.08684         5.92902
     2021.85078        -8.96002         5.90325
     2021.85352        -6.90220         5.94551
     2021.85626        -9.66639         5.94757
     2021.85900        -8.26157         5.75791
     2021.86447       -16.10793         6.12177
     2021.86721       -13.16411         6.11559
     2021.86995        -6.31329         6.13002
     2021.87269        -3.81747         6.18774
     2021.87542       -10.09366         5.93829
     2021.87816       -19.74884         5.76306
     2021.88090       -17.66702         5.87129
     2021.88364       -16.56920         5.85995
     2021.88637       -17.57538         5.78058
     2021.88911       -18.71456         5.75688
     2021.89185       -20.26975         6.07023
     2021.89459       -12.87193         5.86098
     2021.89733       -22.30611         5.77028
     2021.90006       -18.64229         5.99808
     2021.90280       -14.06347         5.78161
     2021.90554       -16.72465         5.80223
     2021.90828       -12.81283         6.10940
     2021.91102       -14.35102         5.73523
     2021.91375       -19.26220         5.84037
     2021.91649       -11.58938         5.79708
     2021.91923         1.48344         5.90531
     2021.92197       -16.80074         6.05683
     2021.92470       -20.21692         5.93211
     2021.92744       -13.32910         5.88985
     2021.93018       -16.47729         6.02488
     2021.93292        -7.42047         6.04962
     2021.93566        -8.42865         6.22072
     2021.93839       -11.48983         5.97025
     2021.94113        -2.53501         6.08260
     2021.94387        -5.15519         5.99292
     2021.94661       -14.73238         5.92902
     2021.94935       -11.72156         5.88985
     2021.95208       -12.91474         5.92180
     2021.95482       -10.38492         5.87129
     2021.95756        -7.64210         5.91974
     2021.96030       -11.81228         6.00117
     2021.96303       -13.89846         5.98777
     2021.96577        -7.50565         6.00323
     2021.96851       -11.38583         6.03209
     2021.97125        -5.86501         5.89191
     2021.97399        -4.26219         6.12899
     2021.97672        -8.50637         5.89809
     2021.97946        -2.37655         5.94448
     2021.98220        -6.26374         5.99602
     2021.98494        -3.71792         5.92695
     2021.98767        -2.75910         5.82388
     2021.99041        -6.29828         5.83006
     2021.99315        -9.80646         5.82491
     2021.99589       -12.16164         5.87232
     2021.99863       -13.88982         5.82800
     2022.00136        -8.91801         5.87954
     2022.00410       -14.83719         5.90840
     2022.00684       -22.33437         6.01148
     2022.00958       -14.17455         6.17743
     2022.01232       -28.12073         5.91355
     2022.01505       -15.23091         6.04755
     2022.01779       -19.33010         6.00220
     2022.01937       -34.31274        16.99541
     2022.02345       -24.94606         6.84640
     2022.02600       -22.54464         6.15991
     2022.02874       -21.94582         6.08054
     2022.03148       -34.07200         6.13002
     2022.03422       -33.31518         6.04549
     2022.03696       -28.50237         6.06611
     2022.03969       -29.82055         6.37637
     2022.04243       -19.25173         5.88057
     2022.04517       -18.75291         5.99705
     2022.04791       -24.02409         5.87645
     2022.05065       -16.52527         5.85171
     2022.05338       -11.40346         5.89397
     2022.05612       -22.71364         5.91871
     2022.05886       -22.41382         5.89088
     2022.06160       -23.99900         5.83418
     2022.06433       -16.65618         5.94963
     2022.06707       -22.99536         5.91768
     2022.06981       -13.20854         5.93314
     2022.07255       -25.49473         5.82491
     2022.07529       -18.40191         5.82903
     2022.07802       -15.14509         5.87438
     2022.08076       -21.58327         5.82594
     2022.08350       -10.96945         5.91974
     2022.08624       -19.19163         5.82800
     2022.08898       -14.82482         5.74451
     2022.09171       -24.09600         5.77646
     2022.09445       -23.24018         5.89706
     2022.09719       -24.13836         5.82697
     2022.09993       -23.78954         5.94860
     2022.10266       -28.58072         6.07642
     2022.10540       -16.08790         5.73008
     2022.10814       -12.79209         5.83212
     2022.11088       -20.65127         5.83934
     2022.11362       -13.05545         5.80429
     2022.11635       -13.43463         5.75275
     2022.11909       -15.47581         5.71255
     2022.12183       -15.36199         5.80635
     2022.12457       -15.90418         5.95478
     2022.12731       -21.72836         5.77440
     2022.13004       -27.60654         5.90015
     2022.13278       -20.74872         5.78058
     2022.13552       -15.27490         5.81975
     2022.13826       -15.07508         5.74657
     2022.14099       -14.75126         5.73111
     2022.14373       -24.37945         5.80532
     2022.14647       -14.14563         5.78058
     2022.14921       -12.59281         6.03415
     2022.15195       -17.77499         6.03622
     2022.15468       -12.65317         5.80120
     2022.15742       -24.62835         5.75378
     2022.16016       -21.36954         5.81975
     2022.16290       -17.87372         5.88882
     2022.16564       -13.54690         5.80120
     2022.16837        -8.95608         5.87438
     2022.17111       -19.02226         5.79295
     2022.17385       -20.23444         5.87645
     2022.17659       -20.82562         5.88778
     2022.17932       -20.41081         5.78780
     2022.18206       -21.44599         5.84346
     2022.18480       -24.30617         5.80841
     2022.18754       -20.23835         5.87954
     2022.19028       -21.92053         6.01148
     2022.19301        -7.11971         5.94551
     2022.19575        -7.82589         5.78265
     2022.19849       -17.79508         5.83934
     2022.20123       -19.50726         5.94448
     2022.20397       -15.27644         5.84449
     2022.20670       -19.32562         6.31040
     2022.20944       -14.59780         5.91665
     2022.21218       -13.63198         5.88778
     2022.21492       -22.77917         5.84346
     2022.21765       -22.29835         5.76925
     2022.22039       -18.56553         5.83625
     2022.22313       -19.53471         5.99086
     2022.22587       -19.12989         6.42070
     2022.22861       -14.36107         6.06611
     2022.23134       -18.75325         5.81666
     2022.23408       -10.75544         5.81666
     2022.23682        -9.01362         5.99705
     2022.23956       -12.87680         5.87129
     2022.24230       -14.55798         6.31040
     2022.24504       -11.43215         6.42894
     2022.24777        -9.68534         7.27727
     2022.25051       -22.75152         7.09998
     2022.25325       -12.15171         5.92798
     2022.25598       -20.56489         6.10219
     2022.25872        -5.08407         5.90943
     2022.26146       -18.07425         5.80738
     2022.26420       -10.52943         5.85480
     2022.26694       -22.48061         6.35782
     2022.26967       -13.87580         5.97952
     2022.27241       -10.64998         6.04962
     2022.27515       -12.18816         5.97952
     2022.27789       -12.46534         5.83625
     2022.28062       -11.58652         5.84862
     2022.28336       -15.30370         5.77852
     2022.28610       -15.01289         6.01354
     2022.28884       -20.76607         5.95891
     2022.29158       -19.72925         5.76306
     2022.29431       -20.66443         5.81975
     2022.29705       -16.82061         5.81872
     2022.29979       -13.33979         5.92283
     2022.30253       -11.66197         6.01869
     2022.30527       -16.36916         5.81769
     2022.30800       -19.21234         5.81563
     2022.31074       -17.38052         5.80738
     2022.31348       -16.73970         5.81872
     2022.31622       -17.02188         5.89088
     2022.31895       -31.57106         5.95685
     2022.32169       -13.04925         5.99086
     2022.32443       -16.13943         5.78058
     2022.32717       -22.37661         6.01457
     2022.32991       -20.25179         5.81975
     2022.33264       -20.14897         5.96715
     2022.33538       -18.23315         6.04652
     2022.33812       -10.54233         6.02282
     2022.34086       -12.85952         5.83522
     2022.34360       -14.17770         5.77440
     2022.34633       -11.67388         5.91665
     2022.34907       -15.78006         5.82078
     2022.35181       -11.32824         5.82903
     2022.35455        -6.67842         5.90943
     2022.35728       -19.50161         5.80429
     2022.36002       -23.62479         5.84758
     2022.36276       -15.48997         5.85686
     2022.36550       -17.07715         5.79914
     2022.36824       -13.77733         5.85789
     2022.37097       -16.75051         5.85274
     2022.37371       -27.37469         5.73420
     2022.37645       -17.51788         5.98262
     2022.37919        -1.15906         6.06095
     2022.38193       -19.52624         5.98365
     2022.38466       -15.29442         5.77749
     2022.38740       -28.10760         5.97334
     2022.39014       -13.56178         5.79089
     2022.39288       -15.58897         5.88572
     2022.39561       -19.35715         5.83728
     2022.39835       -22.68033         6.01869
     2022.40109       -16.26451         5.96406
     2022.40383       -13.49569         5.71771
     2022.40657       -16.16787         5.73008
     2022.40930       -25.66405         5.91871
     2022.41204       -12.03224         5.87748
     2022.41478       -12.06842         5.78161
     2022.41752       -16.21560         5.99602
     2022.42026       -12.21678         6.04137
     2022.42299       -11.92296         5.72698
     2022.42573       -16.51814         6.04240
     2022.42847       -19.99733         5.80532
     2022.43121       -15.48951         5.89603
     2022.43394        -2.61669         5.90943
     2022.43668       -29.60587         5.78161
     2022.43942       -16.11505         6.03312
     2022.44216       -12.14623         5.86923
     2022.44490        -0.69941         5.87748
     2022.44763        -6.22760         5.85995
     2022.45037       -16.76878         5.72389
     2022.45311       -23.15796         5.77852
     2022.45585       -16.54914         5.95169
     2022.45859       -31.00432         5.65380
     2022.46132       -22.89050         5.75688
     2022.46406       -17.48068         5.79192
     2022.46680       -16.32287         5.82800
     2022.46954       -19.98405         5.74966
     2022.47227       -21.07023         5.84655
     2022.47501       -13.69741         5.81975
     2022.47775       -20.91159         6.03622
     2022.48049       -11.65677         5.92902
     2022.48323        -8.41296         5.77131
     2022.48596        -5.20614         5.75791
     2022.48870        -7.89132         5.98468
     2022.49144       -16.84250         5.72183
     2022.49418       -15.58668         5.92695
     2022.49692       -13.51486         5.78161
     2022.49965       -15.19804         5.79501
     2022.50239       -32.19123         5.83315
     2022.50513       -11.81241         6.05786
     2022.50787        -1.08459         6.08054
     2022.51060       -21.23177         6.23000
     2022.51334       -17.13895         5.86717
     2022.51608       -23.83713         5.93314
     2022.51882       -18.11232         6.04859
     2022.52156       -15.97450         5.91149
     2022.52429       -10.59368         5.94757
     2022.52703       -15.62486         5.84140
     2022.52977        -1.06404         5.88469
     2022.53251       -14.28922         5.87026
     2022.53525        -3.55540         6.27742
     2022.53798       -15.79659         6.03931
     2022.54072       -17.22177         5.85171
     2022.54347       -11.66393         5.81563
     2022.54620       -13.39813         5.86717
     2022.54893       -10.36931         5.81666
     2022.55167        -4.31949         5.89912
     2022.55441        -7.71268         5.84965
     2022.55715        -1.88686         5.82182
     2022.55989       -14.70604         5.81563
     2022.56262       -10.28622         5.81769
     2022.56536       -20.99540         5.79605
     2022.56810       -12.95058         5.75481
     2022.57084       -15.98776         5.78677
     2022.57357        -4.13195         5.95478
     2022.57631       -20.10213         5.72492
     2022.57905       -13.96931         5.86511
     2022.58179        -1.81449         5.83418
     2022.58453       -12.80367         6.05374
     2022.58726       -17.44985         5.86923
     2022.59000        -9.52404         5.92695
     2022.59274       -19.47322         5.76409
     2022.59548       -17.42840         5.74760
     2022.59822       -18.36958         5.77234
     2022.60095       -26.65176         5.80532
     2022.60369       -12.56594         5.80635
     2022.60643        -5.93812         5.83728
     2022.60917        -9.68931         5.92902
     2022.61190        -4.84249         6.02694
     2022.61464        -3.92167         5.90222
     2022.61738        -9.86185         5.83315
     2022.62012       -13.85103         5.86098
     2022.62286       -10.57821         5.89088
     2022.62559       -12.67640         5.82182
     2022.62833        -4.72758         5.72595
     2022.63107        -7.66276         5.86923
     2022.63381        -8.80794         5.76203
     2022.63655        -7.95012         5.91562
     2022.63928       -13.72730         5.89912
     2022.64202        -5.77648         6.24856
     2022.64476        -6.26567         6.08157
     2022.64750        -2.78985         5.92283
     2022.65023         0.23597         6.17434
     2022.65297        -0.15221         6.06405
     2022.65571        -5.68839         5.98468
     2022.65845        -1.30557         6.00323
     2022.66119        -5.55876         5.67029
     2022.66392        -8.82294         5.74245
     2022.66666        -2.76212         5.78368
     2022.66940        -3.59530         5.76615
     2022.67214       -13.25348         5.74451
     2022.67488        -1.11466         5.80532
     2022.67761        -2.17184         5.89397
     2022.68035        -1.53703         5.72286
     2022.68309        -2.98221         5.81872
     2022.68583        -4.10439         5.92283
     2022.68856         1.40843         5.79295
     2022.69130        -7.41275         5.77234
     2022.69404         0.04507         5.84655
     2022.69678       -18.17212         5.99911
     2022.69952       -13.21130         5.77852
     2022.70225         0.97752         5.86408
     2022.70499        -5.19166         5.85583
     2022.70773        -2.84084         5.82697
     2022.71047        -8.79302         5.66101
     2022.71321         0.86680         5.63009
     2022.71868        -2.47657         5.70843
     2022.72142        -2.07975         5.74657
     2022.72416        -6.35893         5.79605
     2022.72689        -3.53111         5.71977
     2022.72963        -1.62129         5.76821
     2022.73238        -3.61644         5.82285
     2022.73511        -9.96466         5.71358
     2022.73785       -10.00484         5.66204
     2022.74058        -7.71202         6.17949
     2022.74332        -3.43120         5.93211
     2022.74606        -5.45238         5.73626
     2022.74880        -7.12056         5.72286
