# ================= DQRFIT RESULTS ================
# INPUT FILE: series/ONTO.rad
# OUTPUT: LDETRENDED
# FILTER FUNCTION: f(t)
# f(t)=+line(t)+annual(t)+jumps(t)
# line(t)=+P 1+P 2*t
# annual(t)=+P 3*sin(2*pi*t+P 4)
# jumps(t)=+P 5*heav(t-2020.6549  )
# heav(t)=(t<0?0:1)
# TOTAL OBSERVATIONS MTOT= 1773
# INITIAL TIME INTERVAL= 2022.7488 - 2017.6673 =  5.0815
# TOTAL OBSERVATIONS AFTER PREFILTER M= 1744
# TIME-SPAN= 2022.7488 - 2017.6673 =  5.0815
# OBSERVATIONS: USED M=  1744 REJECTED MTOT-M=    29 %USED=   98.3644
# N=  5 PARAMETERS
# MAXSIG= 175.00000
# MAXRES=  24.74053
# SCALE FACTOR FOR LENGTHS: SCL=  10.00000
# SCALE FACTOR FOR SIGMAS: SCLSIG=   1.00000
# CHI^2=   1416.915 DOF=  1739 CHI^2/DOF=   0.81479
# RMS=      5.173 SDEV=      5.175 MEAN=    0.01520
#  P #       PARAMETER +-    SIGMA %error PARAMETER NAME
# P 1 =      1162.51843 +-  334.623  28.78 YZERO                              
# P 2 =        -0.62297 +-    0.166  26.60 SLOPE                              
# P 3 =         3.59298 +-    0.173   4.83 ANNUAL AMPLITUDE                   
# P 4 =        -2.96641 +-    0.067   2.27 ANNUAL PHASE                       
# P 5 =       117.96871 +-    0.494   0.42 OFFSET 2020.6549                   
#       T            LDETRENDED       SIG_OBS
     2017.66735         3.56862         5.03862
     2017.67008         7.55033         4.83733
     2017.67282         3.69004         4.99800
     2017.67556         0.50474         4.88517
     2017.67830         2.83145         4.88878
     2017.68104         4.80715         4.91406
     2017.68377         4.83086         4.97815
     2017.68651         9.05156         5.02238
     2017.68914         9.06820         5.16770
     2017.69250         5.30929         6.26533
     2017.69467         6.38264         5.00523
     2017.69803         4.76674        11.48178
     2017.70037        28.30020        10.37061
     2017.70294        14.99080         6.85928
     2017.70556        13.76443         8.57974
     2017.70859         5.02232         5.23631
     2017.71115         3.14091         6.79519
     2017.71378         3.92855         7.91268
     2017.71680         9.80243         8.28999
     2017.71919         5.54592         7.32415
     2017.72227        10.27284         7.90726
     2017.72484        11.65544         7.54891
     2017.72758         6.06615         7.77457
     2017.73032         1.56585         6.21659
     2017.73283         3.08242         5.41142
     2017.73562         0.72816         8.78645
     2017.73882         1.02615         5.51432
     2017.74064         0.54128         6.43864
     2017.74315         5.79385         7.87116
     2017.74657        -0.03102         5.30942
     2017.75353        19.58032       106.70112
     2017.75496         3.05920         4.85719
     2017.75770        -1.52209         5.53508
     2017.76043         2.03161         4.87524
     2017.76317         7.31632         4.89149
     2017.76591         7.68803         4.91135
     2017.76865        12.53273         4.89871
     2017.77138         0.44844         4.86080
     2017.77412         3.13414         4.87073
     2017.77686         8.18485         4.90413
     2017.77960         5.19355         4.95919
     2017.78234        -0.70774         4.86622
     2017.78507        -0.12403         4.84997
     2017.78781        -2.13333         4.85087
     2017.79055        -3.30762         4.85087
     2017.79329         2.90808         4.84365
     2017.79603         5.35879         4.89239
     2017.79876        10.50449         4.97634
     2017.80095        15.03886         6.56862
     2017.81338        -4.02340         8.07967
     2017.81519        -1.37127         4.98356
     2017.81776        -2.91167         5.32657
     2017.82112        -7.17158         5.97197
     2017.82409        -4.87373         9.64217
     2017.82683         1.10998        11.64697
     2017.82888         2.81725         5.39608
     2017.83162         4.79596         6.56682
     2017.83430         3.86763         6.93962
     2017.83755         0.97866         7.34852
     2017.84034        -0.31860         6.20034
     2017.84234        -6.14336         8.31346
     2017.84531        -2.78051         4.84636
     2017.84782        -5.15495         7.80436
     2017.85118         0.92715         7.01815
     2017.85352         0.46461         6.58307
     2017.85620         7.66728         7.34130
     2017.85917        -2.63288         9.75500
     2017.86253         3.10122         7.76645
     2017.86396       -10.44189         6.29873
     2017.86653        -8.79629         8.25027
     2017.86915         5.35534         8.54093
     2017.87263        -0.35749         4.95829
     2017.87564        13.73339         9.48511
     2017.87862         3.05424         5.96746
     2017.88010        -3.17184         7.42073
     2017.88364        -3.33863         5.42406
     2017.88637         4.08907         8.25118
     2017.88911         3.80478         4.82560
     2017.89134        -5.36184         6.32130
     2017.89442        -2.46892         5.91691
     2017.89778         3.47318         7.05425
     2017.90081         4.56806         7.17340
     2017.90257        -3.82084         6.52349
     2017.90588         6.15122         5.62264
     2017.90828         5.48072         5.79144
     2017.91102        -0.45258         5.85824
     2017.91375        -2.85487         6.03877
     2017.91615        -0.13638         5.59646
     2017.91957         0.74475         7.95601
     2017.92208         6.59032         5.04765
     2017.92431        -0.42230         5.85282
     2017.92790        -7.21506        11.76973
     2017.93035        -6.25653        11.33916
     2017.93309        -4.51183         5.96114
     2017.93548        -6.10133         5.18937
     2017.93874        -3.84631         6.50093
     2017.94164        -3.66850         6.12723
     2017.94387        -2.54411         4.84275
     2017.94661        -0.94740         4.84094
     2017.94935        -0.35170         4.82740
     2017.95208         1.41001         4.91225
     2017.95482        -2.94429         4.78407
     2017.95756        -2.11458         4.87163
     2017.96030        -1.84888         4.83462
     2017.96303         0.90183         4.83101
     2017.96577         7.42353         4.93933
     2017.96851         3.47324         4.81025
     2017.97125         0.14195         4.79671
     2017.97399        -0.77935         4.84726
     2017.97672        -2.91364         4.83192
     2017.97946        -3.24694         4.78769
     2017.98220        -9.53923         4.79491
     2017.98494       -12.63553         4.83462
     2017.98767       -15.44782         4.88969
     2017.99041       -10.37111         4.88246
     2017.99315        -7.08541         4.91767
     2017.99589        -1.23070         4.92399
     2017.99863        -3.45600         4.79671
     2018.00136        -7.23529         4.81838
     2018.00410       -12.34459         4.83101
     2018.00684       -12.31588         4.81567
     2018.00958        -2.64718         4.85268
     2018.01232        -4.75447         4.83282
     2018.01505         0.53824         4.83462
     2018.01779         1.85494         4.87705
     2018.02053        -3.85035         4.93211
     2018.02327         3.38535         4.81206
     2018.02600         2.18906         4.82830
     2018.02874         0.69776         4.80484
     2018.03148        -7.31653         4.78678
     2018.03399       -12.28397         5.29408
     2018.03696       -14.49712         4.77956
     2018.03969       -10.02141         4.80213
     2018.04243        -4.55171         4.90052
     2018.04517       -10.01900         4.82469
     2018.04791        -9.72130         4.89420
     2018.05065        -3.49759         4.84094
     2018.05338        -0.48789         4.81115
     2018.05612        -2.98718         4.82108
     2018.05886        -8.39548         4.83101
     2018.06160        -3.59477         4.80664
     2018.06433         1.95594         4.90593
     2018.06707        -2.10036         4.90052
     2018.06981        -1.98565         4.92940
     2018.07255        -8.30095         4.92669
     2018.07529       -17.10524         4.94294
     2018.07802       -13.01254         4.94023
     2018.08076       -11.00683         4.96370
     2018.08350        -6.38812         4.97454
     2018.08624        -5.28542         4.89871
     2018.08898        -7.65171         4.92940
     2018.09171        -7.50501         4.91677
     2018.09445        -4.62930         4.89330
     2018.09719         0.44340         5.03140
     2018.09993        -3.83789         4.89781
     2018.10266        -8.30319         4.85358
     2018.10540        -8.95148         5.04404
     2018.10814        -3.84577         4.93933
     2018.11088        -6.31507         4.91767
     2018.11362        -1.97936         4.90142
     2018.11635         1.46634         4.85358
     2018.11909        -7.13695         4.95377
     2018.12183        -2.20025         4.90142
     2018.12457        -0.83554         4.93211
     2018.12731        -5.84084         4.87885
     2018.13004         4.00987         4.91315
     2018.13278         4.50558         4.94294
     2018.13552         5.08328         4.89510
     2018.13826        -1.40001         4.89961
     2018.14099        -3.50731         4.89239
     2018.14373        -0.94160         4.87073
     2018.14647         0.91010         5.09188
     2018.14921        -0.05619         4.98537
     2018.15195         4.77452         4.87073
     2018.15468         3.71422         4.87976
     2018.15742        -0.55807         4.89871
     2018.16016         0.97663         4.87885
     2018.16290        -3.30666         5.01064
     2018.16564        -0.92896         5.06300
     2018.16837         1.02775         4.89420
     2018.17111        -1.21255         4.90232
     2018.17385        -5.30584         4.89600
     2018.17659        -4.37013         4.88788
     2018.17932        -2.58843         4.89871
     2018.18206         3.40128         5.12708
     2018.18480         6.69798         5.01245
     2018.18754        -0.93131         4.90503
     2018.19028        -3.85561         4.87254
     2018.19301        -1.99090         4.87705
     2018.19575         3.31980         4.87163
     2018.19849         3.33951         4.89149
     2018.20123         9.72122         4.94746
     2018.20397         6.89292         4.85809
     2018.20670         2.43463         4.87434
     2018.20944         2.82733         4.84184
     2018.21218        -2.18496         4.85990
     2018.21492       -10.83226         4.88517
     2018.21765         3.16345         4.78949
     2018.22039         3.56616         4.79491
     2018.22313        -0.11914         4.89420
     2018.22587        -7.58443         4.81115
     2018.22861        -4.21473         4.81115
     2018.23134        -2.69002         4.79671
     2018.23408        -3.05432         4.78407
     2018.23682        -0.70961         4.83192
     2018.23956        -5.45991         4.75790
     2018.24230        -6.68320         4.78949
     2018.24503        -4.22849         4.81296
     2018.24777        -1.98479         4.79852
     2018.25051        10.46592         4.80664
     2018.25325        -1.98138         4.73443
     2018.25598        -2.03067         4.76422
     2018.25872        -4.47597         4.90593
     2018.26146        -1.58026         4.87615
     2018.26420         2.33844         4.88878
     2018.26694        -3.62385         4.76783
     2018.26967        -6.26614         4.74165
     2018.27241        -5.88844         4.80123
     2018.27515         0.49827         4.85087
     2018.27789         8.19597         4.98356
     2018.28062        -1.10832         4.88066
     2018.28336        -3.52062         4.76783
     2018.28610         1.08309         4.76512
     2018.28884         5.18380         4.82379
     2018.29158         4.46850         4.91406
     2018.29705        -3.28809         4.73082
     2018.29979        -4.21838         4.75248
     2018.30253         0.19632         4.79039
     2018.30527        -4.15497         4.74526
     2018.30800        -3.04627         4.96190
     2018.31074        -3.52956         4.71277
     2018.31348        -5.30885         4.73533
     2018.31622        -6.82515         4.72901
     2018.31895         3.94856         4.89691
     2018.32169         1.52826         4.75068
     2018.32443        -3.66403         4.70013
     2018.32717        -3.96733         4.74075
     2018.32991        -0.77862         4.87705
     2018.33264         0.42408         4.83553
     2018.33538        -5.44221         4.88517
     2018.33812        -3.86150         4.87254
     2018.34086        -1.44580         4.75158
     2018.34360        -2.37309         4.86712
     2018.34633        -2.07539         4.83282
     2018.34907        -0.82768         4.83011
     2018.35181         2.98702         4.86802
     2018.35455        -0.29127         4.75248
     2018.35728         3.41844         4.76422
     2018.36002         0.56914         4.78859
     2018.36276         2.76785         4.90864
     2018.36550         1.50755         4.78227
     2018.36824        -0.01574         4.76151
     2018.37097        -0.89504         4.74887
     2018.37371         5.60767         4.85719
     2018.37645        -2.63663         4.99800
     2018.37919        -1.40192         4.83462
     2018.38193        -1.36721         4.82199
     2018.38466        -0.12651         4.78137
     2018.38740         2.62620         4.76783
     2018.39014         4.40390         4.76873
     2018.39288        -0.56339         4.82469
     2018.39561         2.39131         4.90323
     2018.39835         1.18202         4.84365
     2018.40109         7.29772         4.81928
     2018.40383         4.28843         4.80754
     2018.40657        -1.95986         4.85448
     2018.40930        12.21984         5.16409
     2018.41204         8.96555         4.89600
     2018.41478        -2.36775         4.76692
     2018.42299         1.62537         4.88156
     2018.42573         8.62007         4.84365
     2018.42847         3.91078         4.79491
     2018.43121         4.16949         4.80393
     2018.43394         0.33419         4.76783
     2018.43668         0.90990         4.80123
     2018.43942         8.75360         4.80845
     2018.44216        -1.60569         4.83914
     2018.44490         0.70601         4.79130
     2018.44763        -0.56728         4.77144
     2018.45037        -3.87157         4.83823
     2018.45311         1.87913         4.82921
     2018.45585         5.11984         4.90593
     2018.45859         9.47154         4.87163
     2018.46132        -0.09875         4.77234
     2018.46406        -2.32205         4.79761
     2018.46680        -0.83834         4.82199
     2018.46954         4.86436         4.96731
     2018.47227         4.42107         4.96009
     2018.47501        13.73278         4.94114
     2018.47775         4.79948         4.77324
     2018.48049         1.10419         4.90593
     2018.48323        -6.77811         4.82379
     2018.48596         1.65460         4.85087
     2018.48870         0.88030         4.89149
     2018.49144         2.31701         4.82469
     2018.49418         3.64271         4.89871
     2018.49692         4.60342         4.98537
     2018.49965         4.09413         4.86351
     2018.50239         3.45083         4.86531
     2018.50513        -3.94646         4.85087
     2018.50787         2.00124         4.87254
     2018.51060         2.88895         4.78678
     2018.51334         0.60765         4.81386
     2018.51608         4.07936         4.87976
     2018.51882         0.09907         4.86712
     2018.52156         1.11877         4.85990
     2018.52429         0.58148         4.83643
     2018.52703         4.97818         4.82560
     2018.52977         0.13389         4.85719
     2018.53251         5.77159         4.86622
     2018.53525         4.39630         4.89961
     2018.53798         4.00000         4.94565
     2018.54072         4.82971         4.86351
     2018.54346         7.67842         4.83011
     2018.54620         2.07312         4.83462
     2018.54893         0.80183         4.82650
     2018.55167         5.10753         4.87073
     2018.55441        -2.06876         4.82379
     2018.55715         0.29494         4.83192
     2018.55989        -0.37135         4.92940
     2018.56262         4.58735         4.81206
     2018.56519        -0.81405         5.12618
     2018.56810         1.04277         4.85538
     2018.57084         2.96647         4.84546
     2018.57357         6.52418         4.90232
     2018.57631         2.56088         5.02960
     2018.57905         4.52759         5.10723
     2018.58179         5.69829         4.98446
     2018.58453         4.73300         4.98807
     2018.58726         2.56171         4.86351
     2018.59000        10.03441         4.81206
     2018.59274         4.41512         4.84365
     2018.59548         6.51782         4.81567
     2018.59822         5.75553         4.84816
     2018.60095         6.20923         4.82108
     2018.60369         9.46094         4.76873
     2018.60643         1.00864         4.81657
     2018.60917         5.40835         4.84726
     2018.61190        10.81806         5.06841
     2018.61459         6.36573         4.93753
     2018.61738         9.01947         4.80213
     2018.62012        11.66917         4.77956
     2018.62286         9.62188         4.96370
     2018.62559         6.19058         5.07112
     2018.62833         5.47129         5.22367
     2018.63107         6.50499         4.78046
     2018.63381        11.63470         4.95829
     2018.63655         4.99741         4.83823
     2018.63928         2.90511         5.05397
     2018.64202         5.82782         5.06931
     2018.64556        12.08702         8.29360
     2018.64750         4.85123         4.82289
     2018.65023        12.86993         4.90954
     2018.65297        12.10264         4.82830
     2018.65571         5.32335         4.81115
     2018.65845         6.68905         4.82740
     2018.66119         9.55776         4.86080
     2018.66392         6.57246         4.88607
     2018.66666         7.07817         4.81477
     2018.66940         5.69387         4.77415
     2018.67214         4.83258         4.81025
     2018.67488         8.03628         4.82921
     2018.67761         2.94499         4.82740
     2018.68035         0.11470         4.90864
     2018.68309        -1.98160         4.86351
     2018.68583         7.34811         4.84275
     2018.68856         8.02481         4.86983
     2018.69130         5.25952         4.85087
     2018.69404         5.70822         4.95558
     2018.69678        10.41093         4.85177
     2018.69952         3.11163         4.86802
     2018.70225         3.25934         4.94204
     2018.70499         5.30805         4.90954
     2018.70773         3.21875         4.86531
     2018.71047         5.16546         4.85358
     2018.71321         4.51716         4.82740
     2018.71594         2.26587         4.85177
     2018.71868        -2.00743         4.86351
     2018.72142        -1.58172         4.82740
     2018.72416         5.18399         4.82289
     2018.72689         4.72569         4.95919
     2018.72963         5.01240         5.06390
     2018.73237        -1.12990         4.84726
     2018.73511        -1.38719         4.81928
     2018.73785         3.36551         4.80123
     2018.74058        -0.54478         4.83101
     2018.74332         5.03092         4.82199
     2018.74606         4.27163         4.86983
     2018.74880        -2.73666         4.79761
     2018.75154         4.96404         4.81206
     2018.75427         7.08375         4.87795
     2018.75701         4.91445         4.94565
     2018.75975        -0.16684         4.79581
     2018.76249         3.56786         4.83192
     2018.76522         2.34957         4.87163
     2018.76791         2.12224         5.31845
     2018.77081        10.30405         5.53328
     2018.77344         7.89669         4.83372
     2018.77618         2.30739         4.80574
     2018.77891         0.32610         4.84184
     2018.78165         0.34180         4.90954
     2018.78439         3.96851         4.96641
     2018.78713        -1.06679         4.84184
     2018.78987        -6.67808         4.95107
     2018.79260        -4.67537         4.77324
     2018.79534         2.20733         4.76873
     2018.79808        -4.80296         4.81657
     2018.80082        -0.70526         4.84094
     2018.80355         3.26745         4.81025
     2018.80629         2.84815         4.95107
     2018.80903         0.90386         5.01064
     2018.81177         4.00456         5.16861
     2018.81451         2.59327         4.85268
     2018.81724         0.40598         4.86802
     2018.81998         4.56568         4.96009
     2018.82272         1.22439         4.87073
     2018.82546         3.57509         4.82830
     2018.82820        -0.02020         4.82650
     2018.83093         2.83450         4.85448
     2018.83367        -0.42379         4.84636
     2018.83641         1.02491         4.88607
     2018.83915         4.94862         4.85268
     2018.84188         2.67233         4.90232
     2018.84462         6.96503         4.79671
     2018.84736         2.11474         4.77776
     2018.85010         4.05744         4.76783
     2018.85284        -1.96585         4.77324
     2018.85557        -4.95715         4.82740
     2018.85831        -1.63944         4.85448
     2018.86105         0.10526         4.79761
     2018.86379        -3.36603         4.91045
     2018.86653         1.93468         4.78317
     2018.86926       -10.38362         4.85177
     2018.87200        -1.46991         4.84365
     2018.87474         1.18579         4.81657
     2018.87748         3.62250         4.88788
     2018.88021        -1.44580         4.87795
     2018.88295         1.62691         4.90413
     2018.88569        -0.89338         4.93031
     2018.88843         3.52632         4.92760
     2018.89117         5.88003         4.96461
     2018.89390         4.94173         4.91315
     2018.89664         0.64444         5.01696
     2018.89938         0.25414         4.93121
     2018.90212        -0.43015         4.91406
     2018.90485         5.06255         4.92038
     2018.90759         2.02726         4.87615
     2018.91033         3.20597         4.90593
     2018.91307         6.46667         5.00161
     2018.91581         7.13038         4.91947
     2018.91854         9.64908         4.90774
     2018.92128         3.62779         4.85900
     2018.92402         1.54549         4.88969
     2018.92676         5.30920         4.92760
     2018.92950         3.18590         4.89330
     2018.93223        -0.69639         4.99891
     2018.93497        -2.41468         4.87434
     2018.93771        -1.41298         4.88066
     2018.94045         0.97273         4.92218
     2018.94318         5.42643         4.81567
     2018.94592         7.34814         4.86712
     2018.94866         2.11384         4.82650
     2018.95140         6.21555         4.90503
     2018.95414         9.35826         4.87885
     2018.95687         5.79396         4.87795
     2018.95961         6.51467         4.85990
     2018.96235         8.21837         4.88517
     2018.96509        -2.92592         4.90954
     2018.96783        -0.51522         4.86531
     2018.97056         5.86549         4.92940
     2018.97330        -1.50181         4.80845
     2018.97604        -1.50110         4.92489
     2018.97878         1.51961         4.86622
     2018.98151        -4.16769         4.88969
     2018.98425         1.07902         4.98898
     2018.98699        -3.02228         4.91496
     2018.98973        -1.14657         4.89239
     2018.99247        -0.89487         4.92489
     2018.99520         0.60784         4.96551
     2018.99794        -4.67846         4.93211
     2019.00068        -7.33075         4.91045
     2019.00342        -6.12404         4.88246
     2019.00616        -2.57934         4.87885
     2019.00889        -0.65863         4.89330
     2019.01163        -0.60793         4.87254
     2019.01437         1.31578         4.90593
     2019.01711         7.14748         4.86170
     2019.01984        -6.07781         4.87885
     2019.02258        -3.06710         4.87344
     2019.02532        -2.45140         4.95197
     2019.02806        -5.29969         4.88788
     2019.03080        -4.63699         4.88607
     2019.03353        -6.48828         4.82108
     2019.03627       -10.27158         4.86080
     2019.03901        -2.51287         4.84816
     2019.04175        -6.17817         4.88156
     2019.04449         2.48454         4.86892
     2019.04722        -4.78675         4.88698
     2019.04996        -9.24305         4.89239
     2019.05270        -4.09334         4.99259
     2019.05544        -1.43764         4.91045
     2019.05817        -1.14693         5.02147
     2019.06091         2.54377         4.91947
     2019.06365        -1.81852         4.91135
     2019.06639        -2.80182         4.91135
     2019.06913        -4.58011         4.92760
     2019.07186        -3.14440         4.96731
     2019.07460        -5.34370         4.85177
     2019.07734         0.70501         4.83282
     2019.08008         3.67971         4.79310
     2019.08219        -1.06297         7.03259
     2019.08647         2.68070         8.54725
     2019.08829         1.05083         4.82018
     2019.09103        10.48254         4.82830
     2019.09377         8.39724         4.84546
     2019.09650        11.10695         4.79310
     2019.09924         2.49765         4.81115
     2019.10198        -2.15864         4.81838
     2019.10472         0.69806         4.84636
     2019.10746         2.44877         4.82108
     2019.11019         3.10247         4.84816
     2019.11293         5.25418         4.90684
     2019.11567         3.94589         5.06570
     2019.11841        12.48559         4.86892
     2019.12115        15.79030         4.95648
     2019.12388        14.73100         4.97995
     2019.12662         6.01771         4.85177
     2019.12936         2.76641         4.89420
     2019.13210         2.30712         4.86170
     2019.13483        -0.12018         4.88517
     2019.13757         3.13653         4.86351
     2019.14031         7.81724         4.85629
     2019.14305         1.62894         4.87073
     2019.14579         1.71765         4.83823
     2019.14852        -0.09865         4.80935
     2019.15126         4.34906         4.81657
     2019.15400        -3.78124         4.80393
     2019.15674        -2.66753         4.84997
     2019.15948         0.51918         4.82379
     2019.16221        -5.44212         4.91496
     2019.16495        -2.58141         4.80393
     2019.16769        -9.31571         4.77685
     2019.17043        -5.70100         4.81386
     2019.17316        -3.25030         4.80393
     2019.17590         1.54441         4.82740
     2019.17864         1.84811         4.90052
     2019.18138         1.67482         4.80935
     2019.18412        -9.40947         4.79581
     2019.18685        -1.33777         4.82740
     2019.18959        -2.82506         4.82830
     2019.19233        -1.65636         4.84636
     2019.19507        -0.06565         4.81386
     2019.19780        -9.34395         4.82921
     2019.20054       -10.12224         4.93753
     2019.20328        -9.89654         4.82560
     2019.20602        -9.41483         4.83553
     2019.20876       -11.20612         4.83643
     2019.21149       -11.52442         4.82560
     2019.21423        -7.10571         4.84365
     2019.21697        -5.03801         4.84365
     2019.21971        -1.14530         4.91947
     2019.22245        -2.38660         4.80393
     2019.22518        -3.97289         4.80213
     2019.22792        -5.97619         4.80213
     2019.23066        -6.34148         4.81025
     2019.23340        -2.62177         4.85629
     2019.23613        -5.68107         4.84365
     2019.23887       -10.08036         4.82108
     2019.24161       -13.69766         4.94565
     2019.24435       -12.30295         4.92038
     2019.24709        -6.87125         4.93392
     2019.24982        -2.21354         4.83733
     2019.25256        -4.79883         4.98176
     2019.25530       -11.00213         4.81567
     2019.25804        -2.24142         4.86983
     2019.26078        -0.41672         4.84184
     2019.26351        -4.84301         4.95648
     2019.26625        -6.49031         4.82379
     2019.26899        -6.76360         4.93211
     2019.27173         2.61810         5.03050
     2019.27446        -5.82919         4.78859
     2019.27720        -3.10448         4.89239
     2019.27994        -1.26178         4.84275
     2019.28268        -3.89007         4.78859
     2019.28542        -0.15237         4.77776
     2019.28815         0.32534         4.76963
     2019.29089        -5.80896         4.80032
     2019.29363        -8.90125         4.87976
     2019.29637        -6.54955         4.93031
     2019.29911         3.25116         4.85900
     2019.30184        -1.41813         4.84094
     2019.30458       -11.25943         4.82469
     2019.30732        -5.61472         4.81115
     2019.31006        -9.80702         5.01696
     2019.31279        -8.90831         4.91947
     2019.31553         3.96439         4.86802
     2019.31827        -4.50390         4.82199
     2019.32101        -6.29019         4.81477
     2019.32375       -13.78649         4.77956
     2019.32648        -7.94478         4.81928
     2019.32922        -5.70808         4.83101
     2019.33196        -5.66237         4.94204
     2019.33470        -2.73967         4.93211
     2019.33744        -4.95996         4.82379
     2019.34017        -5.84326         4.81477
     2019.34291        -1.67355         4.84546
     2019.34565        -5.10584         4.98807
     2019.34839        -7.85714         4.98807
     2019.35112        -5.76643         4.75790
     2019.35386        -3.41773         4.77053
     2019.35660        -4.46802         4.78588
     2019.35934        -2.51832         4.82921
     2019.36208         0.11939         4.82469
     2019.36481         1.25809         4.82199
     2019.36755        -2.33620         4.82379
     2019.37029         2.84651         4.88066
     2019.37303         1.41121         4.85538
     2019.37577        -0.72608         4.93121
     2019.37850         0.29162         4.81386
     2019.38124         1.52333         4.79400
     2019.38398         3.33803         4.82921
     2019.38672        -2.87126         4.80213
     2019.38945        -5.71255         4.82289
     2019.39219        -0.99885         4.85629
     2019.39493        -4.47714         4.79039
     2019.39767        -0.14344         4.90323
     2019.40041        -4.58873         4.84636
     2019.40314         0.15297         4.83823
     2019.40588         1.43968         4.90864
     2019.40862        -0.91862         4.82108
     2019.41136        -2.41991         4.86892
     2019.41410        -1.01020         4.86170
     2019.41683        -1.14350         4.80754
     2019.41957        -1.96979         4.89961
     2019.42231        -3.79909         4.82469
     2019.42505         0.82362         4.83643
     2019.42778         3.42732         4.96461
     2019.43052         2.13703         4.83192
     2019.43326        -3.97727         4.82469
     2019.43600        -8.24356         4.87073
     2019.43874        -8.48385         4.93662
     2019.44147        -8.22415         4.95648
     2019.44421        -6.74744         4.98356
     2019.44695        -4.43574         5.06300
     2019.44969        -1.71603         4.96822
     2019.45243         3.47267         4.95468
     2019.45516        -3.77362         4.96009
     2019.45790        -0.07191         5.01877
     2019.46064         0.87079         4.99169
     2019.46338         2.40650         5.27512
     2019.46611         4.44620         5.14694
     2019.46885        -1.86909         5.02508
     2019.47159        -2.23339         4.96551
     2019.47433         1.25632         5.00703
     2019.47707        -2.04498         4.95919
     2019.47980         4.23473         4.96280
     2019.48254        -2.37256         5.01877
     2019.48528        -2.36786         5.01696
     2019.48802        -5.97015         5.00342
     2019.49076        -7.59245         4.85358
     2019.49349        -4.61274         4.84636
     2019.49623        -1.00504         4.85448
     2019.49897        -1.07533         4.83372
     2019.50171         0.75037         4.90052
     2019.50444        -2.97392         4.87705
     2019.50718        -4.56421         4.81296
     2019.50992        -3.72851         4.84546
     2019.51266        -5.33580         4.95287
     2019.51540        -2.46310         4.92489
     2019.51813        -1.88939         4.85538
     2019.52087        -0.20369         4.86622
     2019.52361        -3.39298         4.84636
     2019.52635         0.51173         4.84546
     2019.52908        -4.53757         5.11896
     2019.53182        -4.04086         5.08556
     2019.53456        -1.37616         5.04223
     2019.53730        -0.89845         4.98537
     2019.54004        -0.77375         4.98266
     2019.54277        -1.13504         5.07744
     2019.54551         3.93066         5.14785
     2019.54825         3.41137         4.86080
     2019.55099        -2.09992         4.90413
     2019.55373         4.69778         5.00884
     2019.55646         2.02949         5.03592
     2019.55920        -8.36281         5.18215
     2019.56194        -3.43410         7.11293
     2019.56468        -2.06640         5.00523
     2019.56741        -1.48169         4.86712
     2019.57015        -3.23499         4.84365
     2019.57289        -2.55728         4.99620
     2019.57563         2.97443         4.94204
     2019.57837        -3.06387         4.99259
     2019.58110        -0.39316         4.88607
     2019.58384         2.51554         5.02599
     2019.58664        -2.82072         4.98988
     2019.58932         7.12795         4.85538
     2019.59206         6.23766         4.99169
     2019.59479         2.93737         4.92399
     2019.59753         1.87307         5.05307
     2019.60027         2.96178         5.08015
     2019.60301        -2.07352         4.93301
     2019.60574         9.82019         5.24443
     2019.60848         1.11789         5.16500
     2019.61122        -3.63840         4.83914
     2019.61396        -3.24370         4.96731
     2019.61670         1.20501         4.87073
     2019.61943         0.51272         4.85719
     2019.62217         2.76542         4.95287
     2019.62491         7.76413         4.87795
     2019.62765         7.71583         4.83553
     2019.63039         8.36154         4.87344
     2019.63312        -2.79176         4.85268
     2019.63586         4.95295         4.83372
     2019.63860         3.36765         4.93933
     2019.64407         5.37307         4.88246
     2019.64681        -5.44723         4.85087
     2019.64955         0.68448         4.87073
     2019.65229         5.05618         4.86622
     2019.65503        -1.76611         5.02418
     2019.65776         4.52559         4.95919
     2019.66050         5.67130         5.05126
     2019.66324        -0.56400         4.87615
     2019.66598        -1.42929         4.94475
     2019.66872         8.72842         4.94204
     2019.67145         1.56612         4.92308
     2019.67419         2.05783         4.93121
     2019.67693         3.09653         5.01425
     2019.67967         2.74424         5.16500
     2019.68240        -1.44806         4.87073
     2019.68514        -0.70135         4.96009
     2019.68788         2.07436         5.01425
     2019.69062        -1.64594         4.93933
     2019.69336         0.45477         4.84455
     2019.69609        -1.83153         4.87073
     2019.69883         0.10118         4.89781
     2019.70157         1.86788         4.87615
     2019.70431         3.95059         4.81928
     2019.70705         8.80229         4.86351
     2019.70978         2.92700         4.86531
     2019.71252         1.76471         4.91586
     2019.71526        -2.71659         4.80754
     2019.71800         3.91512         5.07383
     2019.72073        -0.11518         5.02328
     2019.72347        -0.87247         4.79942
     2019.72621        -1.29177         4.86441
     2019.72895         5.47394         4.90142
     2019.73169         5.44464         4.87705
     2019.73442         3.78835         4.90142
     2019.73716        -3.93994         5.01786
     2019.73990         6.14076         5.03592
     2019.74264         2.66447         4.97002
     2019.74538         3.14817         4.84546
     2019.74811         5.11788         4.98085
     2019.75085        -0.15942         4.92399
     2019.75359        -0.36571         5.06841
     2019.75633        -0.84200         5.09188
     2019.75906        -1.90030         4.84365
     2019.76180        -0.73859         4.83823
     2019.76454         0.06311         4.88246
     2019.76728        -2.15718         4.97092
     2019.77002         2.74952         4.94746
     2019.77275        -3.84677         5.06209
     2019.77549        -2.29107         4.95468
     2019.77823        -0.86836         4.96912
     2019.78097         2.35235         4.95468
     2019.78371        -1.81295         4.95377
     2019.78644        -4.35624         4.96822
     2019.78918         1.80546         5.06931
     2019.79192         6.49617         5.00071
     2019.79466         8.51287         4.96190
     2019.79739         2.30558         4.99439
     2019.80013         5.49028         4.91496
     2019.80287         0.66099         4.95829
     2019.80561        -1.68330         5.10723
     2019.80835        -0.25260         4.92760
     2019.81108        -2.19889         4.93843
     2019.81382        -3.61919         4.92579
     2019.81656         4.12952         5.00432
     2019.82571         1.05222         8.59328
     2019.82751        -7.57366         4.91767
     2019.83025        -4.47395         5.07654
     2019.83299        -3.57925         5.06751
     2019.83572        -1.50254         4.95648
     2019.83846         3.87116         4.95738
     2019.84120        -1.17313         4.97995
     2019.84394        -4.04443         5.12618
     2019.84668        -6.94772         4.99439
     2019.84941        -3.13001         4.94565
     2019.85215        -0.90731         4.97905
     2019.85489        -2.95260         4.92850
     2019.85763         0.25210         5.15868
     2019.86036        -2.04219         4.97905
     2019.86310        -4.61649         4.98807
     2019.86584         1.34122         5.06119
     2019.86858         3.07792         4.95738
     2019.87132        -1.85937         5.00703
     2019.87405         1.25334         4.96912
     2019.87679        -0.57696         5.09820
     2019.87953         7.24775         4.97092
     2019.88227        15.08445         4.99259
     2019.88501        10.43116         4.95016
     2019.88774         6.90186         5.08376
     2019.89048         9.47657         4.93572
     2019.89322         8.45828         4.98356
     2019.89596         4.65298         4.97273
     2019.89869         7.49069         4.96280
     2019.90143         5.99839         4.93572
     2019.90417        10.11410         4.96822
     2019.90691         6.02580         4.92038
     2019.90965         3.15151         4.94565
     2019.91238         3.40821         4.96731
     2019.91512         6.08992         4.95016
     2019.91786         7.61963         4.95197
     2019.92060         7.23933         5.01696
     2019.92607         4.36574         4.99530
     2019.92881         0.51145         4.97183
     2019.93155         3.02015         4.98898
     2019.93429         5.36486         4.93211
     2019.93702         1.08656         4.94926
     2019.93976        -0.58573         4.99349
     2019.94250        -1.90802         4.98807
     2019.94524        -2.49532         4.95468
     2019.94798        -4.89061         4.97273
     2019.95071        -1.30191         5.15507
     2019.95345         4.74380         4.97363
     2019.95619         0.71250         4.97454
     2019.95893        -3.21479         4.97002
     2019.96167        -0.60508         4.95377
     2019.96440         0.70062         5.07112
     2019.96714        -1.81867         5.08917
     2019.96988        -3.77197         4.99259
     2019.97262         2.36174         4.96100
     2019.97535         0.58644         5.02328
     2019.97809        -1.16685         4.99891
     2019.98083         1.37985         5.11264
     2019.98357        -0.03244         4.95287
     2019.98631        -0.34073         4.97905
     2019.98904         0.35897         4.97724
     2019.99178        -0.81532         4.95558
     2019.99452        -2.83562         5.01606
     2019.99726         2.85609         5.05307
     2020.00000         9.41279         5.09639
     2020.00273         2.89650         5.02869
     2020.00547         0.84320         5.13069
     2020.00821         2.32391         5.09098
     2020.01095        -1.44438         5.04765
     2020.01368        -9.13168         5.04946
     2020.01642        -4.99997         5.05848
     2020.01916        -0.68427         4.93933
     2020.02190         0.07944         5.04855
     2020.02464        -2.95486         5.03953
     2020.02737         0.08085         5.03140
     2020.03011        -1.71844         4.96190
     2020.03285        -2.05974         4.98717
     2020.03559         2.33697         4.84184
     2020.03833        -4.74233         4.84546
     2020.04106        -5.05462         4.96551
     2020.04380         2.96008         4.95919
     2020.04654        -1.48621         4.86622
     2020.04928        -5.63751         4.81477
     2020.05201        -1.42880         4.83192
     2020.05475        -0.93909         4.84184
     2020.05749        -0.77339         4.86802
     2020.06023        -2.46368         4.85538
     2020.06297        -4.12898         4.86983
     2020.06570         0.49473         4.82560
     2020.06844         1.10043         4.84094
     2020.07118         5.14714         4.87344
     2020.07392         1.61584         4.83733
     2020.07666        -6.73845         4.88246
     2020.07939        -3.98374         4.86080
     2020.08213        -3.10804         4.85358
     2020.08487        -7.68933         4.90232
     2020.08761         1.80937         4.89239
     2020.09034         2.98008         4.87344
     2020.09308         0.54778         4.84636
     2020.09582        -1.08751         4.84816
     2020.09856         0.22519         4.87254
     2020.10130         0.61290         4.84365
     2020.10403         2.69561         4.91315
     2020.10677        -3.44469         4.87615
     2020.10951        -7.13498         4.87705
     2020.11225        -6.71728         4.84365
     2020.11498        -1.74757         4.86892
     2020.11772        -3.97487         4.91135
     2020.12046        -2.28916         4.96100
     2020.12320        -5.17745         4.86080
     2020.12594        -0.06775         4.84546
     2020.12867        -5.91004         4.79491
     2020.13141        -4.71234         4.79852
     2020.13415        -8.82263         4.81567
     2020.13689        -4.07993         4.98898
     2020.13963        -1.72522         4.99981
     2020.14236        -3.29452         4.86802
     2020.14510         2.04919         4.85990
     2020.14784        -9.42410         4.87885
     2020.15058        -9.72640         4.90323
     2020.15331        -8.23569         4.88607
     2020.15605        -9.29899         4.93662
     2020.15879        -2.62928         4.86622
     2020.16153        -0.25858         4.85087
     2020.16427         2.54713         4.88066
     2020.16700         0.01283         4.86080
     2020.16974         0.77454         4.87344
     2020.17248         0.75525         4.89420
     2020.17522        -1.31405         4.81025
     2020.17796        -2.54734         4.80032
     2020.18069        -1.78464         4.80935
     2020.18343        -1.68693         4.82560
     2020.18617        -2.16123         4.88517
     2020.18891        -2.82652         4.91315
     2020.19164        -1.64481         4.89961
     2020.19438        -0.93911         4.93121
     2020.19712        -5.30040         4.92850
     2020.19986        -5.11970         5.02960
     2020.20260        -4.85599         4.97092
     2020.20533        -1.20729         4.92760
     2020.20807         1.08242         4.92760
     2020.21081        -5.56288         4.93211
     2020.21355        -5.46517         5.35275
     2020.21629        -4.98346         5.13069
     2020.21902        -3.81676         5.03862
     2020.22176        -6.36605         4.92399
     2020.22450         1.92765         4.91677
     2020.22724         0.64836         4.91135
     2020.22997        -2.56694         4.93843
     2020.23271         0.02677         4.90323
     2020.23545        -0.15953         4.92850
     2020.23819        -3.62082         4.90684
     2020.24093        -1.76811         4.88878
     2020.24366        -2.26141         4.93392
     2020.24640        -4.04270         4.93301
     2020.24914        -6.79000         4.92489
     2020.25188        -7.85629         4.95468
     2020.25462        -6.16359         4.89781
     2020.25735        -2.22488         4.88607
     2020.26009        -1.49217         4.91767
     2020.26283         1.83053         4.90864
     2020.26557        -3.97576         4.89691
     2020.26830        -2.83806         4.87524
     2020.27104        -0.92135         4.85087
     2020.27378        -3.10865         4.88788
     2020.27652        -4.23094         4.94565
     2020.27926        -3.18224         4.99981
     2020.28199        -3.85653         4.93301
     2020.28473        -6.85482         4.85087
     2020.28747        -5.55312         4.96641
     2020.29021        -7.06141         4.93843
     2020.29295        -5.91371         4.94565
     2020.29568         2.14000         4.93031
     2020.29842        -0.29930         4.87524
     2020.30116         3.33041         4.85629
     2020.30390         1.94411         4.92579
     2020.30663         2.84282         4.92128
     2020.30937         0.81053         5.15868
     2020.31211       -13.74477         4.96009
     2020.31485        -4.96006         4.99259
     2020.31759        -1.70936         4.85990
     2020.32032        -3.06165         4.86892
     2020.32306        -2.02695         4.87795
     2020.32580        -6.18924         4.84275
     2020.32854         3.42747         4.86983
     2020.33128        -3.66383         4.78227
     2020.33401        -2.78812         4.85268
     2020.33675         7.20858         4.94294
     2020.33949        -2.81171         4.85538
     2020.34223        -8.98801         4.90503
     2020.34496        -0.45330         4.96551
     2020.34770        -6.35760         4.80664
     2020.35044        -3.86989         5.07654
     2020.35318        -7.62718         4.91496
     2020.35592        -7.79248         4.95648
     2020.35865         0.46723         4.83192
     2020.36139         2.25493         4.90142
     2020.36413         1.29864         4.86441
     2020.36687         0.20334         4.93753
     2020.36961        -4.54595         4.89781
     2020.37234        -1.96525         4.84907
     2020.37508         0.22846         4.84907
     2020.37782        -0.21383         4.94926
     2020.38056        -5.65713         4.84816
     2020.38329        -1.34042         4.81115
     2020.38603        -3.07472         4.85629
     2020.38877        -2.07901         5.06751
     2020.39151        -2.51031         4.85990
     2020.39425        -2.40560         4.88066
     2020.39698        -7.97389         4.84275
     2020.39972        -5.45819         4.84997
     2020.40246        -7.03048         4.84997
     2020.40520        -5.20478         4.95197
     2020.40794        -1.08107         4.87705
     2020.41067         2.18963         4.98085
     2020.41341         0.57734         4.91767
     2020.41615        -2.48896         4.85719
     2020.41889        -6.51925         4.84636
     2020.42162       -11.77254         4.89149
     2020.42436        -0.70784         5.08466
     2020.42710        -4.23313         5.07563
     2020.42984         0.97757         4.92128
     2020.43258        -0.67872         4.95107
     2020.43531        -3.36902         4.93211
     2020.43805        -0.96631         4.96731
     2020.44079        -7.92261         4.99169
     2020.44353         0.59410         4.98898
     2020.44626        -2.96619         4.90413
     2020.44900         0.93451         4.94384
     2020.45174         5.06722         4.92850
     2020.45448        -4.30908         4.83823
     2020.45722         0.36963         4.85177
     2020.45995         1.64333         4.86712
     2020.46269        -9.02096         4.85809
     2020.46543        -5.30526         4.82018
     2020.46817        -0.71755         4.85809
     2020.47091         4.45716         4.87885
     2020.47364        -2.12414         4.88246
     2020.47638         1.61257         4.89059
     2020.47912         1.96727         5.07112
     2020.48186        -5.41002         4.91496
     2020.48459        -2.52732         4.95377
     2020.48733         0.68839         4.99349
     2020.49007         3.62510         4.98176
     2020.49281         3.37280         4.92669
     2020.49555        -1.88649         4.96280
     2020.49828        -0.89579         4.83823
     2020.50102        -4.22908         4.84907
     2020.50376        -2.78038         4.99169
     2020.50650        -0.62067         4.86261
     2020.50924        -8.31297         4.82740
     2020.51197        -5.20826         4.85087
     2020.51471         2.27345         4.84726
     2020.51745        -0.28185         4.83282
     2020.52019         4.77886         4.99530
     2020.52292        -1.40344         4.98627
     2020.52566        -3.53573         4.96461
     2020.52840         3.61197         4.99891
     2020.53114         1.04668         5.03501
     2020.53388        -0.50262         4.93121
     2020.53661        -0.52491         4.92038
     2020.53935         1.12480         4.94204
     2020.54209        -4.90750         4.96280
     2020.54483        -4.87479         4.97183
     2020.54757         2.01391         4.97905
     2020.55030         3.14562         4.95016
     2020.55304         0.05532         4.97905
     2020.55578         1.36703         4.97634
     2020.55852         6.21274         5.14243
     2020.56125         0.37844         5.05758
     2020.56399         5.43815         4.96100
     2020.56673        -0.51215         4.92579
     2020.56947         2.27256         4.92940
     2020.57221         3.73126         5.09278
     2020.57494        -0.82203         5.04404
     2020.57768        -3.48733         5.06209
     2020.58042        -1.56262         4.99439
     2020.58316        -0.16191         4.91315
     2020.58590         2.26679         4.94746
     2020.58863         4.02950         4.94746
     2020.59137         5.31820         4.98266
     2020.59411         5.74691         4.94384
     2020.59685        10.40761         5.24714
     2020.59958        -4.44768         5.20832
     2020.60232         2.22102         5.00161
     2020.60506         3.06573         5.00613
     2020.60780         6.15744         4.98446
     2020.61054         9.89014         4.93211
     2020.61316        -7.44622         7.44691
     2020.61601        -1.43645         5.00342
     2020.61875        -2.01974         4.97002
     2020.62103        -6.53832         6.39351
     2020.62696         6.40738         5.04675
     2020.62970         2.10508         4.98176
     2020.63244         9.17679         5.03411
     2020.63518         4.12649         5.07563
     2020.63791         0.90820         5.11625
     2020.64065         3.11790         4.99439
     2020.64339        -3.39639         5.03501
     2020.64613         4.33331         5.14153
     2020.64887         1.89002         5.15597
     2020.65160        -2.19327         5.21735
     2020.73374       127.06189         5.03592
     2020.73648       128.04860         5.04855
     2020.73921       116.48330         5.05487
     2020.74195       120.62001         5.05848
     2020.74469       118.54272         4.96280
     2020.74743       115.81142         4.99710
     2020.75017       114.42513         4.98807
     2020.75290       113.75483         5.04223
     2020.75564       114.42354         4.90593
     2020.75838       117.59224         4.93482
     2020.76112       118.04595         4.97363
     2020.76386       118.39766         4.94114
     2020.76659       119.50936         4.97724
     2020.76933       120.06207         5.03682
     2020.77207       121.97477         4.92399
     2020.77481       124.39348         5.12618
     2020.77754       127.30018         5.05577
     2020.78028       124.06589         5.02057
     2020.78302       120.32959         5.00523
     2020.78576       121.04530         5.01425
     2020.78850       115.82801         4.98446
     2020.79129       114.20875         5.67861
     2020.79397       120.05942         4.94475
     2020.79671       123.69312         5.08827
     2020.79945       124.78483         5.07473
     2020.80219       122.86053         5.16861
     2020.80492       117.08424         4.97002
     2020.80766       117.06494         5.05577
     2020.81040       117.48465         5.08646
     2020.81314       121.05436         5.00342
     2020.81587       116.25406         4.98446
     2020.81861       117.93777         4.98356
     2020.82135       118.12247         4.99800
     2020.82409       118.07918         5.05126
     2020.82683       117.01488         5.29408
     2020.82956       117.43659         5.04133
     2020.83230       124.09730         5.10181
     2020.83504       116.83400         4.99891
     2020.83778       120.04271         4.91496
     2020.84052       120.05441         4.86261
     2020.84325       121.82212         5.03231
     2020.84599       118.94482         4.99078
     2020.84873       129.76053         4.97905
     2020.85147       119.81423         4.82379
     2020.85694       126.71965         4.95648
     2020.85968       124.56935         4.91677
     2020.86242       125.00906         5.04494
     2020.86516       123.34476         5.06931
     2020.86789       128.03547         5.16861
     2020.87063       135.58117         5.02960
     2020.87337       128.36288         4.98537
     2020.87611       131.43558         5.16680
     2020.87885       126.11029         5.07744
     2020.88158       123.50500         5.08737
     2020.88432       125.16270         5.05758
     2020.88706       115.24941         5.16951
     2020.88980       118.62711         5.06209
     2020.89253       119.33282         4.93301
     2020.89527       123.20252         5.12438
     2020.89801       121.85723         5.11535
     2020.90075       123.36193         5.02147
     2020.90349       121.89164         5.00974
     2020.90622       120.02935         4.96822
     2020.90896       117.88905         5.12979
     2020.91170       119.57176         5.21284
     2020.91444       122.89346         5.03321
     2020.91718       114.98617         4.93392
     2020.91991       112.69087         4.94746
     2020.92157       112.61290        11.11350
     2020.92408       105.58247       150.09899
     2020.93748       122.94082        12.50449
     2020.93908       114.49681         4.97544
     2020.94182       113.87052         5.01967
     2020.94455       114.97122         4.95919
     2020.94729       112.35293         5.16409
     2020.95003       108.13264         4.99078
     2020.95277       110.96234         4.97905
     2020.95551       111.17605         5.01696
     2020.95824       118.82575         5.14062
     2020.96098       117.61846         5.07473
     2020.96372       115.20816         5.13521
     2020.96646       116.10487         5.05126
     2020.96919       118.91957         5.02779
     2020.97193       111.98228         4.91767
     2020.97467       123.28699         5.11896
     2020.97741       109.22769         5.04404
     2020.98015       111.33040         5.42135
     2020.98288       110.81310         5.04404
     2020.98562       124.19381         4.90774
     2020.98836       119.55551         4.85177
     2020.99110       117.27622         4.88246
     2020.99384       114.69893         4.86892
     2020.99657       118.32163         4.92218
     2020.99931       115.76834         4.87795
     2021.00205       114.47504         4.87163
     2021.00479       126.37575         4.88788
     2021.00752       124.31145         4.90232
     2021.01026       124.64816         4.92579
     2021.01300       121.76786         4.94836
     2021.01574       124.78657         4.90323
     2021.01848       121.08528         4.88878
     2021.02121       116.26498         4.88788
     2021.02395       117.19669         4.91857
     2021.02669       113.38639         4.93211
     2021.02943       116.29110         4.91135
     2021.03216       116.52680         4.89510
     2021.03428       132.35312         6.98024
     2021.04038       109.58992         4.94114
     2021.04312       117.72663         4.97454
     2021.04585       119.15833         4.94836
     2021.04859       115.22504         4.92579
     2021.05133       111.61274         4.89420
     2021.05407       113.96645         5.12257
     2021.05681       119.51015         5.06119
     2021.05954       118.74186         4.90503
     2021.06776       121.67798         4.90503
     2021.07049       117.60368         4.87344
     2021.07323       122.23439         4.94565
     2021.07597       109.71609         4.91225
     2021.07871       115.72780         4.90954
     2021.08145       113.90550         4.85268
     2021.08418       108.39121         4.88698
     2021.08692       117.88692         4.94746
     2021.08966       116.70262         4.97815
     2021.09240       109.01833         4.88246
     2021.09514       114.22303         5.00252
     2021.09787       118.92074         5.05938
     2021.10061       117.80044         4.92760
     2021.10335       121.98315         4.95738
     2021.10609       113.69885         4.92399
     2021.10882       113.43256         4.93933
     2021.11156       113.06427         4.91496
     2021.11430       107.19497         5.14965
     2021.11704       116.39168         4.90954
     2021.11978       117.36638         4.90684
     2021.12251       115.16009         4.92669
     2021.12525       113.07479         4.93843
     2021.12799       119.04350         4.93753
     2021.13073       115.93121         4.86441
     2021.13347       109.08091         4.97454
     2021.13620       109.54062         4.96551
     2021.13894       116.89432         4.89059
     2021.14168       112.27403         4.91406
     2021.14442       112.92073         4.86080
     2021.14715       117.13244         5.00342
     2021.14989       109.61814         4.91135
     2021.15160       108.75621        11.96741
     2021.16358       115.19567         7.29978
     2021.16712       115.94888         7.51641
     2021.16860       116.11180         6.86018
     2021.17094       111.68426        11.82840
     2021.18366       108.33318         8.68896
     2021.18548       109.21332         4.92669
     2021.18822       110.98002         4.95287
     2021.19062       114.09252         5.82574
     2021.25878       117.26198         7.03440
     2021.26100       115.44936        14.09316
     2021.26465       107.77864        10.55565
     2021.26756       119.66645         5.19930
     2021.27036       113.64519         4.99710
     2021.27310       119.27690         4.93121
     2021.27583       110.77760         4.94114
     2021.27857       112.96931         5.01064
     2021.28131       116.25501         4.90503
     2021.28405       116.60872         4.99800
     2021.28679       112.81542         4.98176
     2021.28952       115.37613         5.03772
     2021.29226       115.24084         5.03050
     2021.29500       114.57054         5.00793
     2021.29774       122.75525         5.15777
     2021.30047       115.69895         5.01425
     2021.30321       119.51566         5.01335
     2021.30595       123.27936         5.22367
     2021.30869       126.41607         5.15777
     2021.31143       124.25277         4.95829
     2021.31416       126.93948         4.97544
     2021.31690       122.27019         5.02960
     2021.31964       116.50989         5.04675
     2021.32238       115.28460         5.04675
     2021.32512       107.21530         4.95558
     2021.32785       113.23201         4.94746
     2021.33059       121.41071         4.97092
     2021.33333       121.26242         4.94023
     2021.33607       115.32712         4.93121
     2021.33880       115.00283         4.96190
     2021.34154       113.36554         4.99349
     2021.34428       112.03924         5.06931
     2021.34702       112.16195         5.09098
     2021.34976       116.88665         4.97905
     2021.35249       108.71136         4.94836
     2021.35523       110.56406         5.00884
     2021.35797       107.77777         5.00523
     2021.36071       105.95848         4.96551
     2021.36344       110.42918         4.93753
     2021.36618       113.12389         5.05397
     2021.36892       109.54359         4.98446
     2021.37166       112.51630         4.99800
     2021.37440       111.83800         4.98537
     2021.37605       107.34903        10.65856
     2021.37987       116.76241         5.16319
     2021.38261       116.02412         5.32928
     2021.38535       117.69083         5.13611
     2021.38809       118.19053         5.12979
     2021.39082       117.82624         5.09369
     2021.39356       113.28194         5.15777
     2021.39630       111.42365         5.11264
     2021.39904       112.54035         5.07834
     2021.40177       115.02006         5.04133
     2021.40451       119.11476         5.31935
     2021.40725       115.57147         5.13611
     2021.40999       117.41418         5.07654
     2021.41273       111.30688         5.02238
     2021.41546       112.86159         5.04675
     2021.41820       111.41229         5.15326
     2021.42094       117.06500         5.14514
     2021.42368       122.86070         5.32115
     2021.42642       123.20541         5.25165
     2021.42915       121.01312         5.11625
     2021.43189       119.71682         5.11264
     2021.43463       113.74553         5.13069
     2021.43737       111.34223         5.09008
     2021.44010       116.90794         5.15597
     2021.44284       112.00564         5.19298
     2021.44558       117.98235         5.27151
     2021.44832       114.53505         5.18576
     2021.45106       116.77176         5.26700
     2021.45379       121.37047         5.28956
     2021.45653       112.71317         5.21915
     2021.45927       118.71888         5.04494
     2021.46201       115.46558         5.09369
     2021.46475       113.02229         5.08015
     2021.46748       114.41799         5.11625
     2021.47022       114.55970         5.18666
     2021.47296       123.84140         5.26700
     2021.47570       120.17811         5.40149
     2021.47843       119.35482         5.22728
     2021.48117       111.30552         5.17492
     2021.48391       106.42523         5.13882
     2021.48665       113.42993         5.19117
     2021.48939       111.44364         5.09008
     2021.49212       112.35134         5.18666
     2021.49486       125.12205         5.22457
     2021.49760       122.10576         5.42496
     2021.50034       118.37046         5.31303
     2021.50308       114.63117         5.05668
     2021.50581       116.10687         5.27512
     2021.50855       137.23858         5.25707
     2021.51129       114.80028         5.09008
     2021.51403       117.92799         5.18124
     2021.51676       118.45169         5.04223
     2021.51950       118.45540         5.17402
     2021.52224       114.30811         5.05577
     2021.52498       117.33581         5.07834
     2021.52772       116.98152         5.10091
     2021.53045       116.87422         5.06661
     2021.53319       118.04593         5.01425
     2021.53593       117.14563         5.16861
     2021.53867       123.80934         5.35365
     2021.54141       116.16904         5.17944
     2021.54414       108.73775         5.18034
     2021.54688       110.99846         5.01245
     2021.54962       114.29316         5.09369
     2021.55509       116.67957         5.08195
     2021.55783       112.69528         5.10632
     2021.56057       114.84898         5.04043
     2021.56331       119.61669         5.03953
     2021.56605       118.71140         5.12347
     2021.56878       113.00210         5.07112
     2021.57152       117.51281         5.14514
     2021.57426       116.80651         5.18937
     2021.57700       117.05822         5.21013
     2021.57974       104.42192         6.93781
     2021.58247       113.21363         5.17402
     2021.58521       115.95533         5.22457
     2021.58795       117.88004         5.24172
     2021.59069       117.95675         5.14153
     2021.59342       118.19045         5.15868
     2021.59616       119.10616         5.37351
     2021.59890       112.10586         5.08105
     2021.60164       124.56957         5.30762
     2021.60438       113.43727         5.04584
     2021.60711       117.67898         5.04133
     2021.60985       118.30468         5.06209
     2021.61259       123.15839         5.14875
     2021.61533       117.55410         5.13521
     2021.61807       122.36180         5.08646
     2021.62080       117.64151         5.02418
     2021.62354       120.16221         5.13160
     2021.62577       120.83560         6.41969
     2021.62902       116.25462         5.07112
     2021.63175       114.48233         5.10723
     2021.63449       116.72004         5.03772
     2021.63723       120.66874         5.36719
     2021.63997       121.03645         5.24714
     2021.64271       125.83015         5.19659
     2021.64544       113.38186         5.05126
     2021.64818       118.22156         5.06480
     2021.65092       119.83427         5.07112
     2021.65366       117.74697         5.16500
     2021.65639       120.71368         5.05938
     2021.65913       113.49839         5.05938
     2021.66187       120.40809         5.06300
     2021.66461       119.51580         5.05036
     2021.66735       117.30950         4.98537
     2021.67008       115.53921         5.11084
     2021.67282       122.09191         5.28234
     2021.67556       114.62462         5.29046
     2021.67830       114.34432         5.17492
     2021.68104       119.98503         5.03231
     2021.68377       118.55874         5.03050
     2021.68651       117.29144         5.03682
     2021.68925       121.59215         5.09639
     2021.69199       121.67585         5.13521
     2021.69472       121.43956         5.15507
     2021.69746       117.23426         5.09278
     2021.70020       118.11797         5.16138
     2021.70294       114.55167         5.12438
     2021.70568       118.40638         5.10632
     2021.70841       120.81909         5.14333
     2021.71115       120.54979         5.02779
     2021.71389       130.76350         5.18124
     2021.71663       126.53220         5.24353
     2021.71937       120.40591         5.06570
     2021.72205       113.23358         5.16680
     2021.72484       115.28432         5.06300
     2021.72758       112.38003         5.06119
     2021.73032       111.77473         5.22638
     2021.73305       119.91844         4.96280
     2021.73579       123.82314         5.04223
     2021.73853       125.40785         5.07834
     2021.74127       128.43455         5.14514
     2021.74401       120.52726         5.00793
     2021.74674       119.62796         4.97454
     2021.74948       118.68167         5.02057
     2021.75222       119.26038         4.99349
     2021.75496       121.13308         5.02689
     2021.75770       118.50779         5.07924
     2021.76043       123.62649         5.02960
     2021.76317       126.58120         5.17402
     2021.76591       119.30790         5.07473
     2021.76865       118.88061         5.01696
     2021.77138       121.26931         5.09188
     2021.77412       124.55802         5.19749
     2021.77686       123.54173         5.05848
     2021.77960       124.89443         5.06029
     2021.78234       122.58414         5.08105
     2021.78507       128.39284         5.07654
     2021.78781       127.49055         5.09278
     2021.78992       124.61386         6.87101
     2021.79500       133.96503         9.84075
     2021.79814       126.96698         6.86199
     2021.80070       128.83058         7.91539
     2021.80464       122.43903         9.06447
     2021.80732       129.02970         6.18048
     2021.80971       118.54019         4.97815
     2021.81245       128.92990         5.12799
     2021.81519       134.63260         5.00523
     2021.81793       130.88331         5.02599
     2021.82067       122.39002         5.17944
     2021.82340       119.61572         5.13792
     2021.82614       121.76543         5.08195
     2021.82888       125.20413         5.07563
     2021.83162       128.06184         5.17312
     2021.83436       124.80154         5.09910
     2021.83709       119.66425         5.11625
     2021.83983       117.35395         5.13431
     2021.84234       120.70052         5.68673
     2021.84531       115.81337         5.10361
     2021.84804       121.51407         5.07654
     2021.85078       121.02978         5.12438
     2021.85352       118.66048         5.10000
     2021.85626       124.02619         5.12799
     2021.85900       118.40989         4.94023
     2021.86173       116.81560         5.03231
     2021.86447       116.57331         5.22186
     2021.86721       119.32601         5.33740
     2021.86995       124.24272         5.34011
     2021.87269       119.72242         5.07202
     2021.87542       123.03613         5.21374
     2021.87816       113.23883         4.97905
     2021.88090       114.79154         4.99078
     2021.88364       121.22224         5.06570
     2021.88637       109.40795         5.00793
     2021.88911       111.20066         4.95648
     2021.89185       109.15336         4.98356
     2021.89459       115.90007         5.02869
     2021.89733       115.11977         5.03862
     2021.90006       111.17648         5.07473
     2021.90280       117.39118         5.12979
     2021.90554       115.40589         5.08917
     2021.90828       121.00359         5.00613
     2021.91102       125.29430         5.17312
     2021.91375       118.83001         5.03682
     2021.91649       116.08671         5.02147
     2021.91923       119.04042         5.13250
     2021.92197       106.12612         5.22457
     2021.92470       107.02083         5.06841
     2021.92744       118.79953         5.21193
     2021.93018       113.22124         5.18124
     2021.93292       125.91495         5.22367
     2021.93566       128.91165         5.19659
     2021.93839       121.45836         5.10361
     2021.94113       124.88106         5.26790
     2021.94387       127.13277         5.12889
     2021.94661       119.52847         5.11174
     2021.94935       124.33918         5.18124
     2021.95208       126.73788         5.07112
     2021.95482       123.03759         5.19659
     2021.95756       126.35030         5.22547
     2021.96030       114.51000         5.24623
     2021.96303       119.51971         5.21284
     2021.96577       123.32341         5.29317
     2021.96851       117.54912         5.19659
     2021.97125       123.66982         5.28054
     2021.97399       121.48353         5.29769
     2021.97672       130.98223         5.26429
     2021.97946       131.48094         5.20561
     2021.98220       133.54765         5.29859
     2021.98494       129.52435         5.16409
     2021.98767       131.08106         5.25616
     2021.99041       125.85976         5.08646
     2021.99315       124.45747         5.07292
     2021.99589       130.21617         5.11535
     2021.99863       124.86788         5.06029
     2022.00136       119.22359         5.21103
     2022.00410       113.74429         5.09369
     2022.00684       113.03800         5.11535
     2022.00958       119.25870         5.12979
     2022.01232       109.82241         5.13701
     2022.01505       128.28811         5.15597
     2022.01779       124.62182         5.26519
     2022.02053       125.10252         5.20020
     2022.02327       110.46623         5.42586
     2022.02600       106.39694         5.09188
     2022.02874       109.05264         5.16229
     2022.03148       108.63235         5.15055
     2022.03422       110.70005         5.16861
     2022.03696       109.71876         5.10000
     2022.03969       103.70846         5.10000
     2022.04243       113.30517         5.10542
     2022.04517       110.78187         5.08285
     2022.04791       109.96558         5.06570
     2022.05065       115.52229         5.07924
     2022.05338       113.09199         5.13701
     2022.05612       104.51770         5.35636
     2022.05886       102.29540         5.06751
     2022.06160       101.68311         5.07112
     2022.06433       109.11181         5.11354
     2022.06707       104.57852         5.15507
     2022.06981       112.74023         5.47280
     2022.07255       102.28193         4.98266
     2022.07529       109.36464         4.99620
     2022.07802       110.19934         4.97995
     2022.08076       115.60405         5.03231
     2022.08350       125.09475         5.13069
     2022.08624       113.91346         5.05848
     2022.08898       115.39316         4.95829
     2022.09171       109.34687         4.96731
     2022.09445       107.54458         5.00432
     2022.09719       109.76928         5.00884
     2022.09993       103.28599         5.11264
     2022.10266       105.21869         5.07654
     2022.10540       109.60240         5.07383
     2022.10814       115.43610         5.09098
     2022.11082       112.79377         5.12167
     2022.11362       113.80351         5.37080
     2022.11635       112.18122         5.11896
     2022.11909       110.43693         4.99169
     2022.12172       113.18756         5.27692
     2022.13278       109.97345         4.98176
     2022.13552       112.36316         5.00432
     2022.13826       118.43286         5.08556
     2022.14099       117.65257         4.99078
     2022.14373       111.10328         5.00342
     2022.14647       113.71598         4.97273
     2022.14921       112.05369         5.21374
     2022.15195       109.79739         5.24985
     2022.15468       112.21010         5.03231
     2022.15742       111.08080         5.01696
     2022.16016       112.66651         4.99078
     2022.16290       113.25322         5.02960
     2022.16564       115.28992         4.99891
     2022.16837       114.28863         5.02238
     2022.17111       119.50233         5.00703
     2022.17385       117.28804         5.00161
     2022.17659       115.31974         4.96100
     2022.17932       107.16945         5.02238
     2022.18206       108.68115         5.02328
     2022.18480       116.29086         5.00703
     2022.18754       115.09957         5.07654
     2022.19028       108.91527         5.06841
     2022.19301       113.54298         5.03501
     2022.19575       117.83968         4.98446
     2022.19849       109.53839         4.97363
     2022.20123       116.72309         4.99620
     2022.20397       119.02980         5.01786
     2022.20670       112.64350         5.09008
     2022.20944       114.83721         5.10000
     2022.21218       118.32892         5.04946
     2022.21492       114.60262         5.04314
     2022.21765       113.31533         4.97634
     2022.22039       107.79503         4.93843
     2022.22313       112.00274         5.02599
     2022.22587       111.81544         5.20652
     2022.22861       117.00515         5.08195
     2022.23134       120.07886         5.02508
     2022.23408       118.62456         4.96190
     2022.23682       117.20027         5.10813
     2022.23956       119.51797         5.05668
     2022.24230       119.76568         5.00974
     2022.24503       116.74738         5.01877
     2022.24777       118.34809         4.98085
     2022.25051       115.89379         4.97634
     2022.25325       116.47650         4.98266
     2022.25598       120.25421         5.00523
     2022.25872       120.83691         5.01515
     2022.26146       111.41762         4.99891
     2022.26420       112.89832         4.97724
     2022.26694       114.06703         5.13431
     2022.26967       120.35673         5.03140
     2022.27241       123.05144         4.98898
     2022.27515       122.25514         5.09459
     2022.27789       120.33585         4.95197
     2022.28062       115.75356         5.00252
     2022.28336       118.60726         4.99800
     2022.28610       114.84197         5.09459
     2022.28884       114.58767         5.18034
     2022.29158       111.99138         4.97724
     2022.29431       108.97708         4.98176
     2022.29705       113.78579         4.99078
     2022.29979       121.14250         5.00974
     2022.30253       119.93320         5.10723
     2022.30527       116.61491         5.09910
     2022.30800       112.79761         5.01515
     2022.31074       110.80732         4.99169
     2022.31348       111.69402         5.00161
     2022.31622       108.45473         4.99349
     2022.31895        96.13843         5.19569
     2022.32169       115.30814         5.16770
     2022.32443       115.23585         5.00252
     2022.32717       112.27855         5.05577
     2022.32991       112.48126         4.98266
     2022.33264       114.53096         5.21464
     2022.33538       115.58567         5.29137
     2022.33812       111.61137         5.24082
     2022.34086       119.01908         5.05397
     2022.34257       116.13415        10.00503
     2022.42197       118.19161        10.47712
     2022.42550       114.80281         5.76436
     2022.42847       111.66366         5.17131
     2022.43121       108.61136         5.05126
     2022.43394       120.68207         5.09098
     2022.43663       112.20174         5.36268
     2022.43942       112.98048         6.28880
     2022.44216       120.10819         4.99620
     2022.44507       126.18900         5.55855
     2022.44763       121.99560         5.01877
     2022.45037       106.98030         4.98627
     2022.45311       109.45001         4.98988
     2022.45585       115.93571         5.08105
     2022.45859       108.10542         5.57300
     2022.46138       115.88216         5.46377
     2022.46406       112.76283         4.91586
     2022.46680       112.10154         4.96731
     2022.46954       110.48924         4.96280
     2022.47227       101.73795         4.94204
     2022.47501       119.20065         4.98085
     2022.47775       109.81736         5.13611
     2022.48049       108.96006         4.97905
     2022.48323       117.27777         5.01606
     2022.48596       121.13448         5.51523
     2022.48870       114.64418         5.41052
     2022.49144       115.52089         5.36177
     2022.49418       114.75059         5.49808
     2022.49680       111.00623         5.38434
     2022.49977       115.68707         5.32567
     2022.50239       104.11471         5.43399
     2022.50513       118.90641         5.59646
     2022.50787       118.74512         5.41503
     2022.51072       113.88790         5.42315
     2022.51323       108.88146         6.19583
     2022.51608       111.17324         5.39878
     2022.51882       108.68694         5.16319
     2022.52156       117.89465         5.65875
     2022.52429       116.16335         5.09820
     2022.52703       121.19606         5.00071
     2022.52977       130.63477         5.57841
     2022.53251       118.10447         5.53869
     2022.53525       117.38018         5.30039
     2022.53793       126.17285         6.03335
     2022.54083       117.34066         5.36268
     2022.54346       121.21929         5.20923
     2022.54620       125.41600         5.59285
     2022.54893       120.91770         5.56487
     2022.55167       123.04041         5.38434
     2022.55441       123.53512         5.38254
     2022.55715       126.23082         5.98370
     2022.55989       114.89853         5.34823
     2022.56262       121.49223         5.27692
     2022.56536       111.94794         5.51974
     2022.56810       121.16864         5.05577
     2022.57084       119.31835         5.54140
     2022.57329       124.70988         5.84199
     2022.58173       131.92114         9.59342
     2022.58453       134.25588         5.97016
     2022.58726       123.96658         5.67680
     2022.59000       131.94829         5.24082
     2022.59263       118.93292         5.28324
     2022.59548       133.80570         5.43579
     2022.59822       113.01841         5.30400
     2022.60090       112.15608         5.10452
     2022.60352       125.09871         5.42315
     2022.60643       126.64752         5.30220
     2022.60917       122.90323         5.49176
     2022.61190       131.54193         5.21825
     2022.61464       131.70764         5.40510
     2022.61738       126.46234         5.17583
     2022.62012       116.60905         5.09008
     2022.62286       120.75076         5.11715
     2022.62559       121.43146         5.21825
     2022.62833       123.85417         5.06570
     2022.63107       124.80587         5.37892
     2022.63381       130.17458         4.99710
     2022.63655       123.39228         5.25526
     2022.63934       129.23002         5.42315
     2022.64202       122.79969         5.43940
     2022.64470       125.42936         5.41593
     2022.64738       128.89303         5.98280
     2022.65023       123.83481         5.60639
     2022.65297       133.46952         5.20110
     2022.65571       134.18222         5.55675
     2022.65839       131.98989         5.13521
     2022.66119       130.23963         4.93753
     2022.66392       129.22834         5.07473
     2022.66666       130.37605         5.16770
     2022.66940       129.09275         4.97995
     2022.67214       131.89046         5.15146
     2022.67488       133.13216         5.11535
     2022.67761       132.28787         4.93301
     2022.68035       133.26157         5.16048
     2022.68309       134.82328         5.35455
     2022.68583       131.02298         5.26068
     2022.68856       131.79469         5.03411
     2022.69130       129.59540         5.01967
     2022.69404       128.23810         5.07924
     2022.69678       130.11481         5.02508
     2022.69952       125.19451         5.15326
     2022.70225       136.19222         5.30039
     2022.70499       141.98792         5.29408
     2022.70773       128.87563         5.03953
     2022.71047       128.97633         4.95197
     2022.71321       134.63004         5.03682
     2022.71594       133.64075         4.93031
     2022.71868       131.90145         4.98176
     2022.72142       139.09416         5.06931
     2022.72416       132.77186         5.08285
     2022.72689       131.12157         5.04584
     2022.72963       131.65927         4.88066
     2022.73237       127.49998         4.92850
     2022.73511       128.78269         4.93843
     2022.73785       125.99939         4.91045
     2022.74058       129.85910         5.06751
     2022.74332       137.91180         5.15777
     2022.74606       132.54351         5.00974
     2022.74880       130.32721         4.97815
