# ================= DQRFIT RESULTS ================
# INPUT FILE: series/OTIS.rad
# OUTPUT: LDETRENDED
# FILTER FUNCTION: f(t)
# f(t)=+line(t)+annual(t)+jumps(t)
# line(t)=+P 1+P 2*t
# annual(t)=+P 3*sin(2*pi*t+P 4)
# jumps(t)=+P 5*heav(t-2006.7435  )
# heav(t)=(t<0?0:1)
# TOTAL OBSERVATIONS MTOT= 1729
# INITIAL TIME INTERVAL= 2008.0214 - 2001.1257 =  6.8957
# TOTAL OBSERVATIONS AFTER PREFILTER M= 1725
# TIME-SPAN= 2008.0214 - 2001.1257 =  6.8957
# OBSERVATIONS: USED M=  1725 REJECTED MTOT-M=     4 %USED=   99.7687
# N=  5 PARAMETERS
# MAXSIG= 175.00000
# MAXRES=  30.30881
# SCALE FACTOR FOR LENGTHS: SCL=  10.00000
# SCALE FACTOR FOR SIGMAS: SCLSIG=   1.00000
# CHI^2=   1338.622 DOF=  1720 CHI^2/DOF=   0.77827
# RMS=      5.337 SDEV=      5.339 MEAN=   -0.02140
#  P #       PARAMETER +-    SIGMA %error PARAMETER NAME
# P 1 =      5402.22939 +-  250.066   4.63 YZERO                              
# P 2 =        -2.82855 +-    0.125   4.41 SLOPE                              
# P 3 =         5.01380 +-    0.178   3.55 ANNUAL AMPLITUDE                   
# P 4 =        -2.67988 +-    0.045   1.69 ANNUAL PHASE                       
# P 5 =       303.99710 +-    0.419   0.14 OFFSET 2006.7435                   
#       T            LDETRENDED       SIG_OBS
     2001.12571       -18.22078         6.67998
     2001.12845       -17.97904         6.69851
     2001.13119       -17.44730         6.68969
     2001.13393       -10.91055         6.80878
     2001.13666       -20.80881         6.86701
     2001.13940       -16.33506         7.11843
     2001.14214       -13.73032         6.79379
     2001.14488       -23.85458         6.75409
     2001.14762       -15.88183         6.76291
     2001.15309       -23.12234         6.92788
     2001.15583        -6.25360         6.87230
     2001.15772        25.32974        63.33721
     2001.16131         0.54589         6.99581
     2001.16404        -4.46337         7.27194
     2001.16678        -9.57762         7.02139
     2001.16952       -21.75188         6.92700
     2001.17226        -6.32513         6.91906
     2001.17499       -34.80939         6.90318
     2001.17773       -33.25765         6.89171
     2001.18047       -20.36590         6.79908
     2001.18321       -21.13116         6.84936
     2001.18595       -11.99941         6.89259
     2001.18868       -17.64067         6.90053
     2001.19142        -2.26392         6.83348
     2001.19416        -9.08318         7.13255
     2001.19690        -1.08944         6.99581
     2001.19963       -12.69969         6.70645
     2001.20237        -9.08395         6.66057
     2001.20511        -8.88320         7.13608
     2001.20785       -10.71146         6.85378
     2001.21059       -17.78472         6.73997
     2001.21361       -15.90016         8.77961
     2001.21606       -12.66623         7.21548
     2001.21880       -22.10948         6.74438
     2001.22154       -10.16774         6.75585
     2001.22428       -13.12099         6.82907
     2001.22639       -15.41403        11.00891
     2001.94661        -4.06984         5.41844
     2001.94935         6.95790         5.25877
     2001.95191         5.98516         5.70692
     2001.95482         4.12539         5.74486
     2001.95756        -5.97987         5.28964
     2001.95918        16.10872        16.50323
     2001.96303         1.37762         5.31346
     2001.96577        -8.68463         5.17319
     2001.96851        -8.55089         5.27376
     2001.97125        -9.04415         5.17584
     2001.97399       -13.03940         5.38845
     2001.97932       -17.68430         5.60900
     2001.98126        -4.14583         9.88764
     2001.98494       -18.67542         5.21025
     2001.98767        -4.16968         5.24200
     2001.99041        -6.04094         5.24377
     2001.99315        -3.71319         5.19613
     2001.99589        -7.46645         5.30729
     2001.99863        -6.02170         5.40168
     2002.00410         8.31078         5.40168
     2002.00684         5.87353         5.40521
     2003.14031         3.23361         5.29494
     2003.14305        -0.74065         5.44050
     2003.14579        -5.67790         5.35493
     2003.14852        -0.30416         5.42727
     2003.15126         0.14858         5.35757
     2003.15400         5.90933         5.28170
     2003.15674        -3.09193         5.60900
     2003.15948        -0.68518         5.27817
     2003.16221        -5.64444         5.50843
     2003.16495         0.04931         5.53401
     2003.16769         1.38105         5.42285
     2003.17043         4.88979         5.40962
     2003.17257         7.63586         7.09726
     2003.17590         4.53028         5.28964
     2003.17864        -1.10597         5.64164
     2003.18089         4.69940         6.52295
     2003.18412        -2.60749         5.26053
     2003.18685         2.31926         5.37963
     2003.18959        -4.27300         5.25788
     2003.19233        -1.32025         5.50137
     2003.19507         5.30349         5.52872
     2003.19780         6.55923         5.49784
     2003.20054         3.28598         5.41668
     2003.20328         2.81572         5.58959
     2003.20876        -4.61879         5.59929
     2003.21149        -6.26304         5.39992
     2003.27173        -0.72167         5.56665
     2003.27446        -5.58493         5.36551
     2003.27720        -7.56818         5.30729
     2003.27994         0.36156         5.28523
     2003.28268        -1.33670         5.27112
     2003.28542        -0.75895         5.24906
     2003.28815        -0.67721         5.23583
     2003.29089         0.06154         5.35934
     2003.32648        -1.24879         5.30111
     2003.32922        -2.33105         5.36375
     2003.33196        -5.42730         5.33375
     2003.33470        -1.65756         5.30111
     2003.33744        -4.62381         5.22348
     2003.34017        -0.17507         5.28611
     2003.34291         5.29968         5.27641
     2003.34565        -5.04958         5.24642
     2003.34839         2.46816         5.36022
     2003.35112        -7.05509         5.28082
     2003.35386         0.46865         5.19172
     2003.35660        -2.68260         5.13879
     2003.35934         3.42314         5.23848
     2003.36208         2.48488         5.25171
     2003.36481         0.24763         5.30905
     2003.36755        -1.26963         5.28170
     2003.37029         0.43212         5.24200
     2003.37303        -6.53814         5.24994
     2003.37577        -8.70140         5.15731
     2003.37850        -9.94365         5.20495
     2003.38124        -6.82291         5.19966
     2003.38398        -3.47716         5.16614
     2003.38672        -3.51742         5.26318
     2003.38945        -2.92267         5.31258
     2003.39219        -1.29593         5.31876
     2003.39493         5.57281         5.34875
     2003.39767         7.60056         5.26229
     2003.40041         1.26030         5.64693
     2003.40314         7.59205         5.67781
     2003.40588         4.92179         5.58782
     2003.40862         2.37853         5.41491
     2003.41136         5.21228         5.15908
     2003.41410         2.60402         5.22348
     2003.41683        -2.10323         5.38668
     2003.41957         1.25751         5.28170
     2003.42231         0.68626         5.21466
     2003.42505         0.85800         5.25788
     2003.42778         1.90174         5.30464
     2003.43052         2.15649         5.29494
     2003.43326         3.29123         5.28523
     2003.43600         6.61498         5.28435
     2003.43874         4.05672         5.16437
     2003.44147         4.12946         5.16614
     2003.44421         4.09321         5.27376
     2003.44695         3.47695         5.29670
     2003.44969         2.30170         5.22789
     2003.45243        -4.31356         5.16437
     2003.45516        -8.68381         5.18995
     2003.45790        -5.97107         5.29494
     2003.46064         3.05667         5.27641
     2003.46338        -3.30258         5.27376
     2003.46611         6.31916         5.17055
     2003.46885         3.23591         5.24465
     2003.47159        -2.12035         5.20054
     2003.47433         5.77739         5.22348
     2003.47707        -3.89286         5.26141
     2003.47980         6.35788         5.39639
     2003.48254         1.45963         5.34434
     2003.48528         6.41637         5.37786
     2003.48802         3.03012         5.25788
     2003.49076        12.11186         5.37698
     2003.49349        -1.56040         5.34081
     2003.49623        -2.68065         5.18731
     2003.49897         0.83609         5.20672
     2003.50171        -6.59816         5.38404
     2003.50444        -3.28142         5.43079
     2003.50718         2.50532         5.25259
     2003.50992         0.03207         5.13702
     2003.51266         4.97181         5.38139
     2003.51540         8.39756         5.31876
     2003.51813         6.50330         5.20142
     2003.52087         8.81304         5.22965
     2003.52361         5.33079         5.28347
     2003.52908        12.70928         5.39198
     2003.53165         6.69254         5.55165
     2003.53456         6.67377         5.47490
     2003.53684        -7.82278         6.42326
     2003.54004        -0.22175         5.30376
     2003.54277        -6.40400         5.15114
     2003.54551        -1.37126         5.25171
     2003.54825        -3.88351         5.36110
     2003.55099         3.01523         5.34434
     2003.55373        -3.84903         5.15290
     2003.55646         7.86872         5.24553
     2003.55920         9.09846         5.30552
     2003.56194         3.48121         5.34610
     2003.56468         2.78695         5.25965
     2003.56741        -2.71330         5.20848
     2003.57015         5.12144         5.20319
     2003.57289         4.42018         5.44932
     2003.57563         1.41693         5.18643
     2003.57837         5.06067         5.27112
     2003.58110         1.57442         5.42374
     2003.58384         3.76816         5.25877
     2003.58658         8.74090         5.28259
     2003.58932         4.42065         5.20672
     2003.59206         6.45639         5.38580
     2003.59479         2.14714         5.36904
     2003.59753         3.88688         5.31964
     2003.60027         8.92063         5.39110
     2003.60301        10.93937         5.41403
     2003.60574         5.20911         5.42021
     2003.60848        -0.88614         5.31611
     2003.61122        -3.91840         5.23759
     2003.61396         2.65835         5.28170
     2003.61670        -5.62891         5.24112
     2003.61943         3.09183         5.34434
     2003.62217         5.95658         5.27641
     2003.62491         6.94332         5.27112
     2003.62765         5.67807         5.45726
     2003.63039         8.89781         5.41403
     2003.63312         5.27856         5.29405
     2003.63586         2.33630         5.36287
     2003.63860         6.83204         5.30905
     2003.64407         3.20853         5.27729
     2003.64681         1.92328         5.33552
     2003.64955         5.94302         5.40345
     2003.65229         5.42876         5.24642
     2003.65503        -3.43049         5.21025
     2003.65776        -4.88875         5.21025
     2003.66050         2.44900         5.16966
     2003.66324         2.89074         5.26318
     2003.66598         8.51749         5.36728
     2003.66872        -2.94377         5.10791
     2003.67145         5.07297         5.14585
     2003.67419         6.24872         5.32581
     2003.67693        11.37646         5.26494
     2003.67967        10.28121         5.33199
     2003.68240         9.12595         5.34434
     2003.68514         4.20669         5.28964
     2003.68788         8.21844         5.20936
     2003.69062         8.23118         5.26847
     2003.69336         7.43493         5.36375
     2003.69609         7.16067         5.34963
     2003.69883         3.33941         5.17937
     2003.70157        10.55716         5.27288
     2003.70431        -3.10110         5.21289
     2003.70705         8.73265         5.21907
     2003.70978         5.63439         5.17584
     2003.71252        10.58914         5.30288
     2003.71526        14.60088         5.23759
     2003.71800         3.34962         5.12908
     2003.72073         0.67437         5.17319
     2003.72347         3.84011         5.49519
     2003.72621         2.99586         5.39286
     2003.72895        -2.06240         5.33463
     2003.73169        -0.10666         5.43785
     2003.73442        -1.76191         5.29670
     2003.73716         1.71083         5.28259
     2003.73990         5.40358         5.25083
     2003.74264         4.96332         5.45373
     2003.74538         6.36807         5.31699
     2003.74811         4.17281         5.38227
     2003.75085         8.97655         5.33111
     2003.75359        13.35830         5.20848
     2003.75633        -1.07096         5.19084
     2003.75906         7.27679         5.22171
     2003.76180        11.37953         5.49519
     2003.76454         8.52427         5.54724
     2003.76728        15.47902         5.43079
     2003.76941        11.55906         7.38486
     2003.78644         2.64623         5.32934
     2003.78918         6.32697         5.30199
     2003.80835         2.44618         5.63546
     2003.81108         3.22693         5.39374
     2003.81383        -4.23732         5.30464
     2003.81662        -8.13143         5.16614
     2003.81930        13.74016         5.39551
     2003.82203        -1.93510         5.53136
     2003.82477         0.96465         6.16478
     2003.82751        -4.54862         6.20801
     2003.83025        -3.24987         5.29758
     2003.83299        -1.95711         5.08938
     2003.83578         2.89778         5.12820
     2003.83846        -0.30463         5.17408
     2003.84120         0.47811         5.24730
     2003.84394        -6.25915         5.15643
     2003.84668        -5.80540         5.14849
     2003.84941         3.43934         5.15467
     2003.85216         4.11610         5.08850
     2003.85495         5.59999         5.15996
     2003.85763         5.33258         5.31082
     2003.86036         3.15332         5.35493
     2003.86310        -2.65894         5.12732
     2003.86584         2.14181         5.39374
     2003.86858         9.91555         5.31611
     2003.87679         4.92678         5.23318
     2003.87953         2.17553         5.21466
     2003.88227         9.93827         5.11585
     2003.88501        12.16802         5.98481
     2003.88774         5.28976         5.15467
     2003.89049         3.31452         5.25347
     2003.89328         2.06441         5.17408
     2003.89596        16.81199         5.18025
     2003.89869        10.16174         5.25965
     2003.90143        -2.23652         5.00822
     2003.90417        -5.26177         5.05763
     2003.90691        -0.17703         5.09380
     2003.90965         1.38073         5.07086
     2003.91244         2.50662         5.12114
     2003.91512         3.71420         5.14055
     2003.91786        -1.02805         5.23495
     2003.92060        -9.31331         5.29141
     2003.92334        -2.72056         5.31170
     2003.92607         6.61818         5.43432
     2003.92882         4.50794         5.16261
     2003.93161         7.45283         5.20848
     2003.93429         1.74941         5.17584
     2003.93702        -1.94284         5.07351
     2003.94250         4.14064         5.09115
     2003.94524         8.58539         5.16261
     2003.94798         7.37215         5.14320
     2003.95077         2.72404         5.15820
     2003.95345        -0.93438         5.09732
     2003.95619         0.57537         5.28523
     2003.95893        -2.51289         5.30376
     2003.96167        -2.55515         5.32846
     2003.96440         5.43960         5.36904
     2003.96715         0.56436         5.17231
     2003.97262        -4.53417         5.25612
     2003.97535         3.32257         5.30993
     2003.97809         7.41932         5.27553
     2003.98083         6.50106         5.04439
     2003.98357         1.78281         5.16790
     2003.98631        -2.70444         5.14143
     2003.98910        -2.38054         5.20231
     2003.99178        -7.00796         5.20848
     2003.99452        -3.17522         5.23671
     2003.99726         3.89053         5.03822
     2004.00273        -5.61298         5.21995
     2004.00548        -1.60423         5.06027
     2004.00827        -0.21333         5.11497
     2004.01095        -6.49875         5.03381
     2004.01368         6.40799         5.18025
     2004.01642        24.44874         5.19789
     2004.01916        -4.21652         5.07439
     2004.02190        -0.23478         5.07439
     2004.02464        -1.65302         5.07439
     2004.02743        -3.68513         5.27817
     2004.03011        -6.37554         5.14673
     2004.03285        -3.84880         5.15555
     2004.03559       -11.37105         5.57283
     2004.03833        -1.39831         5.10085
     2004.04106        -7.90057         5.28611
     2004.04381        -4.97881         5.20848
     2004.04660         1.32408         5.27553
     2004.04928         0.51167         5.05674
     2004.05201        -9.40159         5.10791
     2004.05481       -12.67168         5.31434
     2004.05749        -6.84410         5.29053
     2004.06023        -7.37336         5.13085
     2004.06297        -0.93060         5.03381
     2004.06576        -7.30071         5.21642
     2004.06844        -5.28012         5.07351
     2004.07118       -10.45638         5.09997
     2004.07392        -3.60364         5.15643
     2004.07666         0.73511         5.10085
     2004.07939         4.89485         5.08321
     2004.08214         4.74161         5.02851
     2004.08493        -2.73050         5.13085
     2004.08761        -3.41492         5.06204
     2004.09034        -0.08617         5.15908
     2004.09308         0.03657         5.17760
     2004.09582        -6.17268         5.05939
     2004.09856       -12.27094         5.22524
     2004.10130         0.74482         5.09644
     2004.10409        -8.56129         5.18113
     2004.10677       -10.21771         5.05939
     2004.10951        -7.05096         5.04616
     2004.11225        -3.75122         5.10085
     2004.11498        -5.93047         5.30817
     2004.11772        -0.79973         5.09291
     2004.12047        -4.05297         5.12026
     2004.12326         1.54692         5.44579
     2004.12594         7.47750         5.12732
     2004.12867         0.31025         5.13879
     2004.13141         1.17899         5.15114
     2004.13415        -1.89926         5.05410
     2004.13689        -3.93752         5.03822
     2004.13963        -2.19376         4.95970
     2004.14242        -3.10387         5.23406
     2004.14510        -3.17729         5.05763
     2004.14784         5.00846         5.15820
     2004.15058         3.05520         5.06733
     2004.15331         4.38794         5.06204
     2004.15605         3.16769         5.09644
     2004.15880        -9.38955         5.09556
     2004.16159        -1.28466         5.15290
     2004.16427        -5.35108         5.05586
     2004.16700       -12.09034         5.05145
     2004.16957       -10.53107         5.73692
     2004.17248         2.75515         5.28347
     2004.17522         1.16590         5.28788
     2004.17796         5.35766         5.15378
     2004.18075        -6.35345         5.13879
     2004.18343        -6.33387         5.13173
     2004.18617        -2.28713         5.44314
     2004.18891        -1.34238         5.08497
     2004.19164        -3.15964         4.99852
     2004.19438         2.67711         5.11409
     2004.19713        -6.21614         5.02322
     2004.19992        -1.53824         5.20760
     2004.20260        -2.66166         5.08674
     2004.20533        -4.55492         5.04616
     2004.20807        -6.66117         5.28964
     2004.21081        -3.55143         5.39198
     2004.21355        -4.81068         5.21995
     2004.21629       -13.02793         5.28435
     2004.21908        -7.40903         5.42638
     2004.22176        -8.72345         5.23848
     2004.22450        -1.62371         5.22524
     2004.22724         4.05404         5.28347
     2004.22997        -1.01922         5.27288
     2004.23271         2.53352         5.31346
     2004.23546        -6.35372         5.18025
     2004.23825       -11.95483         5.34610
     2004.24093       -12.72124         5.38404
     2004.24366         2.27450         5.25877
     2004.24640        -3.55975         5.11673
     2004.24914       -11.66701         5.11232
     2004.25188       -10.03427         5.02410
     2004.25462        -9.85651         5.08233
     2004.25741        -4.34062         5.17672
     2004.26009        -6.67803         5.07880
     2004.26283        -8.97129         4.95264
     2004.26557        -3.10755         5.09732
     2004.26830        -6.62480         4.93059
     2004.27104        -8.52106         4.91824
     2004.27379        -5.16030         4.95970
     2004.27658        -5.48641         5.11938
     2004.27926        -5.64582         4.96941
     2004.28199        -7.22308         5.13173
     2004.28473        -3.27734         5.12291
     2004.28747        -4.10459         4.93941
     2004.29021        -0.79885         5.12644
     2004.29295        -4.76209         5.00205
     2004.29574        -2.19720         5.06292
     2004.29842         6.70838         5.11673
     2004.30116         0.68413         4.95353
     2004.30390         0.44587         4.95706
     2004.30663        -5.68938         4.96941
     2004.30937        -0.43464         5.11938
     2004.31211        -1.95488         4.96235
     2004.31491        -9.00199         4.99323
     2004.31759        -9.41641         4.95882
     2004.32032         8.74734         5.61517
     2004.32306        -1.82192         4.99940
     2004.32580        -5.51317         4.94912
     2004.32854        -8.03643         4.94382
     2004.33128        -4.96967         5.02675
     2004.33407        -3.39178         5.06115
     2004.33675        -4.86720         5.14496
     2004.33949         1.04255         5.16349
     2004.34223         4.47829         5.18643
     2004.34496        -2.72297         5.06821
     2004.34770         5.07478         5.11056
     2004.35044         3.05054         5.19966
     2004.35324        -2.07257         5.28259
     2004.35592         4.13301         5.11056
     2004.35865         1.40476         5.13438
     2004.36139        -5.36150         5.11938
     2004.36413        -5.44276         5.08762
     2004.36687        -0.06001         5.10262
     2004.36961         5.24375         5.12026
     2004.37240         1.62664         5.09732
     2004.37508         0.82122         5.07968
     2004.37782        -0.61804         5.07792
     2004.38056         2.16571         5.11232
     2004.38329         1.36045         5.03910
     2004.38603        -0.42180         5.06645
     2004.38877         1.17495         4.94470
     2004.39156        -2.24015         4.99675
     2004.39425        -0.30957         4.91824
     2004.39698         1.78517         5.09203
     2004.39972         8.14492         5.03910
     2004.40246         4.42366         5.05233
     2004.40520         3.35841         5.04175
     2004.40794         5.99116         4.94294
     2004.41073         7.08806         5.01793
     2004.41341         2.88364         4.95970
     2004.41615        -0.10562         4.96147
     2004.41889         3.52313         4.94382
     2004.42162        -1.91913         4.94206
     2004.42436         4.83962         5.00734
     2004.42710        -1.29163         5.09380
     2004.42989         4.74426         5.03381
     2004.43258         1.02085         4.95088
     2004.43531         2.90159         4.99852
     2004.43805        10.97734         5.01881
     2004.44079         4.77208         4.98529
     2004.44353         2.72382         4.95529
     2004.44627         3.35458         5.00028
     2004.44906         0.61447         5.07439
     2004.45174         5.56706         5.15202
     2004.45448        -0.91220         5.03734
     2004.45722        -4.90245         5.01087
     2004.45995         0.71529         5.10615
     2004.46269         1.89003         5.18290
     2004.46543        -0.68821         5.02146
     2004.46822        -0.94432         5.08497
     2004.47091        -0.05873         4.97029
     2004.47364         3.07001         5.00293
     2004.47638        -6.13625         4.96147
     2004.47912        -1.19850         4.99852
     2004.48186         1.28724         5.19260
     2004.48460         1.06200         5.03645
     2004.48739        -0.76511         5.08497
     2004.49007         2.68947         5.02146
     2004.49281        -1.86578         5.14496
     2004.49555        -6.12804         5.03822
     2004.49828         4.49671         5.03910
     2004.50102         0.06945         5.05145
     2004.50376        -0.90879         4.98793
     2004.50655        -1.69490         5.01969
     2004.50924         0.08168         5.06645
     2004.51197         9.03343         5.20672
     2004.51471        -0.73783         5.32581
     2004.51745         3.82792         5.02057
     2004.52019         2.27966         5.03469
     2004.52293         2.17242         5.00999
     2004.52572         3.98931         5.17143
     2004.52840        -0.79111         5.03028
     2004.53114         3.20964         5.08850
     2004.53388         6.80838         5.18025
     2004.53661        -4.19487         5.00205
     2004.53935         3.04287         5.35581
     2004.54209         3.04463         5.17672
     2004.54488        -0.94448         5.34699
     2004.54757         3.50310         5.20936
     2004.55030         3.40585         5.15378
     2004.55304         5.69459         5.02763
     2004.55578         2.84533         5.06821
     2004.55852         0.31408         5.00117
     2004.56126        -2.17116         4.95617
     2004.56405        -1.59127         5.15731
     2004.56673         5.62031         5.05674
     2004.56947         6.32306         5.18025
     2004.57221         0.56280         4.96323
     2004.57494         1.40854         5.01881
     2004.57768        -0.50971         4.98264
     2004.58042         4.53505         5.00558
     2004.58321         1.14294         5.07527
     2004.58590         2.44952         5.08056
     2004.58863         9.89726         5.08586
     2004.59137         8.14501         5.03645
     2004.59411         1.21375         5.16702
     2004.59685         2.76350         5.15996
     2004.59959         4.78325         4.99146
     2004.60238         0.82815         5.05057
     2004.60506         3.29973         4.94647
     2004.60780         2.35547         4.99146
     2004.61054        -0.39878         4.95970
     2004.61327         1.14596         5.56312
     2004.61580         2.53810         5.73074
     2004.64442        15.86505        11.18094
     2004.64613         8.74589         5.01263
     2004.64887         6.09264         5.10174
     2004.65117         8.80314         5.88954
     2004.65434        -3.55288         5.06909
     2004.65708        -0.67612         5.09380
     2004.65987         0.42977         5.26406
     2004.66256         4.47736         5.17231
     2004.66529         1.59210         5.03734
     2004.66803        15.36984         5.24642
     2004.67077         3.79459         5.04792
     2004.67351         4.01433         5.01881
     2004.67625         8.32509         5.08938
     2004.67904         0.87198         5.09556
     2004.68172        -3.31543         5.00822
     2004.68446         6.56631         5.02587
     2004.68720         3.09305         5.05498
     2004.68993         3.30680         5.08497
     2004.69267        -1.74046         5.05763
     2004.69541         9.26230         5.33287
     2004.69820         6.61219         5.16878
     2004.70089        10.90077         5.06468
     2004.70362         9.30852         5.06557
     2004.70636        12.06126         4.99764
     2004.70910         8.02301         5.00734
     2004.71184         6.72075         5.00381
     2004.71458         8.47451         4.97646
     2004.71737         8.91940         5.07880
     2004.72005         1.52998         4.96411
     2004.72279         1.13473         4.93059
     2004.72553         2.68947         5.01616
     2004.72826         5.15722         5.04792
     2004.73100         8.00696         5.03116
     2004.73374        -0.04228         5.03734
     2004.73653        -0.48539         5.08233
     2004.73921         0.88019         4.96235
     2004.74195         6.21294         4.99323
     2004.74469         4.73268         4.93941
     2004.74743        -0.39757         4.90148
     2004.75017        -4.55983         4.89618
     2004.75291         1.89393         4.92883
     2004.75570         0.13082         5.03381
     2004.75838        -1.49960         4.91912
     2004.76112        -1.09385         4.98529
     2004.76386        10.79089         5.07086
     2004.76659         0.57863         4.97646
     2004.76933        11.32638         5.28435
     2004.77207         6.78014         5.09644
     2004.77486         2.31103         5.11056
     2004.77754         0.75361         5.08497
     2004.78028         0.38836         5.05498
     2004.78302        -0.96490         5.02057
     2004.78576         0.30884         5.01087
     2004.78850        12.23359         5.13702
     2004.79124        10.52435         4.97646
     2004.79403        13.47924         5.01528
     2004.79671        12.51582         4.96500
     2004.79945        12.13356         4.98440
     2004.80219         5.29431         4.95529
     2004.80492         8.37505         4.98440
     2004.80719        10.82747         6.34828
     2004.81684         8.58376         8.76461
     2004.81861         5.54277         5.07086
     2004.82135         4.19552         5.03910
     2004.82409         1.83526         5.01616
     2004.82683        -0.57699         4.89266
     2004.82957        19.94876         5.18290
     2004.83236        14.21966         4.97735
     2004.83504        -3.07576         5.01881
     2004.83778         2.27098         4.94206
     2004.84052         4.41773         5.05498
     2004.84325         3.54347         4.85384
     2004.84599        13.21021         5.07086
     2004.84873         7.21197         4.96411
     2004.85152        -1.62414         5.07174
     2004.85420         2.67245         6.11450
     2004.85694         2.72319         5.04969
     2004.85968        -3.94606         5.13173
     2004.86242        -2.17532         4.89177
     2004.86516        -0.15558         4.85296
     2004.86790        -2.82782         4.91471
     2004.87069        -8.40393         5.02587
     2004.87337         0.52966         5.12291
     2004.87611         0.60640         4.88824
     2004.87885        -8.04586         4.93147
     2004.88158         3.36189         5.12114
     2004.88432         5.30763         5.18113
     2004.88706         1.35639         4.95441
     2004.88985         0.19628         5.02234
     2004.89253        -0.08013         4.93324
     2004.89527         4.23561         4.95176
     2004.89801         5.97835         4.92441
     2004.90075        18.12810         5.12291
     2004.90349         8.17284         4.92177
     2004.90623         0.72160         4.84413
     2004.90902        -7.91451         4.92265
     2004.91170        -2.25793         4.83972
     2004.91444         2.74282         4.91824
     2004.91718        -4.34644         5.03204
     2004.91991         0.69031         4.94735
     2004.92265         3.08105         4.89971
     2004.92539         5.47281         4.90589
     2004.92818         6.19770         5.02322
     2004.93086        10.20328         4.92618
     2004.93360        14.02203         4.98529
     2004.93634        17.75477         5.00646
     2004.93908         8.85152         4.95353
     2004.94182         4.18826         5.00822
     2004.94456        -2.27598         4.98793
     2004.94735        -4.05509         4.98176
     2004.95003         7.21649         5.17055
     2004.95277        -0.96876         4.89530
     2004.95551        -5.79602         4.85737
     2004.95824        -6.54727         4.92265
     2004.96098        -0.78553         4.85649
     2004.96372        -6.53377         4.81238
     2004.96651         1.06812         4.98264
     2004.96919        -1.70830         4.78591
     2004.97193        -0.84655         4.92618
     2004.97467        -3.49281         4.91383
     2004.97741        -5.97507         4.78767
     2004.98015         2.07368         4.80708
     2004.98289         7.56944         4.78150
     2004.98568         9.39133         4.98264
     2004.98836         6.86491         4.86795
     2004.99110         7.66765         4.97558
     2004.99384         2.32040         4.86531
     2004.99657         0.24614         4.89795
     2004.99931         1.64289         4.96764
     2005.00484        -2.61546         5.03116
     2005.00752        -4.21488         4.92265
     2005.01026        -1.93214         4.92883
     2005.01300        -2.67639         4.92794
     2005.01574         3.13935         5.02146
     2005.01848         7.02110         4.89795
     2005.02122        -0.07015         4.96235
     2005.02401        -1.56025         5.02675
     2005.02669        -6.92267         4.87854
     2005.02943         3.00507         4.89883
     2005.03216        -8.51818         4.94647
     2005.03490        -5.31244         4.91295
     2005.03764       -10.59569         4.91824
     2005.04038        -8.35794         4.93676
     2005.04317        -6.76404         5.02763
     2005.04585       -10.51846         4.97382
     2005.04859        -4.92972         5.08497
     2005.05133        -7.89097         5.15467
     2005.05407        -0.81623         5.18819
     2005.05681        -2.29849         4.93941
     2005.05955         0.90427         5.05763
     2005.06234         0.26216         5.15555
     2005.06502        -1.26525         5.16614
     2005.06776        -0.15451         5.02322
     2005.07049        -3.51576         4.94118
     2005.07323        -0.38002         4.97558
     2005.07597        -6.02528         5.01440
     2005.07871        -4.59552         4.90148
     2005.08150        -7.25063         5.02498
     2005.08418        -3.60304         5.01352
     2005.08692        -6.81330         4.85825
     2005.08966        -2.31756         4.88648
     2005.09193        -5.22713         5.82690
     2005.09518        -6.42095         4.95970
     2005.09788        -4.06131         4.84766
     2005.10067        -8.03442         4.94912
     2005.10335        -3.72083         4.82473
     2005.10609        -6.59909         4.95176
     2005.10882        -1.66635         4.94912
     2005.11156        -6.85360         4.84149
     2005.11430        -3.94686         4.83002
     2005.11704         4.03090         4.89354
     2005.11983        -1.73121         4.99587
     2005.12251        -4.28163         4.88560
     2005.12525        -7.39288         4.82737
     2005.12799       -11.04414         4.83708
     2005.13073        -8.15239         4.89883
     2005.13347        -6.40565         4.87236
     2005.13621        -2.55389         4.83972
     2005.13900        -4.14100         4.93235
     2005.14168        -7.48642         4.82561
     2005.14442        -6.90967         4.83619
     2005.14715        -7.49893         4.94823
     2005.14989        -9.96318         4.91118
     2005.15263        -5.30344         4.93235
     2005.15537        -6.16768         4.91206
     2005.15816        -4.09479         5.07792
     2005.16084        -3.56021         4.95264
     2005.16358        -6.67246         5.01969
     2005.16608        -6.64241         5.47931
     2005.18094        -2.22338         9.12278
     2005.18275        -5.45625         4.97470
     2005.18548        -8.00151         5.04175
     2005.18822        -7.11477         4.91295
     2005.19096        -4.70702         4.99146
     2005.19370        -5.30128         5.09468
     2005.19644        -7.34053         4.89795
     2005.19917        -7.21479         4.88295
     2005.20191        -7.16705         5.01352
     2005.20465         1.53770         5.14761
     2005.20733        -3.24372         5.04704
     2005.21018        -4.46265         5.02146
     2005.21286         3.32093         4.96058
     2005.21560         4.49068         4.93500
     2005.21834        -3.96758         4.96676
     2005.22108        -4.59184         4.91471
     2005.22381        -2.35909         4.92530
     2005.22655        -3.11735         4.89001
     2005.22929        -1.62760         4.88560
     2005.23203        -4.81586         4.89266
     2005.23477         4.37988         4.90148
     2005.23750         5.76863         4.98617
     2005.24024         4.80437         5.09115
     2005.24298         1.67312         4.94029
     2005.24572        -3.34914         5.03381
     2005.24846        -1.01939         4.91736
     2005.25119        -0.35365         4.96500
     2005.25393         6.07209         5.09203
     2005.25667         7.58184         5.22877
     2005.25941         1.71758         5.01087
     2005.26214        -0.23967         5.05321
     2005.26488         5.37307         4.98617
     2005.26762         3.37781         5.00999
     2005.27036        -1.17244         4.98440
     2005.27310        -3.65070         5.01440
     2005.27583         0.90105         5.05057
     2005.27857         1.68479         5.07351
     2005.28131         1.69054         5.03292
     2005.28405        -3.57972         5.09027
     2005.28673        -3.21714         5.22348
     2005.29774        -7.23200         4.91030
     2005.30047        -3.50826         4.93765
     2005.30321        -5.64451         4.92000
     2005.30595        -5.90077         4.92794
     2005.30869        -1.72202         4.96235
     2005.31143        -1.15928         4.93941
     2005.31416        -0.11854         4.95088
     2005.31690        -3.17279         4.94559
     2005.31964        -2.42905         4.94735
     2005.32238        10.86270         5.20583
     2005.32512         1.07444         4.95353
     2005.32785        -3.83781         4.91647
     2005.33059        -0.53107         4.92530
     2005.33333         1.24267         4.89618
     2005.33607         2.78442         5.05939
     2005.33880         1.22116         4.93765
     2005.34154        -5.43509         4.91030
     2005.34428         6.59965         4.96411
     2005.34702         3.53339         4.93324
     2005.34976         4.66914         5.00910
     2005.35249         1.51088         4.94118
     2005.35523         5.31163         5.06468
     2005.35797        -0.73263         5.06115
     2005.36071        -6.79488         5.06557
     2005.36344        -2.34214         5.10174
     2005.36618         5.10660         5.07086
     2005.36892        13.15135         5.59841
     2005.37166         4.93709         5.06645
     2005.37440         6.76084         5.12379
     2005.37713        16.51658         5.31434
     2005.37987         6.86432         5.16525
     2005.38261         4.10307         5.08762
     2005.38535         5.55281         5.02410
     2005.38809        -7.07244         5.14849
     2005.39082         0.10730         5.05145
     2005.39356        -2.11095         5.05939
     2005.39630        -3.82121         5.04969
     2005.39904         1.55053         5.07968
     2005.40177        -2.94972         5.04086
     2005.40451         2.86802         5.06557
     2005.40725         2.26277         5.05763
     2005.40999        -2.16249         5.12291
     2005.41273        -5.81675         5.10526
     2005.41546        -3.21600         4.93324
     2005.41820         2.19374         4.91647
     2005.42094         0.17949         4.96588
     2005.42368        -0.46877         4.97117
     2005.42642         1.43598         4.96764
     2005.42915         3.07072         4.96588
     2005.43189         2.75246         4.95176
     2005.43463         0.23321         4.91206
     2005.43737         1.36995         4.95264
     2005.44010         0.59370         5.24553
     2005.44284         1.31044         5.15908
     2005.44558         0.70018         5.19789
     2005.44832         3.38793         5.10526
     2005.45106         1.03867         4.97999
     2005.45379         4.77842         5.01087
     2005.45653         0.19016         5.04175
     2005.45927         5.96590         5.04616
     2005.46201         1.30365         4.93676
     2005.46475         1.13039         4.92353
     2005.46748        -2.47286         4.98881
     2005.47022        -0.83312         4.99411
     2005.47296         1.05863         5.00205
     2005.47570        -5.00063         4.98617
     2005.47843        -4.98289         5.11409
     2005.48117         0.50286         4.90589
     2005.48391        -3.44240         4.95088
     2005.48665        -1.24565         4.93941
     2005.48939        -3.28391         4.88383
     2005.49212         0.53083         4.93588
     2005.49486         2.91858         4.91647
     2005.49760         3.06732         5.06557
     2005.50034         2.28607         4.96941
     2005.50308         1.95381         4.93235
     2005.50581         2.30156         4.98176
     2005.50855         1.71330         5.05321
     2005.51129         7.42804         5.06733
     2005.51403        -6.56421         4.95441
     2005.51676         9.29753         4.99411
     2005.51950         8.05528         4.98529
     2005.52224         1.40802         5.08762
     2005.52498        11.90776         5.20407
     2005.52772         1.14251         4.96676
     2005.53045        -1.90275         4.95441
     2005.53319        -0.85600         4.92089
     2005.53593         2.81174         5.07262
     2005.53867         2.72349         4.96676
     2005.54141         2.83723         5.00734
     2005.54414         0.77297         5.00028
     2005.54688        -1.33628         5.20231
     2005.54962         7.61346         4.92971
     2005.55236         3.30421         4.91471
     2005.55509         6.07395         5.10791
     2005.55783         5.69369         4.98440
     2005.56057         6.45544         5.14937
     2005.56331         1.78818         5.06733
     2005.56605        -3.87807         5.21377
     2005.56878         2.33267         5.31787
     2005.57152         2.41142         5.24024
     2005.57426         6.13716         5.17231
     2005.57700         3.22390         5.11497
     2005.57974         6.48665         5.15378
     2005.58212         3.22540         6.17978
     2005.59074         0.74379         5.07792
     2005.59342         1.11637         4.93588
     2005.59616         5.96611         4.95353
     2005.59890         2.11186         4.99940
     2005.60164         0.07660         4.97382
     2005.60438         3.27335         5.01616
     2005.60711        -0.70091         4.99234
     2005.60985         8.79783         5.15467
     2005.61259         2.25458         5.15378
     2005.61533         3.32932         4.93676
     2005.61807         4.58207         4.99058
     2005.62080         4.68781         4.99940
     2005.62354         5.00655         5.19437
     2005.62628         4.76530         5.03645
     2005.62902         5.63204         4.98793
     2005.63175         3.12579         4.97999
     2005.63449         5.13553         5.02851
     2005.63723         7.86427         5.07968
     2005.63997         0.49302         5.00381
     2005.64271         4.28776         5.05586
     2005.64544        -1.20449         5.02057
     2005.64818         3.84625         4.95000
     2005.65092         7.44000         5.03469
     2005.65366         4.80074         4.98793
     2005.65639         5.65848         5.07880
     2005.65913        11.98423         5.11320
     2005.66187         4.80097         5.00205
     2005.66461         0.73072         5.00028
     2005.66735        -0.62554         4.96323
     2005.67008         7.37420         4.97558
     2005.67282         6.80895         4.93765
     2005.67556         8.37969         4.98352
     2005.67830        -2.01356         4.90589
     2005.68104        -3.19082         4.98881
     2005.68372        -3.07322         5.15378
     2005.75496         3.89827         5.04704
     2005.75770        -3.57398         5.11056
     2005.76043         1.19676         4.98793
     2005.76317         7.05851         4.98352
     2005.76591         8.18225         5.06468
     2005.76865         2.56699         4.97999
     2005.77138         6.47574         4.95176
     2005.77412         0.60648         5.04969
     2005.77686         3.79723         5.08144
     2005.77960         8.42897         5.18995
     2005.78234         5.73071         5.24289
     2005.78507         2.94846         5.06027
     2005.78781         5.09320         4.97911
     2005.79055         4.83795         4.92971
     2005.79329        14.05169         5.04880
     2005.79603        13.78844         5.15290
     2005.79876         4.87218         5.12997
     2005.80150         2.39692         5.09027
     2005.80424         1.09867         5.01704
     2005.80698        -0.07159         4.94470
     2005.80971         5.00716         4.99675
     2005.81245         2.47090         5.05145
     2005.81519        -5.97136         5.03734
     2005.81793         8.63339         5.11585
     2005.82067        -1.72587         4.89971
     2005.82340         9.00088         4.96588
     2005.82614         7.13762         4.96147
     2005.82888         5.89437         4.94735
     2005.83162         4.16011         5.19260
     2005.83436         0.97285         5.06204
     2005.83709        -2.82440         5.09821
     2005.83983         3.47934         5.05674
     2005.84257         6.42409         5.14585
     2005.84531         5.71783         5.25171
     2005.84804         4.77357         5.23495
     2005.85078        -1.55468         5.07086
     2005.85352        -2.00394         5.09909
     2005.85552        -3.45729         7.74391
     2005.87088       -14.81384         9.40420
     2005.87269       -10.36073         6.77967
     2005.87542        -6.87998         4.97735
     2005.87816        -9.55024         4.93147
     2005.88090        -8.20550         4.96941
     2005.88364        -6.91775         4.90677
     2005.88637        -0.26101         5.02322
     2005.88911        -0.53926         5.11320
     2005.89185        -3.88152         4.95882
     2005.89459        -4.69377         4.98087
     2005.89733         1.00397         5.05674
     2005.90006         2.65871         5.02146
     2005.90280         1.44946         5.06115
     2005.90554        -5.56980         5.07439
     2005.90828        -1.40805         4.93500
     2005.91102         1.31669         4.92618
     2005.91375        -1.10657         4.92971
     2005.91649        -1.15482         5.01793
     2005.91923       -15.61408         5.00205
     2005.92197        -0.70233         4.91736
     2005.92470       -10.51459         4.86795
     2005.92744       -11.71184         4.89089
     2005.93018        -9.58110         4.90059
     2005.93292        -7.39836         4.93235
     2005.93566        -2.82061         4.96147
     2005.93839        -2.34887         4.97735
     2005.94113        -8.05012         4.95441
     2005.94387        -1.86438         4.92971
     2005.94661         2.18536         4.96588
     2005.94935        -4.66989         4.95794
     2005.95208       -11.90315         4.97029
     2005.95482       -12.69740         5.01704
     2005.95756        -7.95466         4.92265
     2005.96030        -5.45692         4.89089
     2005.96303        -6.60017         4.87501
     2005.96577         1.46657         5.06909
     2005.96851        -2.18968         5.23318
     2005.97125        -5.95194         5.06115
     2005.97399        -0.69519         5.13438
     2005.97672        -0.90845         5.08497
     2005.97946        -6.49671         5.12555
     2005.98220         5.15504         5.08321
     2005.98494         4.41578         4.96588
     2005.98767         3.77953         5.12644
     2005.99041         0.66927         5.06733
     2005.99315        -2.82699         4.95794
     2005.99589         3.50676         5.00205
     2005.99863         9.20250         5.04527
     2006.02327        -5.44780         5.12732
     2006.02600        -3.19906         5.25259
     2006.02874         3.24469         5.05057
     2006.03148         0.41643         4.99764
     2006.03422        -0.27582         5.04086
     2006.03696        -6.01608         5.03028
     2006.03969        -2.85233         5.00205
     2006.04243        -4.44059         5.05674
     2006.04517         0.78215         5.14849
     2006.04791        -1.46710         4.96323
     2006.05065        -1.24736         5.08233
     2006.05338       -10.09261         5.01616
     2006.05612        -6.32387         4.88913
     2006.05886        -8.22413         4.87325
     2006.06160        -9.19138         4.82914
     2006.06433        -7.60364         5.00205
     2006.06707        -6.69389         4.86090
     2006.06981       -10.61315         4.84149
     2006.07255        -9.46440         4.81590
     2006.07529        -5.96766         4.80091
     2006.07802       -10.34292         4.82914
     2006.08076        -5.18817         4.88207
     2006.08350        -6.57843         4.89266
     2006.08624        -7.36268         4.90412
     2006.08898        -6.55594         4.84325
     2006.09171        -4.45420         4.85825
     2006.09445        -4.37845         4.95441
     2006.09719       -11.07971         4.84502
     2006.09993        -9.73096         4.84149
     2006.10266       -15.86322         4.84855
     2006.10540        -9.83948         4.93676
     2006.10814       -13.16873         4.89266
     2006.11088       -12.71699         4.95000
     2006.11362       -15.97424         4.85031
     2006.11635       -13.32850         4.92177
     2006.11909       -11.82375         4.87854
     2006.12183        -7.04601         4.88383
     2006.12457       -10.97927         4.87589
     2006.12731       -14.65152         4.90765
     2006.13004       -11.69978         4.88030
     2006.13278       -12.21103         4.87678
     2006.13552        -8.48929         4.86619
     2006.13826        -4.42855         4.89177
     2006.14099        -5.90780         4.87501
     2006.14373        -9.25506         4.86795
     2006.14647        -0.82931         4.94912
     2006.14921        -4.65957         4.85472
     2006.15195       -10.31582         4.86001
     2006.15468        -9.54008         4.84061
     2006.15742         5.35066         4.96588
     2006.16016         5.71041         4.90236
     2006.16290        -3.71685         5.04086
     2006.16564        -5.14510         4.84502
     2006.16837        -8.76036         4.97470
     2006.17111        -5.12862         4.83531
     2006.17385        -1.54387         4.84678
     2006.17659        -0.25513         4.97911
     2006.17932        -6.32838         4.83884
     2006.18206        -2.17764         4.86531
     2006.18480         2.26311         4.93941
     2006.18754        -1.45915         4.98087
     2006.19028        -4.95741         4.91912
     2006.19301        -4.14366         4.99323
     2006.19575        -2.38092         5.04175
     2006.19849        -0.01617         5.07792
     2006.20123        -2.34243         5.04969
     2006.20397        -6.37269         5.27729
     2006.20670        -9.39894         5.29229
     2006.20944       -10.12020         5.04175
     2006.21218       -12.05345         5.07351
     2006.21492       -11.90871         5.04175
     2006.21765        -3.49496         5.02498
     2006.22039        -7.66822         5.08056
     2006.22313       -12.45048         5.16172
     2006.22587        -8.10873         5.13438
     2006.22861        -2.71899         5.07527
     2006.23134        -6.70924         5.08497
     2006.23408        -7.56050         5.03381
     2006.23682        -4.41376         5.05674
     2006.23956        -9.51101         4.93588
     2006.24230        -5.09127         4.90942
     2006.24891        -2.87655        11.20564
     2006.25051        -6.24403         4.92177
     2006.25325        -3.83229         4.94735
     2006.25598        -7.57655         4.96323
     2006.25872        -6.71280         4.97911
     2006.26146        -3.50206         5.13702
     2006.26416       -11.10041         5.20495
     2006.26694        -7.07957         4.97999
     2006.26967        -5.06883         4.94735
     2006.27241        -3.15708         4.92883
     2006.27515        -7.30834         5.08674
     2006.27789        -5.17759         5.12820
     2006.28062        -3.24485         4.91295
     2006.28336        -1.01211         4.95441
     2006.28610         9.07564         5.01087
     2006.28884        -1.64262         4.94912
     2006.29135        -2.49052         5.45726
     2006.29431        -3.72713         4.93765
     2006.29705        -6.54438         4.93588
     2006.29979        -2.08864         5.03469
     2006.30253        -5.13690         5.00028
     2006.30527        -5.04915         4.91206
     2006.30800        -8.72441         4.91383
     2006.31074        -4.73866         4.94382
     2006.31348        -1.17992         5.08321
     2006.31622        -3.98218         5.00469
     2006.32169        -7.72169         5.05233
     2006.32443        -4.80194         5.04263
     2006.32717        -4.07720         5.01704
     2006.32991        -5.96745         4.96764
     2006.33264        -8.46871         4.91912
     2006.33538        -9.28797         4.93147
     2006.33812        -6.12322         4.93588
     2006.34086        -5.49448         4.97382
     2006.34360        -1.48673         4.99499
     2006.34633        -1.66599         4.99323
     2006.34907        -1.31925         5.00558
     2006.35181        -5.86050         5.07262
     2006.35455        -9.82776         4.99323
     2006.35728        -3.13401         5.01352
     2006.36002        -6.63627         4.99058
     2006.36276        -6.97752         5.00822
     2006.36550        -7.80378         4.98881
     2006.36824       -10.38104         4.99587
     2006.37097        -4.27629         5.16614
     2006.37371         0.84245         5.14849
     2006.37645         1.82320         4.98352
     2006.37919         5.19194         5.15643
     2006.38193        -1.49132         5.07615
     2006.38466        -0.56857         5.11232
     2006.38740         5.44017         5.14320
     2006.39014         6.51392         5.26847
     2006.39288         0.75366         5.20054
     2006.39561        -1.89159         5.17496
     2006.39835        -2.99085         5.17760
     2006.40109         2.05789         5.06380
     2006.40383         1.35164         5.07439
     2006.40657         1.78638         5.11761
     2006.40930        -3.82887         5.08938
     2006.41204        -3.65213         5.09556
     2006.41478        -1.80739         5.10615
     2006.41752         1.68936         5.34699
     2006.42026        -0.18090         5.19525
     2006.42299         4.45985         5.27200
     2006.42573        -2.63041         5.18466
     2006.42847         2.61533         5.16878
     2006.43121        -6.40492         5.15908
     2006.43394        -2.37218         5.10438
     2006.43668        -2.25543         5.06380
     2006.43942         0.10231         5.06821
     2006.44216         1.46706         5.07792
     2006.44490         0.71680         5.04616
     2006.44763        -1.03646         5.11497
     2006.45037         2.49429         5.06733
     2006.45311         3.82903         5.06733
     2006.45585         9.44878         5.13085
     2006.45859         2.98452         5.05674
     2006.46132         0.95026         5.20936
     2006.46406        -1.16999         5.17760
     2006.46680         1.99675         5.16349
     2006.46954         3.11650         5.12114
     2006.47227        -0.10976         5.09291
     2006.47501         2.93399         5.12732
     2006.47775        -1.84827         5.18643
     2006.48049        -5.55253         5.15908
     2006.48323        -2.44478         5.20054
     2006.48596         0.58996         5.15290
     2006.48870         6.09871         5.30376
     2006.49144         1.17945         5.10879
     2006.49418         0.89819         5.24200
     2006.49692         0.21794         5.21819
     2006.49965        -2.11132         5.23230
     2006.50239        -0.15657         5.33993
     2006.50513        10.80817         5.47138
     2006.50787         0.01592         5.38757
     2006.51055         6.01450         5.48902
     2006.51346        -4.25427         5.49784
     2006.51608        -4.78385         5.34522
     2006.51882         7.90289         5.33111
     2006.52156         1.68064         5.38845
     2006.52424         5.45222         5.57724
     2006.52703        13.13912         5.52872
     2006.52977         2.29987         5.55342
     2006.53245         2.59945         5.45285
     2006.53530         3.98452         5.41844
     2006.53684        -2.09113        12.60040
     2006.54163         8.26643         9.50036
     2006.54346         4.60859         5.04263
     2006.54620        -1.89267         5.07174
     2006.54893         0.17308         5.02763
     2006.55167        -0.06018         5.17319
     2006.55441         4.36357         5.14408
     2006.55715         3.99931         5.06998
     2006.55989         7.02705         5.12114
     2006.56262         5.65980         5.14937
     2006.56536         3.28454         5.10968
     2006.56810         2.38829         5.12203
     2006.57084         4.55003         5.21377
     2006.57357         3.54078         5.11585
     2006.57631         2.74652         5.07615
     2006.57905         2.97526         5.08850
     2006.58179         1.42001         5.09468
     2006.58453         2.42875         5.16172
     2006.58726         3.67350         5.24730
     2006.59000        -1.07676         5.20054
     2006.59274         1.65098         5.13702
     2006.59548         1.32273         5.12379
     2006.59822        -4.86353         5.06998
     2006.60095         4.86822         5.35051
     2006.60369         2.42696         5.04880
     2006.60643         5.58670         5.14320
     2006.60917         1.03045         5.06909
     2006.61190         0.83819         4.99764
     2006.61464         3.47494         5.00028
     2006.61738         4.03468         5.09380
     2006.62012         1.42743         5.09997
     2006.62286        -0.71683         5.09027
     2006.62559         0.25291         4.99940
     2006.62833         0.71366         5.09027
     2006.63107       -10.53260         5.06204
     2006.63381         3.69615         5.01793
     2006.63655         2.61889         5.13438
     2006.63928        12.39563         5.05851
     2006.64202         7.98338         4.97293
     2006.64476         0.33212         5.00558
     2006.64750         5.64987         5.17055
     2006.65023         3.21161         5.16702
     2006.65297        -0.27064         5.25700
     2006.65571         0.24410         5.37522
     2006.65845        11.29284         5.35316
     2006.66119         5.97159         5.23671
     2006.66392         1.23233         5.25083
     2006.66666        -2.12092         5.22789
     2006.66940         4.81082         5.32670
     2006.67197         3.89008         5.54195
     2006.67551         0.11411         7.13078
     2006.67761        -1.93395         5.41491
     2006.68035        -0.15620         5.30288
     2006.68309         6.63554         5.42903
     2006.68583         6.37329         5.50666
     2006.68856         6.97303         5.41844
     2006.69130         6.38077         5.19878
     2006.69404         5.03552         5.25612
     2006.69678         4.08926         5.14408
     2006.69952         8.52701         5.26671
     2006.70225        18.42775         5.31258
     2006.70499         2.91249         5.11938
     2006.70773         5.90824         5.14849
     2006.71047         7.40498         5.12026
     2006.71321         7.39373         5.31699
     2006.71594         3.73047         5.12291
     2006.71868         2.22722         5.01352
     2006.72142         8.57096         5.23848
     2006.72416         2.86570         5.31611
     2006.72689         3.54245         5.09644
     2006.72963        -0.68181         5.09997
     2006.73237         2.77694         5.01175
     2006.74606       312.66866         5.17672
     2006.74880       312.45040         5.09821
     2006.75154       305.03115         5.14585
     2006.75433       302.65005         5.19260
     2006.75701       309.37063         5.15820
     2006.75975       307.51138         5.20407
     2006.76249       307.77112         5.16966
     2006.76522       304.22887         5.24994
     2006.76796       306.12861         5.32140
     2006.77070       305.47335         5.15643
     2006.77344       297.74510         5.18113
     2006.77618       310.62384         5.14761
     2006.77891       311.35659         5.11673
     2006.78165       310.13933         5.08674
     2006.78439       305.01307         5.09291
     2006.78713       317.28382         5.24377
     2006.78987       316.13856         5.09027
     2006.79260       306.36131         5.07792
     2006.79534       307.45905         5.05410
     2006.79808       310.06480         5.10438
     2006.80082       306.75054         5.04175
     2006.80355       304.42728         4.93412
     2006.80629       307.76203         4.97117
     2006.80903       308.73277         4.89795
     2006.81177       310.72352         4.99146
     2006.81451       307.41226         5.09115
     2006.81724       304.51800         5.05674
     2006.81998       304.58175         5.03645
     2006.82272       305.55149         4.96764
     2006.82546       314.49824         5.08762
     2006.82820       306.13198         4.86972
     2006.83093       309.31073         4.89530
     2006.83367       311.32047         4.89177
     2006.83641       312.64321         4.99234
     2006.83915       300.97096         4.97382
     2006.84188       303.47170         5.04616
     2006.84462       311.57745         5.08497
     2006.84736       306.66219         4.95000
     2006.85010       313.83693         5.14673
     2006.85284       315.90568         5.08938
     2006.85557       314.55842         5.08850
     2006.85831       315.68917         5.01087
     2006.86105       308.19291         5.14673
     2006.86379       303.65566         5.10703
     2006.86653       317.51940         5.11850
     2006.86926       315.38414         4.91824
     2006.87200       308.86989         4.97205
     2006.87474       311.73963         5.20142
     2006.87748       312.75738         4.94294
     2006.88021       309.08412         5.00469
     2006.88295       312.57186         5.04792
     2006.88569       306.47361         4.98881
     2006.88843       309.20335         4.96941
     2006.89117       307.59110         4.96852
     2006.89390       299.96784         5.12732
     2006.89664       300.99259         5.08321
     2006.89938       304.74833         4.90942
     2006.90212       310.67807         4.95794
     2006.90485       289.04082         5.07968
     2006.90759       287.32756         4.95970
     2006.91033       294.35931         4.93765
     2006.91307       310.72605         4.96323
     2006.91581       298.01579         4.91824
     2006.91854       297.38754         4.91118
     2006.92128       301.60428         4.92000
     2006.92402       299.91603         5.00117
     2006.92676       298.70077         4.94647
     2006.92950       301.68751         4.94559
     2006.93223       299.92026         4.98705
     2006.93497       301.71200         5.19084
     2006.93771       306.76875         5.01175
     2006.94045       309.87449         5.13526
     2006.94318       305.77224         4.97029
     2006.94592       304.31698         5.02146
     2006.94866       311.24572         5.04969
     2006.95151       311.26079         5.21554
     2006.95414       307.95121         5.25877
     2006.95687       311.55096         4.97382
     2006.95961       303.44370         4.92706
     2006.96235       307.24944         4.96941
     2006.96509       306.79919         5.11056
     2006.96783       302.46793         5.08938
     2006.97056       304.42768         5.01881
     2006.97330       301.46742         5.02234
     2006.97604       300.52717         4.98176
     2006.97878       303.36891         5.10350
     2006.98151       298.16365         5.10262
     2006.98425       301.76440         5.03910
     2006.98699       300.43414         5.18995
     2006.98973       296.46689         5.16172
     2006.99247       291.21263         5.22965
     2006.99520       293.12037         5.17055
     2006.99794       298.57512         5.20319
     2007.00342       302.20961         5.23142
     2007.00616       298.14135         5.18995
     2007.00889       294.07610         5.12644
     2007.01163       301.95284         5.15467
     2007.01437       303.65358         5.19260
     2007.01711       294.66033         5.11761
     2007.01984       299.93007         5.00028
     2007.02258       292.19682         4.95088
     2007.02532       299.45656         4.98440
     2007.02806       294.84330         4.92441
     2007.03080       292.85505         4.88472
     2007.03353       287.65579         4.87148
     2007.03627       291.01754         4.84325
     2007.03901       285.50028         4.89883
     2007.04175       279.74003         5.01793
     2007.04449       293.83377         4.86001
     2007.04722       290.24651         5.00381
     2007.04996       297.27426         5.05498
     2007.05270       299.54400         5.01881
     2007.05544       293.57975         4.87854
     2007.05817       292.05549         4.95706
     2007.06091       293.62123         4.89266
     2007.06365       291.20298         4.91736
     2007.06639       295.01972         4.99323
     2007.06913       294.77847         4.86354
     2007.07186       292.61921         4.89530
     2007.07460       294.00196         4.89795
     2007.07734       292.93370         4.93412
     2007.08008       295.35844         4.88383
     2007.08282       299.95219         4.85825
     2007.08555       295.17893         5.05674
     2007.08829       295.60768         4.99323
     2007.09103       300.19042         4.94823
     2007.09377       294.79516         4.91736
     2007.09650       293.82391         4.99499
     2007.09924       291.66265         4.97117
     2007.10198       292.86240         4.92618
     2007.10472       294.98214         4.97205
     2007.10746       294.91788         4.90589
     2007.11019       296.15163         4.86707
     2007.11293       301.72537         4.97293
     2007.11567       293.68812         4.91912
     2007.11841       293.74886         4.87060
     2007.12115       294.70761         4.88824
     2007.12388       299.08435         4.93588
     2007.12662       304.25709         4.92883
     2007.12936       300.61384         5.13791
     2007.13210       302.87458         4.98881
     2007.13483       302.09333         4.91206
     2007.13757       303.58307         4.96323
     2007.14031       300.09381         4.92618
     2007.14305       304.33756         4.92618
     2007.14579       288.08130         5.08497
     2007.14852       301.85905         4.93147
     2007.15126       306.62979         4.92441
     2007.15400       304.86454         4.95970
     2007.15674       306.42828         4.93147
     2007.15948       298.44702         4.94823
     2007.16221       300.50477         5.12291
     2007.16495       302.03751         4.98087
     2007.16769       295.07626         5.03292
     2007.17043       294.22400         5.04263
     2007.17316       301.79074         5.06115
     2007.17590       302.47649         5.02322
     2007.17864       300.60523         5.08497
     2007.18138       302.73998         5.04175
     2007.18412       299.50872         4.98793
     2007.18685       303.96147         5.04351
     2007.18959       300.68121         5.02675
     2007.19233       296.11195         5.08056
     2007.19507       298.38770         4.92265
     2007.19780       297.24344         4.97029
     2007.20054       296.47319         4.98440
     2007.20328       297.28693         5.00999
     2007.20602       296.41067         4.98352
     2007.20876       300.55942         4.97293
     2007.21149       295.42416         4.93147
     2007.21423       301.74591         5.05763
     2007.21697       302.75465         4.96941
     2007.21971       302.50740         4.96058
     2007.22245       299.77814         4.96676
     2007.22518       304.70588         4.93147
     2007.22792       303.54163         4.90765
     2007.23066       302.25137         4.97735
     2007.23340       301.03712         5.00293
     2007.23613       294.83386         5.01881
     2007.23887       297.35160         4.94118
     2007.24161       298.21935         4.94294
     2007.24435       304.83109         4.92971
     2007.24709       302.84584         4.93853
     2007.24982       302.34058         4.94735
     2007.25256       295.56532         4.93500
     2007.25530       299.18107         4.94118
     2007.25804       300.05681         5.01881
     2007.26078       297.35456         5.07086
     2007.26351       303.83630         4.89707
     2007.26625       310.96805         5.03292
     2007.26899       305.80579         4.93500
     2007.27173       304.55553         5.04616
     2007.27446       304.36828         4.99499
     2007.27720       311.36602         4.95970
     2007.27994       299.86577         4.93324
     2007.28268       304.00851         5.13791
     2007.28542       304.00625         5.04969
     2007.28815       302.83800         4.95353
     2007.29089       305.63374         4.98881
     2007.29363       302.89849         4.92794
     2007.29637       298.59623         4.91647
     2007.29911       298.59898         4.99587
     2007.30184       305.71172         4.93147
     2007.30458       305.73946         4.93676
     2007.30732       306.48321         5.03204
     2007.31006       297.23295         5.09556
     2007.31279       304.29170         5.02587
     2007.31553       303.19944         4.93324
     2007.31827       304.98518         4.94470
     2007.32101       298.52793         4.98970
     2007.32375       306.82867         4.98970
     2007.32648       299.75442         4.96323
     2007.32922       303.06916         4.94470
     2007.33196       303.65491         5.14849
     2007.33470       299.35765         5.11232
     2007.33744       295.66339         4.97470
     2007.34017       297.22314         5.00117
     2007.34291       298.67888         5.02675
     2007.34565       295.58663         4.98440
     2007.34839       299.16337         5.04263
     2007.35112       297.32911         4.98617
     2007.35386       294.02386         5.34081
     2007.35660       295.41260         5.32758
     2007.35934       299.72935         5.04527
     2007.36208       297.36609         5.05410
     2007.36481       297.67684         5.08409
     2007.36755       300.79358         5.04616
     2007.37029       299.93032         5.06557
     2007.37303       304.26307         5.19701
     2007.37577       296.91881         5.22260
     2007.37850       297.42756         5.06557
     2007.38124       301.15530         5.00646
     2007.38398       299.53804         4.97293
     2007.38672       296.95479         4.99499
     2007.38945       296.43453         4.99411
     2007.39219       299.30128         5.14232
     2007.39493       301.05902         4.97911
     2007.39767       299.07177         5.02940
     2007.40041       303.61151         4.96941
     2007.40314       298.01025         5.00469
     2007.40588       297.12900         4.97382
     2007.40862       298.05374         5.00117
     2007.41136       300.67149         4.96588
     2007.41410       298.63723         5.04175
     2007.41683       301.01297         4.99234
     2007.41957       302.87272         5.03204
     2007.42231       302.77246         5.15555
     2007.42516       302.98953         5.35669
     2007.42778       310.48795         4.95264
     2007.43055       305.87678         5.01704
     2007.43326       304.60644         4.96147
     2007.43600       304.44818         5.02763
     2007.43874       305.36993         5.00999
     2007.44147       302.28367         5.06115
     2007.44421       303.92642         5.05498
     2007.44695       301.09316         5.01969
     2007.44969       297.75690         5.00028
     2007.45243       300.81965         5.00205
     2007.45516       304.52739         4.99852
     2007.45790       302.55214         4.97558
     2007.46064       306.34788         4.95970
     2007.46338       303.42262         4.96852
     2007.46611       305.86937         4.93853
     2007.46885       305.00511         4.98176
     2007.47159       304.10986         4.99675
     2007.47433       300.76660         5.02322
     2007.47707       303.00235         5.14055
     2007.47980       298.70809         4.99234
     2007.48254       296.59483         4.97029
     2007.48528       298.81158         4.98970
     2007.48802       298.74932         5.03557
     2007.49076       309.31707         5.06998
     2007.49349       302.47181         5.04704
     2007.49623       305.12155         4.95000
     2007.49897       302.14930         5.08233
     2007.50171       305.10304         5.05233
     2007.50444       294.74079         4.95970
     2007.50718       299.51253         5.00558
     2007.50992       300.96928         4.94912
     2007.51266       299.11102         5.00646
     2007.51540       302.17176         5.12467
     2007.51813       302.48951         4.95000
     2007.52087       302.66825         4.99675
     2007.52361       299.86200         5.02675
     2007.52635       308.59974         5.06027
     2007.52908       314.76348         5.16614
     2007.53182       303.34623         5.13349
     2007.53456       302.38897         5.08497
     2007.53730       316.58672         5.07968
     2007.54004       309.67446         5.15467
     2007.54277       304.33521         5.00999
     2007.54551       305.96395         5.04351
     2007.54825       303.20369         5.04616
     2007.55099       307.66144         5.11497
     2007.55373       305.53418         5.05498
     2007.55646       309.35693         5.03557
     2007.55920       309.04667         4.97293
     2007.56194       308.03141         4.95441
     2007.56468       314.20016         5.35316
     2007.56741       308.32890         5.01704
     2007.57015       308.63265         5.84807
     2007.57289       311.91539         5.06204
     2007.57563       305.05313         4.98793
     2007.57825       309.74856         5.36992
     2007.58110       306.46362         5.73162
     2007.58384       308.55637         5.25171
     2007.58658       306.38511         5.00558
     2007.58932       307.25786         4.94559
     2007.59206       314.07460         4.95000
     2007.59479       314.05734         5.14232
     2007.59753       307.38809         5.12555
     2007.60027       311.64883         4.90853
     2007.60301       310.42058         4.95353
     2007.60574       312.31232         4.93412
     2007.60848       307.00206         4.97911
     2007.61122       313.86481         5.03116
     2007.61396       305.73555         4.93235
     2007.61670       301.49630         5.27553
     2007.61943       312.50904         5.24818
     2007.62217       312.12779         5.21377
     2007.62491       306.74353         5.23936
     2007.62765       312.51127         5.17143
     2007.63039       310.97802         5.18907
     2007.63312       310.88376         4.98087
     2007.63586       308.72251         4.95353
     2007.63860       304.83025         4.97117
     2007.64134       307.14399         4.89442
     2007.64407       312.91874         5.05321
     2007.64681       305.79948         5.16878
     2007.64955       309.78323         5.14408
     2007.65229       312.74197         5.12291
     2007.65503       307.76172         5.03645
     2007.65776       310.89846         5.04880
     2007.66050       312.02620         4.98881
     2007.66324       309.75995         4.98264
     2007.66598       310.96369         4.98970
     2007.66872       306.36744         5.17496
     2007.67145       311.05318         5.18554
     2007.67419       307.79192         5.25347
     2007.67693       314.91967         5.04086
     2007.67967       312.73641         5.03469
     2007.68240       315.14816         5.01793
     2007.68514       308.14890         5.10174
     2007.68788       309.78565         5.09556
     2007.69062       311.28939         4.99411
     2007.69336       313.19413         4.95882
     2007.69609       313.05688         5.03734
     2007.69883       310.24762         5.02675
     2007.70157       311.94937         5.06998
     2007.70431       315.56211         5.13879
     2007.70705       317.44585         5.10879
     2007.70978       312.02860         5.03645
     2007.71252       311.15434         5.08938
     2007.71526       310.18709         5.05321
     2007.71800       316.50783         5.10791
     2007.72073       315.98058         5.04704
     2007.72347       317.83932         5.08586
     2007.72621       312.48206         5.01175
     2007.72895       306.30881         5.15731
     2007.73169       313.31055         5.11056
     2007.73442       310.14730         5.00558
     2007.73716       308.19204         5.19437
     2007.73990       314.51178         5.06204
     2007.74264       316.44553         5.01616
     2007.74538       311.53627         5.15820
     2007.74811       309.69302         5.17584
     2007.75085       306.74076         5.25788
     2007.75359       311.10650         5.20672
     2007.75633       321.94425         5.12555
     2007.75906       306.66899         5.04351
     2007.76180       311.65974         5.04616
     2007.76454       308.48548         5.05321
     2007.76728       307.79423         5.37433
     2007.77002       316.43897         5.46255
     2007.77275       313.74971         5.24289
     2007.77549       313.04746         5.08144
     2007.77823       310.36420         5.04704
     2007.78097       309.90095         5.02675
     2007.78371       312.42769         5.07351
     2007.78644       316.62143         5.09644
     2007.78918       315.45318         5.12291
     2007.79192       318.81092         5.18554
     2007.79466       317.52467         5.17496
     2007.79739       312.10941         5.12114
     2007.80013       320.82416         5.04880
     2007.80276       310.47558         5.16172
     2007.80561       308.35464         5.00734
     2007.80835       307.58539         5.12291
     2007.81108       316.55313         5.23318
     2007.81382       307.81788         5.06204
     2007.81656       300.08362         5.15026
     2007.81930       304.34636         5.03910
     2007.82203       300.22211         5.07792
     2007.82477       309.85685         5.18643
     2007.82751       300.64360         5.06292
     2007.83025       303.60534         5.08144
     2007.83299       306.11309         5.02234
     2007.83572       305.10683         4.96058
     2007.83846       307.02357         5.01616
     2007.84120       304.61432         5.02587
     2007.84394       297.70606         5.07527
     2007.84668       295.91881         5.00381
     2007.84941       303.46155         4.98352
     2007.85215       306.01529         5.10526
     2007.85489       308.43504         5.33816
     2007.85763       307.14478         5.16525
     2007.86036       306.72253         4.98705
     2007.86310       309.75127         5.10615
     2007.86584       311.48802         5.04086
     2007.86858       304.54176         5.00822
     2007.87132       304.09750         5.10438
     2007.87405       310.61025         5.01704
     2007.87679       311.17999         5.00205
     2007.87953       304.75074         5.08144
     2007.88227       305.12248         5.01263
     2007.88501       307.07122         5.01352
     2007.88774       297.90397         5.07792
     2007.89048       302.09371         5.02057
     2007.89322       303.54046         5.13173
     2007.89596       307.04020         5.21289
     2007.89869       306.68594         5.02675
     2007.90143       307.49869         5.06645
     2007.90417       301.90443         5.06645
     2007.90691       299.06618         5.03910
     2007.90965       298.99292         5.05145
     2007.91238       307.43367         5.04880
     2007.91512       309.81641         5.04792
     2007.91786       308.86915         5.07086
     2007.92060       303.63290         5.15643
     2007.92334       300.51564         5.14761
     2007.92607       304.71739         5.10438
     2007.92881       303.09613         5.12379
     2007.93155       304.98887         5.06645
     2007.93429       302.16962         5.11056
     2007.93702       302.85936         5.14849
     2007.93976       298.75811         5.07968
     2007.94250       306.38285         5.11232
     2007.94524       302.97060         5.20319
     2007.94798       297.60034         4.98264
     2007.95071       299.69308         4.99675
     2007.95345       310.14783         4.99499
     2007.95619       309.25957         5.00381
     2007.95893       312.76132         5.05233
     2007.96167       315.75606         4.98440
     2007.96440       306.15780         4.99411
     2007.96714       308.63255         5.01616
     2007.96988       299.16129         5.01793
     2007.97262       298.39604         5.10703
     2007.97535       300.81378         5.01969
     2007.97809       299.05153         4.99852
     2007.98083       304.82427         4.99234
     2007.98357       308.43901         4.91383
     2007.98631       304.69476         5.10703
     2007.98904       301.29750         5.11320
     2007.99178       306.07525         5.02763
     2007.99452       308.85499         5.08409
     2007.99726       298.22273         4.93941
     2008.00000       295.48848         4.97117
     2008.00273       296.72522         4.94647
     2008.00547       308.36397         4.91206
     2008.00821       312.61971         5.06115
     2008.01095       314.78646         4.96588
     2008.01368       307.18120         4.94912
     2008.01642       302.39594         5.03292
     2008.01916       305.63769         4.97558
     2008.02144       309.80514         5.97864
