# ================= DQRFIT RESULTS ================
# INPUT FILE: series/P061.rad
# OUTPUT: LDETRENDED
# FILTER FUNCTION: f(t)
# f(t)=+line(t)+annual(t)
# line(t)=+P 1+P 2*t
# annual(t)=+P 3*sin(2*pi*t+P 4)
# heav(t)=(t<0?0:1)
# TOTAL OBSERVATIONS MTOT= 3520
# INITIAL TIME INTERVAL= 2016.6899 - 2006.3025 = 10.3874
# TOTAL OBSERVATIONS AFTER PREFILTER M= 3517
# TIME-SPAN= 2016.6899 - 2006.3025 = 10.3874
# OBSERVATIONS: USED M=  3517 REJECTED MTOT-M=     3 %USED=   99.9148
# N=  4 PARAMETERS
# MAXSIG= 175.00000
# MAXRES=  17.58277
# SCALE FACTOR FOR LENGTHS: SCL=  10.00000
# SCALE FACTOR FOR SIGMAS: SCLSIG=   1.00000
# CHI^2=   2800.050 DOF=  3513 CHI^2/DOF=   0.79705
# RMS=      5.196 SDEV=      5.197 MEAN=    0.03500
#  P #       PARAMETER +-    SIGMA %error PARAMETER NAME
# P 1 =      -641.33272 +-   62.194   9.70 YZERO                              
# P 2 =         0.31945 +-    0.031   9.68 SLOPE                              
# P 3 =         3.73096 +-    0.125   3.35 ANNUAL AMPLITUDE                   
# P 4 =        -2.98104 +-    0.047   1.57 ANNUAL PHASE                       
#       T            LDETRENDED       SIG_OBS
     2006.30253        -6.21340         5.14508
     2006.30527         1.27873         5.12187
     2006.30800         7.56185         5.16473
     2006.31074         1.59398         5.11919
     2006.31348         2.89010         5.22901
     2006.31622         3.11223         5.10402
     2006.32169        -2.86252         5.22454
     2006.32443         2.39461         5.14687
     2006.32717         3.22273         5.14955
     2006.32991        -2.92314         5.09509
     2006.33264        -0.18302         5.09687
     2006.33538        -0.11789         5.15133
     2006.33812         3.15223         5.14241
     2006.34086         2.12836         5.13526
     2006.34360         8.93548         5.13973
     2006.34633         4.63561         5.21740
     2006.34907        -2.25027         5.11027
     2006.35181        -1.75014         5.23258
     2006.35455         0.98199         5.13437
     2006.35728        -5.13089         5.17008
     2006.36002         3.15624         5.18794
     2006.36276        -0.03364         5.15580
     2006.36550        -4.64951         5.15848
     2006.36824        -2.77139         5.21561
     2006.37097        -1.42126         5.43702
     2006.37371        -1.78214         5.28257
     2006.37645         9.17199         5.20044
     2006.37919         5.69511         5.26918
     2006.38193         1.46324         5.23704
     2006.38466        15.00136         5.37274
     2006.38740         1.73349         5.30936
     2006.39014         6.28862         5.29686
     2006.39288         1.22974         5.33525
     2006.39561        -1.24913         5.44863
     2006.39835        -3.04301         5.39595
     2006.40109        -3.73788         5.24686
     2006.40383        -3.36076         5.28436
     2006.40657         4.22437         5.28882
     2006.40930        -2.03851         5.34060
     2006.41204        -3.60138         5.37096
     2006.41478        -4.00826         5.36024
     2006.41752         5.47487         5.64504
     2006.42026         8.74100         5.61111
     2006.42299         3.05912         5.57005
     2006.42573         7.24425         5.32989
     2006.42847         5.28037         5.40845
     2006.43121        -2.40450         5.39417
     2006.43394         0.19362         5.27186
     2006.43668         0.14675         5.24240
     2006.43942         2.24887         5.23168
     2006.44216         1.72500         5.31828
     2006.44490         1.66612         5.24150
     2006.44763         5.95325         5.27722
     2006.45037         4.92737         5.30936
     2006.45311         2.43150         5.23883
     2006.45585         9.90463         5.38792
     2006.45859         3.01575         5.23972
     2006.46132         6.42288         5.40220
     2006.46406         4.15900         5.37185
     2006.46680         5.14313         5.35667
     2006.46954         6.77525         5.34864
     2006.47227         3.66638         5.38792
     2006.47501         6.75650         5.40399
     2006.47775         1.52063         5.39417
     2006.48049        -1.88625         5.30043
     2006.48323         2.44388         5.38346
     2006.48596         9.17600         5.44684
     2006.48870         4.53013         5.46559
     2006.49144         3.97326         5.48613
     2006.49418         3.41138         5.36381
     2006.49692         7.52051         5.30936
     2006.49965        -0.49737         5.33078
     2006.50239        -1.55524         5.31828
     2006.50513        -3.92012         5.43256
     2006.50787         1.41101         5.33614
     2006.51060        -2.14987         5.26115
     2006.51334        -1.89374         5.41560
     2006.51608         1.87138         5.34328
     2006.51882         0.65151         5.35667
     2006.52156        -2.00536         5.37721
     2006.52429         5.38376         5.36739
     2006.52703         8.82589         5.37721
     2006.52977         9.80801         5.31918
     2006.53251        -0.60986         5.39060
     2006.53525         2.63026         5.32632
     2006.53798         8.26539         5.33525
     2006.54072         1.25651         5.42274
     2006.54346         5.36464         5.20311
     2006.54620        -1.44524         5.13973
     2006.54893         3.47689         5.27097
     2006.55167         4.40301         5.26650
     2006.55441         5.05914         5.23972
     2006.55715         3.63327         5.16205
     2006.55989         9.00639         5.20401
     2006.56262         7.03152         5.25311
     2006.56536         5.67164         5.18883
     2006.56810         1.02877         5.22097
     2006.57084        10.36889         5.25757
     2006.57357        -1.30998         5.17812
     2006.57631        -1.15886         5.19062
     2006.57905         1.83827         5.12812
     2006.58179         3.25539         5.19687
     2006.58453         5.30652         5.40845
     2006.58726         6.11964         5.29864
     2006.59000         6.24377         5.45577
     2006.59274        -2.04110         5.38613
     2006.59548        -2.37598         5.33078
     2006.59822         6.15115         5.45399
     2006.60095         0.67627         5.25668
     2006.60369         0.75440         5.26829
     2006.60643        -1.93248         5.15044
     2006.60917        -0.36135         5.20133
     2006.61190         2.00777         5.19776
     2006.61464         5.87390         5.15758
     2006.61738         3.50102         5.21472
     2006.62012         1.56415         5.28346
     2006.62286         0.27928         5.18347
     2006.62559        -0.19860         5.15044
     2006.62833         4.11153         5.24597
     2006.63107         0.59865         5.15490
     2006.63381         8.74178         5.27097
     2006.63655         0.36990         5.27900
     2006.63928         1.73903         5.25311
     2006.64202         5.68715         5.27275
     2006.64476        -1.40272         5.23793
     2006.64750         9.94940         5.44863
     2006.65023         7.06253         5.53344
     2006.65297         4.54465         5.54148
     2006.65571         1.24978         5.48166
     2006.65845         0.76591         5.56558
     2006.66119         5.00203         5.50220
     2006.66392         4.67216         5.55576
     2006.66666         5.57128         5.59326
     2006.66940         1.87541         5.44952
     2006.67214        -2.00447         5.44863
     2006.67488         3.38266         5.56469
     2006.67761         0.58078         5.69236
     2006.68035        -0.39009         5.52630
     2006.68309        10.31003         5.74057
     2006.68583         3.21716         5.63165
     2006.68856        10.99028         5.62094
     2006.69130         3.26641         5.42452
     2006.69404         3.77954         5.40845
     2006.69678         1.03366         5.37453
     2006.69952         9.62779         5.36917
     2006.70225         3.74491         5.61379
     2006.70499        -0.56196         5.44595
     2006.70773         4.11016         5.26918
     2006.71047         3.81729         5.31560
     2006.71321         3.01741         5.50309
     2006.71594         7.66954         5.31471
     2006.71868        -0.02834         5.24597
     2006.72142        11.65879         5.42006
     2006.72416         7.02592         5.49505
     2006.72689         8.13904         5.36471
     2006.72963         8.12417         5.36739
     2006.73237         5.72329         5.20311
     2006.73511         4.98842         5.30757
     2006.73785        -1.21446         5.29418
     2006.74058         5.48867         5.33346
     2006.74332         8.46579         5.32632
     2006.74606        10.03692         5.26918
     2006.74880         5.22904         5.29061
     2006.75154         6.04017         5.51916
     2006.75427        -2.83971         5.50309
     2006.75701         6.88942         5.27097
     2006.75975         7.65255         5.32632
     2006.76249        -1.60433         5.54058
     2006.76522         3.83980         5.37274
     2006.76796         2.50092         5.57273
     2006.77070         5.56205         5.39506
     2006.77344         4.66217         5.27186
     2006.77618         0.78330         5.24329
     2006.77891         6.28842         5.22901
     2006.78165         5.32355         5.19954
     2006.78439         3.74567         5.26025
     2006.78713         9.91980         5.48077
     2006.78987         3.00292         5.32275
     2006.79260         7.17605         5.19240
     2006.79534         2.53718         5.36114
     2006.79808         7.09030         5.24775
     2006.80082        -0.04257         5.41917
     2006.80355         0.42655         5.27186
     2006.80629         4.23468         5.24508
     2006.80903         3.76180         5.27543
     2006.81177         3.61393         5.29864
     2006.81451         2.41405         5.40042
     2006.81724         0.80418         5.37364
     2006.81998        -0.05870         5.19419
     2006.82272         2.29543         5.18347
     2006.82546         4.76356         5.21472
     2006.82820         6.39068         5.19062
     2006.83093         4.03981         5.16383
     2006.83367         6.48593         5.24061
     2006.83641         5.98306         5.31650
     2006.83915        -1.24282         5.36381
     2006.84188         3.68431         5.55308
     2006.84462         3.51643         5.33525
     2006.84736         4.19856         5.32543
     2006.85010         4.96468         5.50755
     2006.85284        -1.24019         5.49059
     2006.85557         8.17993         5.53344
     2006.85831         4.61506         5.48523
     2006.86105         1.01819         5.71111
     2006.86379        -4.42569         5.53880
     2006.86653        -6.74056         5.47630
     2006.86926         4.40456         5.21383
     2006.87200         5.44669         5.24775
     2006.87474         2.59481         5.23883
     2006.87748         1.00794         5.18347
     2006.88021        -6.41494         5.09152
     2006.88295        -5.21781         5.31382
     2006.88569        -0.41069         5.30400
     2006.88843         1.31544         5.28436
     2006.89117        -3.42644         5.28436
     2006.89390        -9.70731         5.31828
     2006.89664        -0.73518         5.26650
     2006.89938        -3.25006         5.21294
     2006.90212         1.37807         5.29507
     2006.90485        -2.70981         5.30489
     2006.90759        -2.80068         5.21115
     2006.91033        -2.72056         5.18883
     2006.91307         1.69257         5.23525
     2006.91581        -7.71131         5.25579
     2006.91854        -8.60118         5.23525
     2006.92128        -5.25206         5.26204
     2006.92402        -6.83093         5.14062
     2006.92676        -3.62680         5.20758
     2006.92950        -0.60668         5.25668
     2006.93223        -2.40955         5.26382
     2006.93497         2.87257         5.55398
     2006.93771         5.29370         5.28525
     2006.94045         9.34882         5.40042
     2006.94318         0.24195         5.31471
     2006.94592        -7.56593         5.28882
     2006.94866         9.96420         5.32185
     2006.95140         7.79332         5.50934
     2006.95414         2.17745         5.42631
     2006.95687        -0.91243         5.30221
     2006.95961        -0.00830         5.26739
     2006.96235         0.30583         5.17990
     2006.96509        -3.76405         5.29686
     2006.96783         1.48508         5.34507
     2006.97056        -3.55580         5.27543
     2006.97330        -6.73567         5.33257
     2006.97604        -1.88355         5.31114
     2006.97878         2.83758         5.34417
     2006.98151        -7.33130         5.22097
     2006.98425         3.77883         5.43613
     2006.98699       -11.06605         5.51202
     2006.98973        -3.13192         5.39149
     2006.99247        -8.32780         5.56826
     2006.99520        -0.62367         5.38435
     2006.99794        -1.78454         5.33078
     2007.00342         0.69671         5.51023
     2007.00616        -0.37317         5.34953
     2007.00889        -2.68904         5.24150
     2007.01163        -0.15192         5.31293
     2007.01437        -0.79879         5.28436
     2007.01711       -13.21167         5.21829
     2007.01984        -9.42354         5.21115
     2007.02258        -3.76642         5.11473
     2007.02532        -0.04229         5.17455
     2007.02806        -7.80516         5.22722
     2007.03080        -9.87504         5.05134
     2007.03353       -12.37691         4.95581
     2007.03627        -8.23579         4.97099
     2007.03901        -9.92566         4.96117
     2007.04175       -10.26354         5.16383
     2007.04449       -10.30841         4.96742
     2007.04722        -9.80829         5.11294
     2007.04996       -12.72816         5.19687
     2007.05270        -5.32004         5.16830
     2007.05544        -4.87191         4.94957
     2007.05817        -9.56579         4.97188
     2007.06091        -6.29866         4.94421
     2007.06365        -7.20353         4.97099
     2007.06639        -7.32741         5.05581
     2007.06913        -6.84728         4.90046
     2007.07186         0.21084         4.92457
     2007.07460        -2.81703         4.91832
     2007.07734        -4.24391         4.90850
     2007.08008        -8.53778         4.90493
     2007.08282        -4.10866         4.89868
     2007.08555         0.16747         4.99063
     2007.08829        -2.32841         5.01920
     2007.09103        -2.76428         5.03527
     2007.09377        -2.83616         5.06027
     2007.09650        -7.24303         5.05581
     2007.09924        -7.26590         4.99331
     2007.10198        -2.04478         4.96117
     2007.10472        -4.40265         5.11294
     2007.10746        -1.64653         5.14241
     2007.11019        -8.38840         4.97456
     2007.11293        -3.82528         4.99063
     2007.11567        -9.87915         4.94421
     2007.11841        -0.34903         4.97367
     2007.12115        -4.05790         4.95939
     2007.12388        -5.09978         4.95314
     2007.12662        -2.14865         5.00849
     2007.12936        -2.68552         5.13616
     2007.13210        -7.71640         5.05402
     2007.13483        -4.93427         4.97456
     2007.13757         0.00785         5.03349
     2007.14031        -1.30202         5.05581
     2007.14305        -4.90390         5.07813
     2007.14579        -7.92377         5.13526
     2007.14852        -7.44665         5.14151
     2007.15126        -0.55852         5.12187
     2007.15400        -1.17940         5.07634
     2007.15674        -4.25227         5.03527
     2007.15948        -6.13415         5.01474
     2007.16221        -3.91602         5.21026
     2007.16495        -3.75389         5.14776
     2007.16769        -5.68177         5.08973
     2007.17043        -2.44464         5.07902
     2007.17316         0.71548         5.21918
     2007.17590        -0.64839         5.19062
     2007.17864         9.14873         5.33346
     2007.18138        -6.43714         5.08616
     2007.18412         2.05598         5.15937
     2007.18685         1.17811         5.25490
     2007.18959       -12.30377         5.21561
     2007.19233        -7.37764         5.27900
     2007.19507        -3.35752         4.95314
     2007.19780        -2.29439         5.16740
     2007.20054        -7.67226         5.17901
     2007.20328        -3.62714         5.13973
     2007.20602         1.59099         5.05223
     2007.20876        -2.37789         5.10491
     2007.21149       -11.84976         5.08884
     2007.21423       -10.18964         5.13883
     2007.21697        -1.89351         5.18258
     2007.21971         1.43661         4.99242
     2007.22245        -3.88926         5.02902
     2007.22518         5.24486         5.13616
     2007.22792        -0.59401         5.08438
     2007.23066        -5.95888         5.03081
     2007.23340        -2.90376         5.16026
     2007.23613        -8.60163         5.08973
     2007.23887        -2.27951         4.96117
     2007.24161        -5.70438         5.08080
     2007.24435        -0.42226         5.05581
     2007.24709         1.27887         5.06295
     2007.24982        -0.11801         4.96831
     2007.25256        -1.31688         5.07634
     2007.25530        -4.90576         5.03349
     2007.25804        -4.80663         5.17812
     2007.26078        -7.12051         5.06920
     2007.26351         2.27662         5.09152
     2007.26625         9.41675         5.05670
     2007.26899         8.24287         5.09598
     2007.27173         3.95000         5.12634
     2007.27446         9.25412         5.04152
     2007.27720         5.29225         5.00938
     2007.27994         2.11937         5.01385
     2007.28268         5.11750         5.02992
     2007.28542         2.29462         4.98617
     2007.28815         3.88075         5.19687
     2007.29089         3.54087         5.02634
     2007.29363         1.37300         4.97813
     2007.29637        -0.29688         5.05759
     2007.29911         2.43725         4.98260
     2007.30184         4.70738         5.08973
     2007.30458         5.61250         4.99153
     2007.30732         6.78763         5.11116
     2007.31006         1.18575         5.13883
     2007.31279         0.32888         5.08795
     2007.31553         3.20900         5.00849
     2007.31827         2.01913         5.05670
     2007.32101        -2.26875         4.96296
     2007.32375        -3.17162         4.99778
     2007.32648         1.75150         5.02188
     2007.32922         4.61663         5.00938
     2007.33196        -4.50924         5.34239
     2007.33470        -4.84612         5.15401
     2007.33744        -3.21099         5.06741
     2007.34017        -0.98587         5.03081
     2007.34291        -3.52874         5.03081
     2007.34565        -1.28362         5.01742
     2007.34839         0.71551         5.02992
     2007.35112         5.24963         4.97546
     2007.35386        -4.71524         5.34685
     2007.35660        -6.75012         5.32096
     2007.35934         0.06301         4.98974
     2007.36208        -2.72287         5.09330
     2007.36481         0.93226         5.12098
     2007.36755        -2.72361         5.08616
     2007.37029         0.98151         5.14508
     2007.37303         3.23164         5.19062
     2007.37577        -3.81624         5.21740
     2007.37850        -7.44111         5.11741
     2007.38124        -0.70399         5.07009
     2007.38398        -2.39686         5.08080
     2007.38672        -4.17074         5.07545
     2007.38945        -4.11361         5.13169
     2007.39219       -12.86149         5.19954
     2007.39493        -2.93736         5.08080
     2007.39767        -2.59224         4.98617
     2007.40041         1.77389         5.18347
     2007.40314         0.06402         5.00402
     2007.40588        -2.59286         5.02545
     2007.40862        -6.99173         5.12544
     2007.41136        -8.08161         5.00224
     2007.41410        -0.49548         5.01385
     2007.41683        -0.09336         5.01027
     2007.41957         2.32377         5.42452
     2007.42231        -6.90311         5.23168
     2007.42505        -8.23198         5.22633
     2007.42778         1.72314         4.96385
     2007.43052         0.61327         5.01831
     2007.43326         0.26640         4.97724
     2007.43600       -10.56248         5.19687
     2007.43874        -2.88835         5.05134
     2007.44147        -5.10023         5.10759
     2007.44421        -8.92610         5.20758
     2007.44695        -8.52198         5.04331
     2007.44969        -5.29585         5.07634
     2007.45243        -6.84473         5.01563
     2007.45516        -5.66060         4.96117
     2007.45790        -1.85048         4.99420
     2007.46064        -0.12135         5.04956
     2007.46338        -1.94923         5.01652
     2007.46611        -7.83010         5.00135
     2007.46885         1.87703         4.95671
     2007.47159        -0.90085         5.03795
     2007.47433        -8.83372         5.01117
     2007.47707       -10.54960         5.09955
     2007.47980       -11.60747         4.97813
     2007.48254        -9.77835         5.03527
     2007.48528        -7.40522         5.01563
     2007.48802        -6.51010         5.11830
     2007.49076        -2.63197         5.04777
     2007.49349        -5.53885         5.04866
     2007.49623         0.28028         5.00849
     2007.49897         6.48740         5.08348
     2007.50171        -6.86647         5.03349
     2007.50444       -10.17634         5.05491
     2007.50718         2.04678         5.03438
     2007.50992        -2.97009         4.98260
     2007.51266        -5.07797         4.98885
     2007.51540         5.08916         5.12455
     2007.51813         4.13128         5.08795
     2007.52087        -1.04759         5.06027
     2007.52361         9.55853         5.20133
     2007.52635         6.03566         5.12544
     2007.52908        -0.17322         5.03706
     2007.53182        -0.02709         5.19687
     2007.53456         2.02804         5.27364
     2007.53730         6.92116         5.06473
     2007.54004         2.58929         5.21294
     2007.54277         0.82041         5.10312
     2007.54551         1.62154         5.07813
     2007.54825         3.91866         5.25936
     2007.55099         7.09079         5.20222
     2007.55373         2.32591         5.06831
     2007.55646         4.42804         5.22097
     2007.55920         9.27316         5.11116
     2007.56194         7.00829         5.18080
     2007.56468         6.46241         5.17812
     2007.56741         7.39654         5.05670
     2007.57015         5.87367         5.18972
     2007.57289         5.54179         5.07455
     2007.57563         6.06092         5.09062
     2007.57837        -3.06596         5.14330
     2007.58110         0.83517         5.19865
     2007.58384        10.12729         5.13794
     2007.58658         4.64342         5.05938
     2007.58932         6.14954         5.09955
     2007.59206         8.17967         5.15669
     2007.59479         5.59779         5.29418
     2007.59753         5.03292         5.24597
     2007.60027         0.46604         5.25936
     2007.60301        16.68517         5.14508
     2007.60574         7.55430         5.12187
     2007.60848         1.33142         5.18526
     2007.61122         6.66455         5.30400
     2007.61396         4.46367         5.15044
     2007.61670         5.95280         5.49595
     2007.61943        13.77992         5.40220
     2007.62217         5.42805         5.41202
     2007.62491         6.31117         5.42631
     2007.62765         7.61730         5.46559
     2007.63039         5.08142         5.43970
     2007.63312        12.47255         5.24061
     2007.63586        12.54467         5.34774
     2007.63860         5.21780         5.32364
     2007.64134         9.72593         5.18347
     2007.64407        17.58405         5.47363
     2007.64681        11.49018         5.34239
     2007.64955         4.07230         5.42452
     2007.65229         8.18443         5.44684
     2007.65503         5.79255         5.30936
     2007.65776         4.99468         5.24508
     2007.66050         9.24080         5.45309
     2007.66324         8.82593         5.35221
     2007.66598        12.02105         5.35489
     2007.66872        13.18718         5.37810
     2007.67145         7.13331         5.33525
     2007.67419        11.24443         5.73343
     2007.67693        14.59156         5.20401
     2007.67967         9.03868         5.32453
     2007.68240        12.25781         5.44863
     2007.68514        12.82293         5.41649
     2007.68788        16.18406         5.28525
     2007.69062        13.62118         5.25132
     2007.69336        10.28431         5.24597
     2007.69609        10.48743         5.25400
     2007.69883         9.21356         5.40131
     2007.70157        10.00268         5.21294
     2007.70431        17.38481         5.40310
     2007.70705        16.20394         5.32096
     2007.70978        14.43906         5.30846
     2007.71252         9.85719         5.21918
     2007.71526        17.96831         5.10402
     2007.71800        21.06144         5.11741
     2007.72073        12.42456         5.17365
     2007.72347        16.41869         5.22722
     2007.72621        16.05581         5.06563
     2007.72895        10.70794         5.09687
     2007.73169         9.05406         5.19508
     2007.73442        11.80219         5.12366
     2007.73716         9.16931         5.25400
     2007.73990        15.97044         5.24418
     2007.74264        13.02357         5.09687
     2007.74538        12.64769         5.14062
     2007.74811        12.57082         5.18526
     2007.75085        11.84494         5.32185
     2007.75359        12.70207         5.38346
     2007.75633        16.80919         5.18972
     2007.75906        16.04032         5.11027
     2007.76180        13.56944         5.10491
     2007.76454         7.83057         5.06563
     2007.76728        10.09469         5.40667
     2007.77002        10.18482         5.71557
     2007.77275        10.96295         5.60397
     2007.77549        10.25407         5.17633
     2007.77823        17.66920         5.15580
     2007.78097        15.96432         5.08616
     2007.78371        13.62245         5.15490
     2007.78644         9.70557         5.25936
     2007.78918        14.68270         5.25579
     2007.79192        17.71082         5.27543
     2007.79739        12.06007         5.48255
     2007.80013         5.84120         5.21383
     2007.80287        12.06832         5.14687
     2007.80561         7.32045         5.14062
     2007.80835        11.88758         5.21829
     2007.81108        12.37370         5.27364
     2007.81382        16.35083         5.40042
     2007.81656         2.45695         5.32275
     2007.81930        11.10008         5.21561
     2007.82203         8.70820         5.18347
     2007.82477         7.26033         5.22543
     2007.82751         7.40845         5.23883
     2007.83025         4.97358         5.20222
     2007.83299         4.16270         5.02277
     2007.83572         6.14383         5.07188
     2007.83846         7.19695         5.10312
     2007.84120         8.94808         5.22543
     2007.84394         0.95521         5.14062
     2007.84668         5.70433         5.15490
     2007.84941         2.73846         5.13437
     2007.85215         7.43458         5.40845
     2007.85489         0.01971         5.50309
     2007.85763         8.49683         5.34060
     2007.86036         2.27596         5.30311
     2007.86310         7.55408         5.36739
     2007.86584         8.91621         5.24240
     2007.86858         4.58133         5.25847
     2007.87132         3.36546         5.30668
     2007.87405         5.22259         5.30043
     2007.87679         7.81171         5.22722
     2007.87953         5.17684         5.14598
     2007.88227         1.70596         5.18972
     2007.88501         4.28109         5.11919
     2007.88774         0.69121         5.16830
     2007.89048        -0.46366         5.12812
     2007.89322         3.19646         5.23883
     2007.89596         5.51559         5.30489
     2007.89869         3.32871         5.15401
     2007.90143        -4.40216         5.22543
     2007.90417        -2.04704         5.26918
     2007.90691        -0.14491         5.18169
     2007.90965        -6.18678         5.25668
     2007.91238         5.48334         5.22990
     2007.91512         3.73547         5.21651
     2007.91786         0.40759         5.18883
     2007.92060        -7.14828         5.31382
     2007.92334         3.29184         5.29775
     2007.92607         6.84197         5.18347
     2007.92881        -1.75291         5.46291
     2007.93155         3.33222         5.21026
     2007.93429         2.25934         5.23615
     2007.93702         1.75547         5.25490
     2007.93976         5.02559         5.23347
     2007.94250         2.66572         5.19508
     2007.94524         5.21485         5.39685
     2007.94798        -1.51003         5.29953
     2007.95071         5.57110         5.30311
     2007.95345        -0.65378         5.36560
     2007.95619         8.15035         5.26561
     2007.95893        14.86347         5.29596
     2007.96167        12.52060         5.41560
     2007.96440         7.45872         5.30489
     2007.96714         4.43385         5.36828
     2007.96988        -4.53103         5.37006
     2007.97262         0.84610         5.33525
     2007.97535         1.56323         5.32543
     2007.97809        -2.22265         5.31293
     2007.98083         6.67148         5.31828
     2007.98357         2.31660         5.28079
     2007.98631         2.23373         5.44863
     2007.98904         5.49885         5.39595
     2007.99178         3.72798         5.33882
     2007.99452         2.31510         5.32989
     2007.99726         7.04223         5.20044
     2008.00000        -8.60865         5.18794
     2008.00273        -9.17252         5.26382
     2008.00547        11.18160         5.23883
     2008.00821        12.67473         5.38792
     2008.01095         5.96786         5.23079
     2008.01368        -2.11802         5.21115
     2008.01642        -3.69889         5.18794
     2008.01916         3.40423         5.20758
     2008.02190         0.12436         5.22901
     2008.02464        10.41948         5.26561
     2008.02737         0.99161         5.19865
     2008.03011        -1.18827         5.34239
     2008.03285        -7.48414         5.10491
     2008.03559        -1.81602         5.27275
     2008.03833        -5.56789         5.16383
     2008.04106        -6.59077         5.25132
     2008.04380        -2.14664         5.22722
     2008.04654        -3.96851         5.17633
     2008.04928        -3.06539         5.07813
     2008.05201        -6.82726         5.09062
     2008.05475         3.43286         5.09330
     2008.05749        -4.31401         5.13616
     2008.06023         0.93411         5.11384
     2008.06297         5.79624         5.06295
     2008.06570        -0.05664         5.04688
     2008.06844         1.74649         5.07723
     2008.07118         2.95861         5.07634
     2008.07392        -0.47426         5.03349
     2008.07666         7.48687         5.37006
     2008.07939        -0.92001         5.31025
     2008.08213        -2.41288         5.14330
     2008.08487        -1.43276         5.15312
     2008.08761        -1.23763         5.11027
     2008.09034        -2.71951         5.14330
     2008.09308        -2.00138         5.13526
     2008.09582         0.47274         5.26025
     2008.09856        -0.92113         5.34774
     2008.10130         8.14199         5.30221
     2008.10403        -3.51088         5.14062
     2008.10677        -3.40176         5.10580
     2008.10951        -4.66663         5.17455
     2008.11225        -1.24550         5.06206
     2008.11498        -0.44838         5.11205
     2008.11772         2.64475         5.11205
     2008.12046         0.84587         5.07545
     2008.12320         1.93500         5.18704
     2008.12594         0.60312         5.09598
     2008.12867         1.10125         5.12187
     2008.13141         4.61137         5.13973
     2008.13415         5.29150         5.18080
     2008.13689         5.42262         5.13973
     2008.13963        10.44875         5.10402
     2008.14236         5.46487         5.14241
     2008.14510         7.09300         5.11205
     2008.14784         4.91113         5.11116
     2008.15058        -0.84575         5.13616
     2008.15331        -2.26962         5.11027
     2008.15605        -1.40950         5.12098
     2008.15879        -1.66537         5.12098
     2008.16153        -6.36525         5.17365
     2008.16427        -2.88112         5.20490
     2008.16700        -5.22700         5.11652
     2008.16974        -2.83487         5.14062
     2008.17248        -3.24675         5.12723
     2008.17522        -5.55962         5.23883
     2008.17796        -6.45049         5.17276
     2008.18069        -6.82137         5.14776
     2008.18343        -1.75924         5.25847
     2008.18617         2.74888         5.08705
     2008.18891        -3.04599         5.23883
     2008.19164        -2.88687         5.18972
     2008.19438        -8.47374         5.17008
     2008.19712        -0.95162         5.15669
     2008.19986         7.52551         5.20847
     2008.20260         0.80363         5.15490
     2008.20533        -0.43524         5.12366
     2008.20807        -1.19112         5.45577
     2008.21081         5.54701         5.37899
     2008.21355         1.38914         5.30400
     2008.21629         6.22626         5.24508
     2008.21902        -2.78661         5.33167
     2008.22176        -4.82849         5.26918
     2008.22450        -6.63236         5.34953
     2008.22724         1.77576         5.30311
     2008.22997         3.89689         5.42899
     2008.23271         8.83801         5.39149
     2008.23545        -4.70086         5.31739
     2008.23819         0.35526         5.30578
     2008.24093        -3.34161         5.25936
     2008.24366        -1.22549         5.25132
     2008.24640         1.76464         5.21740
     2008.24914         2.08077         5.15669
     2008.25188         2.33189         5.35132
     2008.25462         4.19902         5.23883
     2008.25735        -1.54886         5.21204
     2008.26009         4.68527         5.25043
     2008.26283         0.82239         5.25222
     2008.26557         1.76152         5.20401
     2008.26830         1.10864         5.22276
     2008.27104         1.14577         5.18883
     2008.27378        -3.57711         5.18258
     2008.27652         0.10702         5.24954
     2008.27926         5.97215         5.29329
     2008.28199         3.48527         5.23347
     2008.28473         3.02740         5.27364
     2008.28747         3.76352         5.35935
     2008.29021         5.84365         5.33346
     2008.29295         4.68677         5.28614
     2008.29568         3.17290         5.27275
     2008.29842         1.00802         5.20311
     2008.30116        -5.82585         5.34239
     2008.30390         0.81027         5.23972
     2008.30663         0.85840         5.25579
     2008.30937         1.90352         5.46916
     2008.31211         2.53265         5.36828
     2008.31485        -2.40022         5.23347
     2008.31759        -3.96310         5.37185
     2008.32032         4.09203         5.48434
     2008.32306         1.11915         5.41649
     2008.32580        -3.63272         5.59951
     2008.32854        -3.04460         5.28614
     2008.33128        -7.40947         5.27097
     2008.33401         2.77365         5.31828
     2008.33675        -0.07122         5.21204
     2008.33949         4.71990         5.32721
     2008.34223        -2.25497         5.34150
     2008.34496        -0.41685         5.31382
     2008.34770         1.70728         5.30757
     2008.35044         0.84841         5.20401
     2008.35318         4.88053         5.21918
     2008.35592         2.19466         5.30132
     2008.35865         2.49578         5.24597
     2008.36139         2.08891         5.24418
     2008.36413         5.93403         5.20222
     2008.36687        -2.62884         5.21829
     2008.36961        -2.61172         5.22633
     2008.37234         1.09441         5.24508
     2008.37508         0.18253         5.26293
     2008.37782        -5.35634         5.29239
     2008.38056         1.03579         5.22276
     2008.38329        -3.07109         5.23525
     2008.38603        -1.69296         5.19151
     2008.38877        -0.74884         5.30221
     2008.39151         1.07629         5.38881
     2008.39425         2.40341         5.17365
     2008.39698         2.70254         5.15848
     2008.39972         5.59466         5.16115
     2008.40246         2.96079         5.21829
     2008.40520         4.18391         5.20222
     2008.40794         1.91804         5.19954
     2008.41067         4.39316         5.13973
     2008.41341        -1.71471         5.15401
     2008.41615        -0.34158         5.13348
     2008.41889        -3.74046         5.19151
     2008.42162       -10.17833         5.30936
     2008.42436        -2.24621         5.14955
     2008.42710         0.73592         5.12723
     2008.42984        -1.97196         5.23793
     2008.43258         3.01217         5.33703
     2008.43531         0.63029         5.30221
     2008.43805        -4.52458         5.47541
     2008.44079        -5.51446         5.14241
     2008.44353        -7.83833         5.13259
     2008.44626        -5.13221         5.24240
     2008.44900        -4.88208         5.13883
     2008.45174        -4.70995         5.29686
     2008.45448        -1.97783         5.23883
     2008.45722        -0.54070         5.09598
     2008.45995        -3.12058         5.06920
     2008.46269        -6.31445         5.09152
     2008.46543        -5.81433         5.16740
     2008.46817         0.25080         5.19240
     2008.47091         2.36992         5.21294
     2008.47364        -2.24895         5.08616
     2008.47638         3.44317         5.13973
     2008.47912        -5.48770         5.09866
     2008.48186         0.13043         5.21918
     2008.48459        -0.26145         5.17812
     2008.48733         0.22868         5.10491
     2008.49007        -8.70620         5.09152
     2008.49281         1.69293         5.24508
     2008.49555        -5.18495         5.17276
     2008.49828        -0.48782         5.10491
     2008.50102        -3.28770         5.34596
     2008.50376         1.15243         5.10402
     2008.50650         1.86555         5.29150
     2008.50924        11.43168         5.17544
     2008.51197        -0.77320         5.09152
     2008.51471        -5.68407         5.09687
     2008.51745         5.79006         5.07902
     2008.52019        12.71818         5.16651
     2008.52292         4.29931         5.33257
     2008.52566        -0.59857         5.29775
     2008.52840        -0.38544         5.06116
     2008.53114         8.87468         5.11473
     2008.53388         3.23281         5.13973
     2008.53661        -0.59907         5.16562
     2008.53935         2.28506         5.12009
     2008.54209        -0.37882         5.08973
     2008.54483         7.22831         5.25668
     2008.54757         3.76943         5.24865
     2008.55030        11.14356         5.12544
     2008.55304         5.87969         5.20936
     2008.55578         4.01881         5.20222
     2008.55852         4.55694         5.16205
     2008.56125        -3.57894         5.09598
     2008.56399         9.29319         5.11919
     2008.56673         2.99431         5.07634
     2008.56947         5.66244         5.09420
     2008.57221        13.18856         5.32810
     2008.57494         8.51669         5.49773
     2008.57768         7.47681         5.25490
     2008.58042         8.39194         5.18794
     2008.58316         6.82307         5.20490
     2008.58590        16.92119         5.25132
     2008.58863         2.24132         5.22276
     2008.59137         4.72044         5.08795
     2008.59411         9.91457         5.15133
     2008.59685         5.39369         5.25579
     2008.59958         1.78582         5.56915
     2008.60232        10.28394         5.35132
     2008.60506        12.00207         5.45131
     2008.60780         2.17019         5.21294
     2008.61054         8.91032         5.29596
     2008.61327         4.79344         5.31739
     2008.61601         4.37757         5.35667
     2008.61875         2.60270         5.29507
     2008.62149         8.77382         5.22543
     2008.62423         4.75295         5.29686
     2008.62696         7.90007         5.31650
     2008.62970        12.79020         5.43702
     2008.63244        11.07732         5.42542
     2008.63518        16.62745         5.23793
     2008.63791         5.40157         5.24865
     2008.64065         8.41870         5.37453
     2008.64339         3.36682         5.36828
     2008.64613         3.20995         5.51559
     2008.64887        10.92307         5.49505
     2008.65160         6.72220         5.20669
     2008.65434         3.03233         5.41827
     2008.65708         5.04145         5.52809
     2008.65982        -1.81642         5.36381
     2008.66256         7.78970         5.37453
     2008.66529        -2.11117         5.33971
     2008.66803         1.20295         5.32185
     2008.67077         0.96708         5.38703
     2008.67351         4.37820         5.34864
     2008.67624         1.27533         5.69861
     2008.67898         6.32245         5.40845
     2008.68172         3.57458         5.36381
     2008.68446         1.52071         5.46738
     2008.68720         4.03683         5.37899
     2008.68993         4.63796         5.39774
     2008.69267         4.75708         5.34239
     2008.69541         3.56521         5.32453
     2008.69815         8.58133         5.38078
     2008.70089         6.47846         5.32810
     2008.70362         5.40158         5.37542
     2008.70636         7.00671         5.21472
     2008.70910         3.82583         5.30757
     2008.71184         1.75296         5.39238
     2008.71457         5.26808         5.22276
     2008.71731         1.45721         5.27097
     2008.72005         5.86634         5.17276
     2008.72279         6.11146         5.16473
     2008.72553         0.39159         5.22543
     2008.72826         2.48471         5.20936
     2008.73100         1.05684         5.25043
     2008.73374         6.03296         5.29418
     2008.73648         4.34109         5.20579
     2008.73921         1.67221         5.33614
     2008.74469        12.06546         5.23525
     2008.74743         2.05759         5.22365
     2008.75017         5.10471         5.24686
     2008.75290        15.82884         5.41649
     2008.75564        14.65497         5.51559
     2008.75838        19.86909         5.46202
     2008.76112         7.18422         5.16115
     2008.76386         2.71034         5.22990
     2008.76659        -3.42153         5.38256
     2008.76933         1.47659         5.33882
     2008.77207         2.63372         5.06652
     2008.77481         2.50984         5.12901
     2008.77754         2.15797         5.08973
     2008.78028        -0.81991         5.20311
     2008.78302        -1.05478         5.15848
     2008.78576         0.88434         5.17187
     2008.78850         0.58147         5.24775
     2008.79123         5.53460         5.25222
     2008.79397        -2.64628         5.11741
     2008.79671         3.37385         5.25400
     2008.79945         1.64297         5.14955
     2008.80219        12.55510         5.33257
     2008.80492         4.03422         5.15401
     2008.80766        -0.17565         5.17455
     2008.81040        -3.47553         5.19954
     2008.81314         5.61160         5.21383
     2008.81587         7.39272         5.19954
     2008.81861        -0.11715         5.17276
     2008.82135        -0.26302         5.18704
     2008.82409        -1.43890         5.27186
     2008.82683        -1.21077         5.27454
     2008.82956        -9.42065         5.47988
     2008.83230         7.65748         5.23972
     2008.83504        11.39860         5.29329
     2008.83778        -0.06427         5.41560
     2008.84052         3.13785         5.20669
     2008.84325         2.61498         5.24954
     2008.84599         2.27210         5.25668
     2008.84873        -3.26977         5.24329
     2008.85147         2.92935         5.17455
     2008.85420         8.23648         5.46827
     2008.85694         3.30461         5.25311
     2008.85968         3.84173         5.21026
     2008.86242         4.03986         5.18704
     2008.86516        -0.91102         5.35399
     2008.86789         1.99411         5.26115
     2008.87063        -5.55577         5.39060
     2008.87337        -8.60864         5.20044
     2008.87611         5.59848         5.26382
     2008.87885         0.27961         5.27186
     2008.88158        -3.18027         5.24150
     2008.88432        -7.71614         5.23347
     2008.88706        -3.93402         5.40845
     2008.88980        -2.31989         5.28971
     2008.89253        -2.01276         5.34060
     2008.89527        -4.04164         5.32543
     2008.89801        -1.16751         5.34596
     2008.90075        -7.14939         5.26115
     2008.90349        -5.79026         5.26382
     2008.90622         4.21286         5.39685
     2008.90896         6.67199         5.25757
     2008.91170        -1.83389         5.25132
     2008.91444         1.94324         5.22186
     2008.91718        -3.79564         5.27007
     2008.91991         8.03049         5.24775
     2008.92265         1.46862         5.25400
     2008.92539         0.36074         5.24775
     2008.92813        -2.11213         5.22990
     2008.93086        -6.32701         5.19687
     2008.93360        -2.04288         5.31739
     2008.93634         1.97924         5.29507
     2008.93908        -3.61463         5.24508
     2008.94182       -14.36351         5.41827
     2008.94455        -9.78938         5.53701
     2008.94729         9.51274         5.45041
     2008.95003        -4.83513         5.20490
     2008.95277        -5.01801         5.17901
     2008.95551        -3.30688         5.12187
     2008.95824        -5.15475         5.08884
     2008.96098        -2.73763         5.22990
     2008.96372        -1.09450         5.14687
     2008.96646        -5.71238         5.33525
     2008.96919        -7.12125         5.16651
     2008.97193         0.54287         5.18080
     2008.97467        -3.57600         5.29061
     2008.97741        -5.45388         5.15937
     2008.98015         1.95725         5.16651
     2008.98288        -5.11463         5.18437
     2008.98562        -1.84950         5.18169
     2008.98836        -1.42738         5.18883
     2008.99110        -1.26325         5.21740
     2008.99384        -6.63012         5.28704
     2008.99657       -10.70700         5.16294
     2008.99931        -4.34187         5.22097
     2009.00479         2.25238         5.30311
     2009.00752        -3.94950         5.13705
     2009.01026        -5.45237         5.12634
     2009.01300         3.35875         5.12366
     2009.01574        -3.07812         5.16651
     2009.01848        -4.21500         5.17455
     2009.02121        -1.20087         5.34596
     2009.02395        -2.47574         5.25490
     2009.02669       -10.18662         5.12991
     2009.02943       -12.89349         5.13080
     2009.03216       -13.27737         5.13437
     2009.03490       -13.39624         5.18883
     2009.03764       -10.91912         5.12991
     2009.04038       -10.30499         5.14151
     2009.04312       -15.50087         5.20311
     2009.04585       -13.13574         5.17365
     2009.04859       -14.47162         5.18437
     2009.05133       -10.27449         5.18794
     2009.05407       -12.29937         5.12901
     2009.05681       -12.77524         5.15937
     2009.05954        -5.71111         5.17187
     2009.06228        -7.58299         5.18794
     2009.06502        -9.00486         5.19776
     2009.06776        -5.46274         5.21383
     2009.07049        -7.80461         5.17812
     2009.07323       -10.65249         5.17008
     2009.07597        -5.49036         5.14241
     2009.07871        -4.79524         5.16562
     2009.08145        -5.79311         5.19419
     2009.08418        -1.16899         5.14955
     2009.08692       -10.18786         5.15133
     2009.08966        -6.84474         5.13794
     2009.09240        -4.83361         5.13437
     2009.09514        -2.93848         5.18972
     2009.09787        -3.12136         5.18347
     2009.10061        -0.40823         5.17187
     2009.10335        -3.34411         5.10937
     2009.10609        -6.10798         5.17544
     2009.10882        -2.49686         5.13080
     2009.11156        -4.19573         5.15133
     2009.11430        -5.07261         5.29329
     2009.11704        -2.17448         5.21918
     2009.11978        -0.94136         5.12187
     2009.12251        -1.39023         5.18347
     2009.12525         4.49090         5.11652
     2009.12799         0.40802         5.12098
     2009.13073         0.84015         5.23525
     2009.13347        -4.40873         5.07991
     2009.13620        -9.11460         5.06027
     2009.13894        -9.71648         5.12187
     2009.14168        -5.33735         5.20044
     2009.14442         7.47977         5.18972
     2009.14715        -8.81110         5.52273
     2009.14989        -0.25498         5.24150
     2009.15263        -8.38485         5.08884
     2009.15537         0.71327         5.24686
     2009.15811        -3.24360         5.24240
     2009.16084        -2.82247         5.20401
     2009.16358        13.27965         5.30400
     2009.16632        -2.07322         5.28882
     2009.16906        -3.15110         5.33703
     2009.17180        -3.46697         5.12991
     2009.17453        -3.68785         5.16919
     2009.17727        -1.62072         5.25043
     2009.18001        -4.72160         5.11205
     2009.18275        -9.66647         5.10937
     2009.18548        -6.83635         5.16115
     2009.18822        -7.31622         5.20847
     2009.19096        -5.60310         5.13616
     2009.19370        -3.14497         5.13169
     2009.19644        -7.22684         5.12276
     2009.19917        -1.03472         5.14419
     2009.20191        -3.20659         5.11741
     2009.20465        -7.83947         5.22454
     2009.20739        -2.17534         5.14419
     2009.21013        -4.34622         5.07723
     2009.21286        -1.54909         5.08795
     2009.21560        -0.88197         5.15580
     2009.21834        -7.86984         5.23258
     2009.22108        -5.77072         5.13437
     2009.22381        -8.47559         5.05938
     2009.22655        -3.34046         5.13348
     2009.22929        -2.81434         5.16383
     2009.23203         0.46279         5.17187
     2009.23477        -0.92409         5.17633
     2009.23750        -5.61196         5.15223
     2009.24024        -7.74284         5.23525
     2009.24298        -5.35771         5.29775
     2009.24572        -3.51759         5.22186
     2009.24846        -4.36746         5.26739
     2009.25119        -1.78434         5.35846
     2009.25393       -11.26821         5.34060
     2009.25667        -4.94009         5.22186
     2009.25941        -4.41496         5.24329
     2009.26214        -0.58883         5.23079
     2009.26488        -4.04171         5.22008
     2009.26762        -7.94858         5.23347
     2009.27036        -2.35146         5.13526
     2009.27310       -11.33433         5.19508
     2009.27583         1.18779         5.28704
     2009.27857        -6.58308         5.27632
     2009.28131        -6.02396         5.33167
     2009.28405       -19.44083         5.27811
     2009.28679         0.50729         5.24597
     2009.28952        -6.87358         5.28525
     2009.29226       -10.11546         5.30578
     2009.29500        -6.78933         5.28079
     2009.29774        -4.41020         5.35399
     2009.30047        -6.37108         5.22543
     2009.30321        -7.78995         5.27007
     2009.30595        -4.88583         5.19954
     2009.30869        -5.13570         5.30936
     2009.31143        -3.17658         5.23079
     2009.31416        -3.40545         5.26650
     2009.31690        -7.25333         5.17633
     2009.31964        -6.75620         5.21740
     2009.32238        -6.22808         5.19954
     2009.32512        -4.45195         5.37631
     2009.32785        -5.33882         5.36024
     2009.33059        -6.40170         5.16919
     2009.33333       -12.09157         5.40935
     2009.33607        -8.67245         5.17008
     2009.33880        -3.22432         5.22722
     2009.34154        -5.93220         5.33346
     2009.34428        -9.43007         5.39238
     2009.34702        -3.99695         5.18704
     2009.34976        -7.01682         5.19151
     2009.35249       -10.30370         5.22186
     2009.35523        -5.26157         5.20669
     2009.35797       -10.28845         5.19062
     2009.36071        -5.07532         5.29507
     2009.36344        -8.48319         5.22901
     2009.36618        -2.99507         5.26650
     2009.36892        -4.17894         5.20847
     2009.37166        -4.15882         5.20311
     2009.37440        -6.85169         5.18080
     2009.37713        -7.84057         5.22901
     2009.37987        -8.17444         5.39417
     2009.38261        -4.69932         5.20758
     2009.38535        -7.30719         5.22008
     2009.38809        -7.41907         5.14151
     2009.39082        -8.52594         5.17276
     2009.39356        -5.15882         5.22365
     2009.39630        -6.95469         5.21026
     2009.39904        -3.32456         5.24061
     2009.40177         0.72356         5.23972
     2009.40451         3.40969         5.23793
     2009.40725         1.27081         5.19865
     2009.40999        -5.33906         5.23168
     2009.41273        -5.37094         5.24686
     2009.41546        -2.65381         5.27275
     2009.41820         0.17931         5.27543
     2009.42094        -2.06056         5.23883
     2009.42368        -7.29744         5.30936
     2009.42642       -11.43031         5.35132
     2009.42915       -12.13518         5.46023
     2009.43189        -6.64106         5.27275
     2009.43463        -7.59193         5.21740
     2009.43737        -5.57081         5.28525
     2009.44010        -8.27768         5.18526
     2009.44284       -10.85756         5.21115
     2009.44558        -7.85843         5.21918
     2009.44832        -3.49631         5.24865
     2009.45106        -8.72318         5.15669
     2009.45379        -5.64206         5.23436
     2009.45653        -3.35893         5.25311
     2009.45927        -3.85381         5.26561
     2009.46201        -5.89768         5.31114
     2009.46475        -2.53055         5.28793
     2009.46748        -8.02143         5.20401
     2009.47022        -8.78130         5.27722
     2009.47296        -2.84618         5.21204
     2009.47570        -4.67805         5.25579
     2009.47843        -3.88593         5.30936
     2009.48117        -0.24180         5.33614
     2009.48391        -5.35968         5.24954
     2009.48665       -10.39855         5.29150
     2009.48939       -10.25743         5.41738
     2009.49212        -3.66730         5.28257
     2009.49486        -3.78518         5.31382
     2009.49760        -3.12705         5.24865
     2009.50034        -5.28692         5.25043
     2009.50308        -1.83880         5.22186
     2009.50581        -3.31267         5.25757
     2009.50855         0.70345         5.36560
     2009.51129        -2.62142         5.26115
     2009.51403         2.42470         5.23525
     2009.51676         4.57283         5.21740
     2009.51950        -4.77605         5.22365
     2009.52224        -1.98292         5.31560
     2009.52498         2.09420         5.36024
     2009.52772         2.44133         5.31382
     2009.53045         0.05946         5.21383
     2009.53319        -5.27842         5.28971
     2009.53593         2.86771         5.23436
     2009.53867        -5.20117         5.17722
     2009.54141        -1.38704         5.22008
     2009.54414        -0.54192         5.33971
     2009.54688         0.69021         5.21115
     2009.54962        -0.13967         5.27007
     2009.55236         0.79246         5.24865
     2009.55509         6.12158         5.19954
     2009.55783         2.93871         5.29418
     2009.56057         2.18783         5.36203
     2009.56331         0.77996         5.39238
     2009.56605        -0.30091         5.34864
     2009.56878        -5.31879         5.36560
     2009.57152         2.88534         5.27543
     2009.57426         3.96146         5.27989
     2009.57700         6.03459         5.55487
     2009.57974         5.84571         5.25043
     2009.58247         7.86384         5.23883
     2009.58521         7.23396         5.37899
     2009.58795         4.21009         5.35221
     2009.59069         5.31421         5.36471
     2009.59342        -3.49466         5.38346
     2009.59616         8.17846         5.26650
     2009.59890         7.11859         5.19597
     2009.60164         2.52372         5.33525
     2009.60438        -7.02816         5.38167
     2009.60711        -1.37803         5.20311
     2009.60985         1.63509         5.22633
     2009.61259         6.23422         5.38881
     2009.61533        -2.98666         5.38435
     2009.61807         6.02047         5.23793
     2009.62080         1.41959         5.24329
     2009.62354        -3.09228         5.27364
     2009.62628         4.20884         5.22454
     2009.62902         1.99297         5.28168
     2009.63175         9.21210         5.45666
     2009.63449         1.49622         5.38881
     2009.63723        -1.08565         5.50041
     2009.63997        -2.28453         5.29150
     2009.64271        -6.11540         5.31382
     2009.64544         1.31672         5.35399
     2009.64818         7.42485         5.59415
     2009.65092         1.39197         5.30400
     2009.65366        -2.61990         5.33167
     2009.65639         5.34522         5.55665
     2009.65913        -2.40965         5.22633
     2009.66187        -2.95453         5.20401
     2009.66461        -0.33440         5.17812
     2009.66735         0.76073         5.22276
     2009.67008        -3.88215         5.38792
     2009.67282         3.96298         5.26918
     2009.67556         5.00110         5.30936
     2009.67830         5.62823         5.58880
     2009.68104        -3.24765         5.46023
     2009.68377        -9.69752         5.37364
     2009.68651         9.73560         5.25579
     2009.68925         2.19373         5.38167
     2009.69199        -2.35315         5.42095
     2009.69472         0.57398         5.44595
     2009.69746        -2.36890         5.40667
     2009.70020         3.70723         5.46023
     2009.70294        15.21936         5.53523
     2009.70568        -1.76552         5.47006
     2009.70841         1.26361         5.49505
     2009.71115         0.76073         5.36114
     2009.71389        -2.11414         5.58701
     2009.71663        -3.19702         5.48880
     2009.71937        -0.63489         5.28614
     2009.72210        -4.57277         5.28704
     2009.72484         1.60036         5.42363
     2009.72758         0.19848         5.39506
     2009.73032         5.01261         5.30489
     2009.73305         3.26574         5.37274
     2009.73579         3.64286         5.32810
     2009.73853        -0.12801         5.34060
     2009.74127         3.64511         5.37631
     2009.74401        -9.09676         5.55487
     2009.74674        -1.45164         5.31025
     2009.74948         0.74449         5.32810
     2009.75222        -7.31939         5.24597
     2009.75496        -3.01826         5.36203
     2009.75770         0.87886         5.30936
     2009.76043         1.51699         5.31560
     2009.76317        -2.71189         5.35042
     2009.76591        -2.06676         5.36739
     2009.76865         1.77337         5.39238
     2009.77138         0.49149         5.29596
     2009.77412        -1.66738         5.37810
     2009.77686         4.96574         5.33882
     2009.77960         3.57087         5.33257
     2009.78234        -0.48901         5.58255
     2009.78507        13.67712         5.52362
     2009.78781         1.74224         5.69682
     2009.79055        -5.42563         5.60665
     2009.79329         0.35849         6.02893
     2009.79603         0.64462         5.61111
     2009.79876         2.28974         5.49059
     2009.80150        -0.22913         5.45934
     2009.80424        -5.30600         5.68432
     2009.80698         1.02012         5.45488
     2009.80971         4.23525         5.59951
     2009.81245         6.31237         5.49148
     2009.81519         3.32950         5.45399
     2009.81793         2.03562         5.65397
     2009.82067         0.15875         5.55487
     2009.82340        -7.84613         5.49862
     2009.82614         4.08200         5.57451
     2009.82888        -1.17288         5.50666
     2009.83162         9.12225         5.56737
     2009.83436        -7.23062         5.47184
     2009.83709        -5.51550         5.49773
     2009.83983        -5.33937         5.51827
     2009.84257         2.90975         5.53255
     2009.84531         3.41388         5.63343
     2009.84804        11.32800         5.57540
     2009.85078         1.47913         5.52541
     2009.85352        -6.72575         5.66468
     2009.85626        -8.87362         5.65754
     2009.85900        -4.92250         5.67718
     2009.86173        -8.50437         5.44952
     2009.86447        -3.56225         5.80842
     2009.86721        -2.66812         5.58522
     2009.86995        -0.88999         5.49773
     2009.87269         2.14613         5.56558
     2009.87542         3.48626         5.58433
     2009.87816        13.59638         5.68254
     2009.88090        -3.61449         5.72896
     2009.88364         5.68463         5.43970
     2009.88637         6.58976         5.69504
     2009.88911         1.14788         5.62183
     2009.89185         0.97701         5.44059
     2009.89459        -1.26087         5.32275
     2009.89733        -7.11474         5.38971
     2009.90006        -6.96262         5.39595
     2009.90280        -5.57849         5.65129
     2009.90554       -11.51936         5.61469
     2009.90828        -3.77624         5.27632
     2009.91102        -3.79611         5.22186
     2009.91375        -6.71299         5.26561
     2009.91649        -3.30786         5.40131
     2009.91923        -3.22974         5.40578
     2009.92197        -9.47561         5.23972
     2009.92470        -3.04049         5.27900
     2009.92744        -5.75836         5.24508
     2009.93018        -6.09224         5.25400
     2009.93292         0.34789         5.30668
     2009.93566        -2.73698         5.29418
     2009.93839        -2.59986         5.36024
     2009.94113         0.42227         5.28346
     2009.94387        -2.06761         5.34596
     2009.94661        -3.12848         5.46470
     2009.94935        -4.36336         5.28436
     2009.95208        -8.42423         5.27364
     2009.95482        -4.53411         5.32453
     2009.95756        -5.30098         5.42274
     2009.96030        -6.18386         5.28436
     2009.96303       -10.04973         5.37988
     2009.96577        -4.62461         5.43792
     2009.96851        -4.00848         5.44416
     2009.97125        -0.87535         5.40935
     2009.97399        -6.29323         5.33078
     2009.97672        -9.32310         5.19776
     2009.97946       -13.87598         5.19508
     2009.98220        -9.46985         5.18883
     2009.98494        -7.13873         5.23972
     2009.98767       -10.20460         5.27632
     2009.99041        -7.25548         5.20311
     2009.99315         4.84265         5.27454
     2009.99589        -6.79823         5.18704
     2009.99863        -8.74310         5.37810
     2010.00410       -14.49485         5.29953
     2010.00684       -14.25672         5.27364
     2010.00958       -17.95860         5.40310
     2010.01232        -7.23947         5.25847
     2010.01505       -13.52035         5.35578
     2010.01779       -17.63122         5.44059
     2010.02053       -11.20210         5.42452
     2010.02327       -15.23897         5.41202
     2010.02600       -14.91585         5.37006
     2010.02874        -3.12472         5.39685
     2010.03148        -3.86460         5.40220
     2010.03422        -4.37547         5.55130
     2010.03696       -10.84135         5.54326
     2010.03969        -8.15522         5.51648
     2010.04243        -6.85109         5.21115
     2010.04517         4.79203         5.26472
     2010.04791         8.16616         5.43970
     2010.05065         7.71828         5.50487
     2010.05338         2.46841         5.45041
     2010.05612         8.25253         5.29507
     2010.05886         0.66666         5.18258
     2010.06160        -3.37022         5.18704
     2010.06433        -7.70709         5.35935
     2010.06707        -1.58097         5.30846
     2010.06981        -3.89184         5.32810
     2010.07255        -5.97171         5.33257
     2010.07529        -9.23659         5.34417
     2010.07802       -10.12646         5.25043
     2010.08076        -7.76134         5.19865
     2010.08350        -5.22521         5.22633
     2010.08624        -3.99209         5.18437
     2010.08898         2.59504         5.48880
     2010.09171         3.89616         5.36381
     2010.09445        -3.69071         5.43792
     2010.09719         3.66441         5.34685
     2010.09993        -3.73246         5.22633
     2010.10266        -4.79034         5.21026
     2010.10540        -5.36021         5.27722
     2010.10814         0.01392         5.27811
     2010.11088         4.02904         5.48166
     2010.11362        -2.38183         5.30578
     2010.11635         2.49029         5.27186
     2010.11909        -3.71658         5.18704
     2010.12183        -6.11646         5.32185
     2010.12457        -3.13633         5.23347
     2010.12731        -8.52421         5.40935
     2010.13004        -4.68008         5.28882
     2010.13278        -8.21196         5.27186
     2010.13552        -4.77683         5.26115
     2010.13826        -2.81471         5.17901
     2010.14099        -7.60158         5.12544
     2010.14373        -5.42245         5.38881
     2010.14647        -5.71333         5.43792
     2010.14921        -6.37720         5.36203
     2010.15195        -4.96908         5.22276
     2010.15468         0.77705         5.35667
     2010.15742        -6.23083         5.25757
     2010.16016        -5.53270         5.19329
     2010.16290        -6.66458         5.21561
     2010.16564        -1.25545         5.26115
     2010.16837        -2.74633         5.24686
     2010.17111        -5.10120         5.20401
     2010.17385        -1.69807         5.16473
     2010.17659        -3.67895         5.15580
     2010.17932        -4.24082         5.18972
     2010.18206        -3.20870         5.18169
     2010.18480        -1.11257         5.16473
     2010.18754        -5.50645         5.23615
     2010.19028         1.05668         5.29686
     2010.19301         0.04680         5.21918
     2010.19575        -1.64807         5.26382
     2010.19849        -5.76895         5.19597
     2010.20123        -8.16082         5.31918
     2010.20397       -11.59870         5.33882
     2010.20670        -7.38857         5.20936
     2010.20944       -11.62644         5.20936
     2010.21218        -6.41732         5.35846
     2010.21492        -5.38619         5.40220
     2010.21765        -4.13707         5.30221
     2010.22039        -2.34794         5.34864
     2010.22313       -12.69282         5.21204
     2010.22587        -5.07269         5.46648
     2010.22861        -6.47457         5.47630
     2010.23134        -6.94944         5.49684
     2010.23408        -9.78032         5.51112
     2010.23956         1.91393         5.66290
     2010.24230       -13.07694         5.77539
     2010.24503        -6.32081         5.47630
     2010.24777        -3.58069         5.52184
     2010.25051         1.23944         5.67272
     2010.25325        -2.37044         5.51380
     2010.25598        -1.05531         5.44952
     2010.25872         3.25581         5.52005
     2010.26146        -6.48206         5.59237
     2010.26420        -0.29694         5.65129
     2010.26694         0.26319         5.54058
     2010.26967         0.05031         5.51559
     2010.27241        -5.90956         5.56469
     2010.27515        -6.74643         5.48166
     2010.27789        -2.81031         5.51648
     2010.28062        -5.88118         5.40935
     2010.28336        -6.14106         5.42274
     2010.28610        -2.94193         5.41024
     2010.28884        -7.46281         5.39328
     2010.29158        -6.38868         5.23972
     2010.29431        -0.84056         5.24418
     2010.29705        -6.28143         5.40578
     2010.29979        -2.72531         5.39060
     2010.30253         7.88482         5.49505
     2010.30527         1.41994         5.39060
     2010.30800        -1.06593         5.33435
     2010.31074        -5.45480         5.25043
     2010.31348        -0.32868         5.24775
     2010.31622         2.85245         5.29061
     2010.31895         3.83857         5.62718
     2010.32169         1.28570         5.47095
     2010.32443        -0.55518         5.31918
     2010.32717         2.18095         5.26115
     2010.32991        -3.98493         5.17812
     2010.33264        -1.66080         5.18347
     2010.33538        10.79432         5.51916
     2010.33812        -1.50155         5.17633
     2010.34086       -10.86043         5.19776
     2010.34360        -3.95330         5.19419
     2010.34633        -0.53617         5.39328
     2010.34907        -0.90105         5.18883
     2010.35181        -4.07792         5.15401
     2010.35455        -7.74380         5.22990
     2010.35728        -9.83567         5.22990
     2010.36002        -2.37555         5.29418
     2010.36276        -0.31442         5.23972
     2010.36550        -4.17730         5.41202
     2010.36824         2.23583         5.37542
     2010.37097         0.96595         5.22008
     2010.37371         2.35108         5.18347
     2010.37645        -4.77079         5.26293
     2010.37919        -6.39467         5.63343
     2010.38193        -7.81154         5.40220
     2010.38466        -4.35342         5.22186
     2010.38740         3.83771         5.14687
     2010.39014         0.26383         5.21740
     2010.39288        -4.56104         5.17008
     2010.39561        -8.84292         5.17276
     2010.39835        -7.59279         5.19329
     2010.40109         1.67033         5.19329
     2010.40383        -5.66854         5.14419
     2010.40657        -0.88842         5.15312
     2010.40930        -7.34929         5.23704
     2010.41204        -4.99016         5.19151
     2010.41478        -4.37404         5.18794
     2010.41752        11.25009         5.18794
     2010.42026         0.15121         5.19151
     2010.42299         4.91434         5.26025
     2010.42573        -7.12354         5.12455
     2010.42847       -11.61641         5.31471
     2010.43121        -6.82929         5.17812
     2010.43394        -1.83316         5.27186
     2010.43668        -3.05704         5.24418
     2010.43942        -0.81691         5.10402
     2010.44216        -9.71879         5.12634
     2010.44490       -10.07666         5.17722
     2010.44763        -3.13753         5.14241
     2010.45037         3.49559         5.15312
     2010.45311        -4.66828         5.07991
     2010.45585        -0.76116         5.12634
     2010.45859        -2.20503         5.18794
     2010.46132        -0.77491         5.19151
     2010.46406         0.22422         5.17365
     2010.46680        -1.63666         5.10134
     2010.46954        -4.68853         5.11473
     2010.47227        -3.93941         5.12455
     2010.47501        -3.09728         5.15490
     2010.47775         3.22185         5.32810
     2010.48049        -4.62303         5.26561
     2010.48323         0.46610         5.14687
     2010.48596         0.69022         5.11652
     2010.48870        -0.94065         5.09777
     2010.49144         0.12447         5.13705
     2010.49418        -1.55140         5.13794
     2010.49692        -6.49228         5.15044
     2010.49965        -3.07115         5.10580
     2010.50239         2.91097         5.07455
     2010.50513         0.95210         5.12366
     2010.50787        -0.53378         5.11919
     2010.51060        -1.73465         5.08795
     2010.51334         2.46148         5.11830
     2010.51610        -2.25141         5.13169
     2010.51882         5.54673         5.03795
     2010.52156         3.47085         5.12187
     2010.52429         6.82998         5.09777
     2010.52703        -2.62690         5.12991
     2010.52977        -2.11177         5.05848
     2010.53251        -2.51865         5.04688
     2010.53525         0.62648         5.10759
     2010.53798        -3.13540         5.09330
     2010.54072        -1.52427         5.09598
     2010.54346        -9.17915         5.07188
     2010.54620        -5.35402         5.10580
     2010.54893        -2.76789         5.03527
     2010.55167        -2.07577         5.05581
     2010.55441        -0.97564         5.12009
     2010.55715        -0.70952         5.09330
     2010.55989        -3.44139         5.07723
     2010.56262        -2.63227         5.06563
     2010.56536        -2.05214         5.08170
     2010.56810        -6.96402         5.13526
     2010.57084         2.80611         5.23258
     2010.57357        -1.52977         5.24061
     2010.57631        -6.40664         5.18169
     2010.57905        -5.60051         5.04152
     2010.58179        -1.01339         5.05045
     2010.58453        -8.04926         5.08170
     2010.58726        -8.45914         5.16562
     2010.59000        -6.42901         5.09330
     2010.59274         0.64511         5.00045
     2010.59548         2.72424         5.07991
     2010.59822        -2.87464         5.10045
     2010.60095        -1.86351         5.09687
     2010.60369        -3.41639         5.12991
     2010.60643         4.36374         5.07545
     2010.60917         0.26686         5.06563
     2010.61190        -3.61301         5.04956
     2010.61464        -2.52688         5.02992
     2010.61738        -0.57176         5.05848
     2010.62012         3.58737         5.05670
     2010.62286         0.56349         5.04241
     2010.62559         0.95562         5.20222
     2010.62833        -7.83026         5.07813
     2010.63107        -3.98713         5.26382
     2010.63381         8.19199         5.07991
     2010.63655         4.13612         5.14776
     2010.63928         1.10224         5.12098
     2010.64202        -3.91163         5.16383
     2010.64476        -3.60851         5.11652
     2010.64750         0.43762         5.05670
     2010.65023         1.17575         5.12723
     2010.65297         3.25787         5.22990
     2010.65571         0.30200         4.99956
     2010.65845         4.17012         4.94242
     2010.66119         2.29925         5.06027
     2010.66392         5.88937         5.07009
     2010.66666         6.30450         4.99063
     2010.66940         0.50562         5.02367
     2010.67214         1.79275         5.05402
     2010.67488         3.67887         4.99688
     2010.67761         6.48300         5.02634
     2010.68035         2.91513         5.01831
     2010.68309         3.54225         5.14598
     2010.68583         6.04038         4.95760
     2010.68856         3.71650         4.95135
     2010.69130         3.47963         5.00045
     2010.69404         0.26175         5.08170
     2010.69678        -3.62112         5.01474
     2010.69952         4.95200         5.01117
     2010.70225         6.15213         5.06652
     2010.70499         6.78025         5.00224
     2010.70773         5.91038         5.14866
     2010.71047         9.40850         5.12544
     2010.71321         5.96963         5.17008
     2010.71594         0.68276         5.26204
     2010.71868         2.28488         5.02456
     2010.72142         7.99601         5.08705
     2010.72416         2.35013         5.14062
     2010.72689        -2.36974         5.20669
     2010.72963         1.85838         5.04331
     2010.73237         0.86151         5.01920
     2010.73511        -4.84737         5.07723
     2010.73785         4.42776         5.25579
     2010.74058        10.84688         5.18704
     2010.74332         7.28601         5.05938
     2010.74606         8.40913         5.08348
     2010.74880         9.52226         5.14151
     2010.75154         1.76439         5.03706
     2010.75427         6.08251         5.13616
     2010.75701         1.79864         5.29418
     2010.75975         1.77776         5.05938
     2010.76249         6.41889         4.99153
     2010.76522         1.96401         5.01920
     2010.76796         7.97414         5.07455
     2010.77070        -5.64174         5.06027
     2010.77618        -2.08549         4.96921
     2010.77891        -2.43136         5.06652
     2010.78165        -2.55223         4.98974
     2010.78439         1.26689         5.11205
     2010.78713         3.38802         5.25490
     2010.78987         2.34614         5.03616
     2010.79260         4.44727         5.10937
     2010.79534        -4.66061         5.05313
     2010.79808         1.74452         5.05670
     2010.80082        -3.53836         5.00581
     2010.80355         0.66577         5.13616
     2010.80629        -1.00211         5.07188
     2010.80903         6.33602         5.04331
     2010.81177        17.01514         5.18972
     2010.81451        -0.33173         5.00670
     2010.81724         4.02540         5.22097
     2010.81998        -1.67748         5.14508
     2010.82272         5.07365         5.08438
     2010.82546         7.79477         5.09420
     2010.82820         1.40590         5.09866
     2010.83093        -5.03398         5.25043
     2010.83367        -9.02385         5.35667
     2010.83641        -4.89273         5.01117
     2010.83915         4.65440         5.15669
     2010.84188         0.20352         4.98795
     2010.84462        -3.69935         5.02545
     2010.84736         2.65077         5.09955
     2010.85010         2.48490         5.07902
     2010.85284         9.54203         5.19597
     2010.85557         1.24515         5.10937
     2010.85831        -5.61372         5.04420
     2010.86105        -8.37660         5.03081
     2010.86379        -8.60647         4.97456
     2010.86653       -11.68735         5.06206
     2010.86926        -4.91722         5.09241
     2010.87200        -2.93810         5.00760
     2010.87474        -5.99997         5.07188
     2010.87748        -2.34085         5.10491
     2010.88021        10.53728         5.14866
     2010.88295        -2.70859         5.18615
     2010.88569         0.90353         4.99331
     2010.88843         1.33566         5.22186
     2010.89117         1.11378         5.20847
     2010.89390        -2.65809         5.05402
     2010.89664        -1.51997         4.94867
     2010.89938        -0.74484         4.99153
     2010.90212        -4.54872         5.05223
     2010.90485        -7.50859         5.09866
     2010.90759         3.29553         5.01474
     2010.91033         2.70666         4.96831
     2010.91307        -1.33322         5.01563
     2010.91581         0.15191         5.07455
     2010.91854        -1.01796         5.01742
     2010.92128        -3.53484         5.06473
     2010.92402         1.01329         5.04241
     2010.92676         4.58741         4.99956
     2010.92950         4.92954         5.07455
     2010.93223        -8.91034         5.10669
     2010.93497         5.45779         5.16830
     2010.93771         1.99691         5.05938
     2010.94045        -4.97096         5.18794
     2010.94318         6.15516         5.08527
     2010.94592         0.05029         5.13526
     2010.94866         4.56741         5.08170
     2010.95140        -2.14646         5.29953
     2010.95414        -3.69233         4.98171
     2010.95687         2.04979         5.01831
     2010.95961        -3.15608         5.20579
     2010.96235         3.19204         5.15490
     2010.96509         4.59517         5.22097
     2010.96783        -3.48171         5.09420
     2010.97056        -2.41258         5.07991
     2010.97330        -5.20646         5.00760
     2010.97604       -13.71233         5.12723
     2010.97878         0.73279         5.05134
     2010.98151        -8.53108         5.05938
     2010.98425        -3.34995         5.01563
     2010.98699        -3.93683         5.11741
     2010.98973        -0.58470         5.12901
     2010.99247        -3.74658         5.26561
     2010.99520       -14.24645         5.11205
     2010.99794        -7.61833         4.91832
     2011.00342        -4.23408         4.98885
     2011.00616         0.58505         4.94064
     2011.00889        -0.32783         5.09866
     2011.01163        -1.17270         4.94153
     2011.01437        -7.02058         4.96564
     2011.01711        -7.74245         5.09330
     2011.01984        -7.43032         5.02634
     2011.02258        -5.96920         4.98171
     2011.02532        -3.14407         5.12455
     2011.02806        -3.84695         5.16919
     2011.03080       -10.86382         4.97278
     2011.03353        -9.88570         5.11205
     2011.03627        -7.19857         5.02009
     2011.03901        -6.03945         5.01742
     2011.04175        -2.49932         5.04956
     2011.04449       -11.39820         5.09955
     2011.04722        -7.76107         5.09420
     2011.04996       -10.71495         5.05134
     2011.05270        -6.27682         4.96385
     2011.05544        -6.45269         5.02456
     2011.05817         0.53043         4.96474
     2011.06091        -0.03144         4.95135
     2011.06365         0.99268         4.97992
     2011.06639        -6.04719         4.99242
     2011.06913        -6.31407         5.29329
     2011.07186        -4.90694         4.98617
     2011.07460        -6.24682         5.07991
     2011.07734        -0.88169         5.01831
     2011.08008        -3.93757         4.98528
     2011.08282       -11.59644         5.00135
     2011.08555        -7.72731         4.99599
     2011.08829        -6.40319         5.06116
     2011.09103       -12.06506         5.02992
     2011.09377        -1.70894         4.98795
     2011.09650        -5.76481         5.03438
     2011.09924         0.23031         5.00849
     2011.10198         7.88144         5.12276
     2011.10472        -0.05144         4.99599
     2011.10746        -0.67531         5.07098
     2011.11019        -3.98919         5.07813
     2011.11293        -3.34606         5.01742
     2011.11567         0.38806         5.02992
     2011.11841        10.55619         5.20133
     2011.12115         9.14032         5.08259
     2011.12388        -2.93356         5.19954
     2011.12662        -5.76443         5.14241
     2011.12936         7.88969         5.03170
     2011.13210        -2.69818         5.02277
     2011.13483        -9.84306         4.96921
     2011.13757        -1.74493         5.05848
     2011.14031        -4.22881         4.95314
     2011.14305        -1.36268         5.00224
     2011.14579        -0.91656         5.06027
     2011.14852        -2.78243         5.01563
     2011.15126         8.14969         4.95046
     2011.15400         0.40382         4.97099
     2011.15674         3.96095         4.93439
     2011.15948         4.82307         5.00581
     2011.16221         2.92420         5.01295
     2011.16495         9.40232         5.16026
     2011.16769        -2.40055         5.05670
     2011.17043        -3.11243         5.01920
     2011.17316       -12.39930         5.02099
     2011.17590        -5.75418         4.97099
     2011.17864         4.14395         5.01831
     2011.18138         2.32507         5.06384
     2011.18412        -8.86880         5.02992
     2011.18685        -1.38667         5.01206
     2011.18959        -0.38055         4.99510
     2011.19233         0.04758         5.03259
     2011.19507         7.46770         5.05759
     2011.19780         0.69083         5.08705
     2011.20054        -1.12005         5.13794
     2011.20328        -0.22592         5.15312
     2011.20602         1.80820         5.22186
     2011.20876        -0.34167         5.13794
     2011.21149        -4.42655         5.09866
     2011.21423         0.82058         5.03438
     2011.21697        -4.38930         5.22186
     2011.21971         0.94683         5.17187
     2011.22245         0.35596         5.09152
     2011.22518         6.50808         5.07545
     2011.22792         2.12921         5.08705
     2011.23066         2.99533         5.05581
     2011.23340         2.14046         5.12455
     2011.23613         0.01158         5.01295
     2011.23887        -4.41629         5.03081
     2011.24161        -6.64317         5.07009
     2011.24435        -0.98104         5.02634
     2011.24709         2.41208         5.06384
     2011.24982        -2.52379         5.05581
     2011.25256         2.33433         5.03349
     2011.25530        -2.39854         5.12544
     2011.25804        10.29559         5.23793
     2011.26078        -0.37229         5.17455
     2011.26351         2.26784         5.02456
     2011.26625        -1.47904         5.03081
     2011.26899         1.11409         5.17187
     2011.27173        -3.03579         5.26204
     2011.27446         5.43334         5.27900
     2011.27720        -0.54854         5.22008
     2011.27994        -4.95141         5.11294
     2011.28268        -2.40329         5.06473
     2011.28542        -3.25316         5.04331
     2011.28815         0.59996         5.07813
     2011.29089         4.66609         5.08527
     2011.29363         1.10822         5.08438
     2011.29637        -4.32066         5.04509
     2011.29911        -3.13353         5.09152
     2011.30184         9.26659         5.21026
     2011.30458         2.52772         5.03884
     2011.30732         7.01484         5.04599
     2011.31006         1.96597         5.06027
     2011.31279         0.20609         5.08973
     2011.31553         1.54322         5.06652
     2011.31827         4.34634         5.08348
     2011.32101         4.54347         5.05134
     2011.32375        -0.62440         5.10669
     2011.32648        -5.24728         4.96028
     2011.32922        -9.57415         5.00313
     2011.33196       -10.64603         5.09152
     2011.33470        -4.84190         5.16473
     2011.33744        -0.81278         5.06563
     2011.34017        -0.07865         5.24686
     2011.34291         1.42247         5.08616
     2011.34565        -2.18440         5.05313
     2011.34839        -4.56328         5.02188
     2011.35112        -1.63315         5.01206
     2011.35386        -2.45803         5.11205
     2011.35660        -9.12290         5.00670
     2011.35934       -10.02077         4.98795
     2011.36208       -13.35465         4.96385
     2011.36481        -6.04252         5.15669
     2011.36755        -3.31640         5.12812
     2011.37029        -2.31327         5.10045
     2011.37303        -4.91515         5.11919
     2011.37577        -1.24102         5.10491
     2011.37850        -7.84290         5.08973
     2011.38124        -5.05777         5.13973
     2011.38398        -5.99465         5.15312
     2011.38672        -3.97452         5.04509
     2011.38945        -6.45640         5.07188
     2011.39219        -3.00127         5.16383
     2011.39493        -5.24814         5.10937
     2011.39767        -3.01002         5.19508
     2011.40041        -2.46589         5.22097
     2011.40314        -3.30877         5.12544
     2011.40588        -5.96164         5.06920
     2011.40862        -1.00952         5.12187
     2011.41136        -6.86439         5.07366
     2011.41410        -0.68327         5.20044
     2011.41683        -0.77214         5.10402
     2011.41957        -0.50602         5.07366
     2011.42231        -8.35489         5.07813
     2011.42505        -4.83576         5.10669
     2011.42778        -7.98464         5.10937
     2011.43052       -10.10551         5.10045
     2011.43326        -5.85739         5.09241
     2011.43600        -4.70026         5.08438
     2011.43874        -7.45514         5.08616
     2011.44147        -8.57101         5.10312
     2011.44421        -3.98389         5.19240
     2011.44695        -7.16976         5.12544
     2011.44969        -4.75364         5.06384
     2011.45243        -8.63951         5.10223
     2011.45516        -7.78039         5.10045
     2011.45790        -4.00526         5.08884
     2011.46064       -11.30113         5.09598
     2011.46338        -9.32101         5.13169
     2011.46611        -3.46088         5.09866
     2011.46887        -2.22176         5.15044
     2011.47159        -3.02863         5.12276
     2011.47433       -10.97951         5.10848
     2011.47707        -5.41638         5.14866
     2011.47980         2.55474         5.14419
     2011.48254        -0.98713         5.09687
     2011.48528        -0.71401         5.11652
     2011.48802        -3.48088         5.16026
     2011.49076        -3.30276         5.14687
     2011.49349        -5.21463         5.14241
     2011.49623         0.76150         5.08080
     2011.49897        -3.07338         5.10669
     2011.50171         0.50275         5.11919
     2011.50444        -2.87413         5.10491
     2011.50718        -2.40800         5.10491
     2011.50992        -3.67888         5.07545
     2011.51266         2.25525         5.24597
     2011.51540        -0.64963         5.07991
     2011.51813         5.30250         5.10045
     2011.52087         1.76562         5.19329
     2011.52361         2.11075         5.12634
     2011.52635        -0.50812         5.15044
     2011.52908        -0.99600         5.05848
     2011.53182         0.20613         5.12544
     2011.53456         1.00625         5.12901
     2011.53730        -5.40662         5.10491
     2011.54004        -7.45850         5.11294
     2011.54277       -11.54437         5.11205
     2011.54551         3.80575         5.17990
     2011.54825        -0.12612         5.07455
     2011.55099        -5.17900         5.12634
     2011.55373        -3.60287         5.19062
     2011.55646         0.99125         5.13526
     2011.55920        -2.39062         5.16383
     2011.56194         3.62951         5.18169
     2011.56468         3.55563         5.10134
     2011.56741         3.80076         5.12544
     2011.57015        -0.14212         5.18437
     2011.57289        -1.90799         5.09241
     2011.57563        -1.85487         5.06831
     2011.57837         1.82726         5.05581
     2011.58110        -2.88362         5.22186
     2011.58384        -2.30449         5.18169
     2011.58658         2.10663         5.26293
     2011.58932        -3.46624         5.05491
     2011.59206         4.68488         5.10134
     2011.59479         1.63501         5.05938
     2011.59753         7.58914         5.11473
     2011.60027         6.27526         5.13526
     2011.60301        -1.53861         5.07634
     2011.60574         1.02151         5.22097
     2011.60848         7.48464         5.36917
     2011.61122         4.22776         5.31114
     2011.61396         2.33789         5.13437
     2011.61670         4.08601         5.23079
     2011.61943         0.52614         5.19419
     2011.62217         3.70126         5.15669
     2011.62491        -0.04761         5.13973
     2011.62765         7.07652         5.13794
     2011.63039         3.02764         5.11562
     2011.63312         1.83277         5.15401
     2011.63586         4.60289         5.15133
     2011.63860        10.17802         5.11116
     2011.64134        -1.23886         5.44327
     2011.64407        13.19327         5.25579
     2011.64681         8.78739         5.13705
     2011.64955         6.66752         5.28793
     2011.65229         1.80464         5.16830
     2011.65503         0.13477         5.19419
     2011.65776         0.69589         5.23436
     2011.66050        -2.18898         5.53880
     2011.66324         7.90615         5.22186
     2011.66598         2.95627         5.23168
     2011.66872         1.89640         5.26650
     2011.67145         7.49252         5.09955
     2011.67419         5.98965         5.06831
     2011.67693        13.08877         5.14866
     2011.67967         5.52290         5.08705
     2011.68240         3.52702         5.15223
     2011.68514         9.58815         5.27900
     2011.68788         6.38527         5.18437
     2011.69062         8.19240         5.21472
     2011.69336         7.01152         5.20044
     2011.69609         6.33665         5.18794
     2011.69883         8.84678         5.19776
     2011.70157         5.36190         5.15401
     2011.70431         6.04503         5.17365
     2011.70705         4.88215         5.25757
     2011.70978         8.21328         5.11473
     2011.71252         5.59040         5.18883
     2011.71526        -4.28547         5.45756
     2011.71800         2.60265         5.39417
     2011.72073        -0.68422         5.10312
     2011.72347         5.36690         5.13080
     2011.72621         7.27903         5.19151
     2011.72895         9.08616         5.16205
     2011.73169         6.35328         5.74682
     2011.73442        -0.68159         5.20669
     2011.73716        12.99553         5.21651
     2011.73990         7.13266         5.12187
     2011.74264        12.80378         5.16473
     2011.74538         2.01891         5.31739
     2011.74811         3.77703         5.34239
     2011.75085         2.24716         5.39417
     2011.75359         4.82928         5.28168
     2011.75633         8.05441         5.20133
     2011.75906        10.87553         5.31114
     2011.76180         7.19066         5.20936
     2011.76454         2.88379         5.27097
     2011.76728         1.91491         5.20044
     2011.77002         2.58204         5.37096
     2011.77275        19.44516         5.37453
     2011.77549         5.87429         5.35935
     2011.77823        -5.25359         5.22365
     2011.78097        -2.75446         5.25668
     2011.78371         5.36766         5.25668
     2011.78644         6.40179         5.22454
     2011.78918         4.61691         5.24240
     2011.79192         2.09004         5.22008
     2011.79466        -0.76884         5.23347
     2011.79739         5.51729         5.24508
     2011.80013         8.03142         5.23347
     2011.80287         4.46854         5.18258
     2011.80561         0.48367         5.13080
     2011.80835         2.84879         5.13705
     2011.81108        -2.21508         5.23525
     2011.81382        -0.69296         5.11205
     2011.81656        -3.10183         5.14241
     2011.81930         4.83329         5.13348
     2011.82203        -1.04858         5.17187
     2011.82477        -3.09346         5.17633
     2011.82751        -0.91233         5.12455
     2011.83025         1.87980         5.16115
     2011.83299        -3.71808         5.13616
     2011.83572        -8.54295         5.13259
     2011.83846       -13.76783         5.27632
     2011.84120         3.88330         5.09330
     2011.84394         5.55742         5.14687
     2011.84668        -1.47145         5.07813
     2011.84941        -3.34033         5.07277
     2011.85215        -3.84720         5.11205
     2011.85489         0.10792         5.16740
     2011.85763         1.51105         5.22186
     2011.86036         5.80317         5.11652
     2011.86310         2.42230         5.12634
     2011.86584        -1.40657         5.10134
     2011.86858         4.71255         5.11294
     2011.87132         2.48068         5.09330
     2011.87405         3.87180         5.15669
     2011.87679        11.17893         5.16830
     2011.87953        -0.64595         5.18437
     2011.88227         1.40518         5.14062
     2011.88501         2.48530         5.10669
     2011.88774         0.46343         5.08973
     2011.89048         7.16255         5.17633
     2011.89322        -6.06332         5.33792
     2011.89596        -2.95020         5.11741
     2011.89869         5.43393         5.14776
     2011.90143        -3.59094         5.11562
     2011.90417        -3.92082         5.16830
     2011.90691        -3.19969         5.11205
     2011.90965         1.32343         5.08527
     2011.91238        -0.66344         5.20490
     2011.91512        -3.66832         5.12634
     2011.91786        -1.28819         5.23525
     2011.92060        -8.40807         5.15223
     2011.92334        -4.52794         5.17097
     2011.92607        -2.35882         5.19776
     2011.92881         1.10231         5.25847
     2011.93155         3.17244         5.26115
     2011.93429        -1.25744         5.19062
     2011.93702        -3.12031         5.19419
     2011.93976        -4.30519         5.16026
     2011.94250         6.11494         5.26472
     2011.94524         0.18306         5.20490
     2011.94798         4.57819         5.17276
     2011.95071        -3.68269         5.14330
     2011.95345         2.07244         5.26204
     2011.95619        -3.25944         5.34328
     2011.95893         0.36069         5.00492
     2011.96167         9.19581         5.09330
     2011.96440         2.06594         5.13169
     2011.96714         1.55807         5.02545
     2011.96988         3.23319         4.99331
     2011.97262         0.59232         4.98260
     2011.97535        -4.35456         5.01206
     2011.97809        -1.07743         5.05759
     2011.98083         0.68369         5.08795
     2011.98357        -0.44918         4.99599
     2011.98631         2.14994         5.05581
     2011.98904         4.49207         5.10402
     2011.99178         6.72319         5.06652
     2011.99452        -4.50868         5.17187
     2011.99726         3.64744         5.00224
     2012.00273         0.38370         5.12276
     2012.00547        -3.56018         5.04331
     2012.00821        -3.93305         5.06384
     2012.01095         5.21507         5.09598
     2012.01368         6.52820         4.98795
     2012.01642         7.85932         4.98974
     2012.01916         2.12745         4.98795
     2012.02190         2.73557         5.05938
     2012.02464        -0.28130         5.02277
     2012.02737         2.57882         5.01206
     2012.03011         1.25995         4.99331
     2012.03285        -3.30992         4.99510
     2012.03559        -4.28180         5.05759
     2012.03833        -2.25967         5.02277
     2012.04106        -3.00755         5.01831
     2012.04380         4.62958         5.02545
     2012.04654         7.98070         5.03706
     2012.04928         9.85583         5.08348
     2012.05201         6.43595         5.00135
     2012.05475         9.24208         5.24061
     2012.05749        -4.47980         5.10580
     2012.06023         1.51033         5.14955
     2012.06297         4.35545         5.21472
     2012.06570         3.36058         5.15223
     2012.06844        -3.64029         5.07009
     2012.07118        -6.67317         5.00581
     2012.07392        -0.83304         5.08616
     2012.07666         0.15608         5.04420
     2012.07939         3.33221         5.08795
     2012.08213        -1.53567         5.07098
     2012.08487         0.79846         5.09420
     2012.08761        -2.98442         5.06116
     2012.09034        -3.74029         5.03438
     2012.09308         5.28883         5.12187
     2012.09582         2.38796         5.09062
     2012.09856         3.24608         5.08348
     2012.10130        -5.19179         5.22990
     2012.10403        -0.65366         5.03527
     2012.10677        -0.65254         5.28525
     2012.10951         3.07359         5.20311
     2012.11225         0.18571         5.13526
     2012.11498        -4.96916         5.09152
     2012.11772        -0.45704         5.07009
     2012.12046        -0.46591         5.09152
     2012.12320         0.87321         5.07188
     2012.12594        -5.95266         5.15758
     2012.12867        -2.11454         5.10491
     2012.13141       -12.51241         5.15937
     2012.13415        -2.71128         5.12366
     2012.13689        -0.30716         5.17008
     2012.13963        -0.15803         5.28436
     2012.14236       -11.69691         5.27900
     2012.14510         1.19322         5.11919
     2012.14784        -6.37266         5.13259
     2012.15058        -5.27753         5.17990
     2012.15331        -5.23841         5.01563
     2012.15605        -0.82728         5.14776
     2012.15879         2.71684         5.23615
     2012.16153        -1.75603         5.09777
     2012.16427         2.58209         5.23347
     2012.16700        -4.90878         5.21740
     2012.16974        -5.77165         5.11205
     2012.17248        -6.34453         5.06652
     2012.17522        -6.75340         5.10134
     2012.17796        -3.50028         5.24597
     2012.18069        -5.91715         5.12455
     2012.18343        -7.56303         5.13437
     2012.18617        -3.53890         5.11562
     2012.18891       -12.77378         5.12812
     2012.19164         2.75135         5.20133
     2012.19438         2.27747         5.14508
     2012.19712        -7.05240         5.14866
     2012.19986         0.83472         5.08527
     2012.20260        -0.16115         5.07545
     2012.20533         5.64498         5.14241
     2012.20807         3.71810         5.12276
     2012.21081        -5.83577         5.05581
     2012.21355        -3.42365         5.04420
     2012.21629         3.62648         5.05313
     2012.21902        -4.66840         5.04331
     2012.22176       -12.25927         5.14151
     2012.22450        -8.39015         5.15223
     2012.22724        -6.53602         5.05223
     2012.22997        -4.08190         5.00670
     2012.23271        -3.69677         5.18258
     2012.23545        11.64536         5.11562
     2012.23819         4.73048         5.12187
     2012.24093        -5.62739         5.10848
     2012.24366        -0.96427         5.09420
     2012.24640         0.25786         5.16383
     2012.24914        -6.52302         5.12187
     2012.25188        -7.27489         5.06563
     2012.25462       -18.11777         5.44952
     2012.25735        -9.48364         5.18080
     2012.26009       -14.88552         5.08705
     2012.26283        -8.03139         5.12544
     2012.26557       -10.03427         5.06920
     2012.26830        -3.96714         5.09687
     2012.27104        -7.51601         5.21651
     2012.27378        -8.73289         5.04956
     2012.27652        -5.77976         5.07545
     2012.27926        -5.73464         5.18972
     2012.28199        -2.03651         5.00849
     2012.28473        -3.03539         5.03884
     2012.28747       -10.97726         5.11919
     2012.29021       -16.57814         5.09330
     2012.29295        -7.99901         5.07723
     2012.29568        -9.71689         5.12187
     2012.29842        -3.64676         5.07545
     2012.30116        -6.01264         5.07545
     2012.30390        -6.54951         5.04956
     2012.30663       -18.11538         5.09687
     2012.30937        -7.14526         5.05938
     2012.31211        -7.54013         5.19597
     2012.31485        -2.72801         5.18704
     2012.31759        -6.99888         5.06206
     2012.32032        -7.68776         5.11741
     2012.32306        -7.80263         4.98706
     2012.32580        -7.97151         5.09777
     2012.32854        -9.36338         5.17187
     2012.33128        -5.48126         5.08705
     2012.33401        -5.34013         5.15490
     2012.33675        -7.85700         5.07991
     2012.33949        -8.45388         5.04777
     2012.34223       -16.12375         5.04152
     2012.34496       -18.08163         5.03974
     2012.34770       -10.45550         5.08170
     2012.35044        -7.20938         5.02902
     2012.35318        -5.59825         5.08705
     2012.35592        -5.40013         5.02634
     2012.35865        -9.67900         5.08616
     2012.36139       -13.06388         5.03259
     2012.36413        -8.04275         5.03795
     2012.36687        -6.11663         5.03706
     2012.36961        -2.76150         4.99956
     2012.37234        -3.50037         5.02456
     2012.37508       -10.19125         5.05223
     2012.37782        -7.72812         5.14866
     2012.38056        -7.03500         5.17455
     2012.38329        -4.29787         5.16830
     2012.38603        -6.56275         5.34150
     2012.38877        -0.22062         5.19329
     2012.39151        -5.35750         5.11027
     2012.39425        -7.19337         5.15312
     2012.39698        -2.39525         5.16562
     2012.39972        -6.78312         5.02813
     2012.40246        -5.21000         5.02724
     2012.40520        -4.88587         5.03795
     2012.40794        -8.12474         5.00670
     2012.41067        -6.66562         5.04866
     2012.41341        -7.31149         5.06027
     2012.41615         1.72563         5.08080
     2012.41889         0.72276         5.12455
     2012.42162        -6.82812         5.00670
     2012.42436         0.11301         5.22365
     2012.42710        -8.74387         5.03438
     2012.42984        -6.85474         5.10312
     2012.43258        -4.76262         5.09241
     2012.43531       -12.47249         5.02009
     2012.43805        -8.98937         5.06206
     2012.44079       -13.74424         5.03795
     2012.44353        -6.89311         5.06027
     2012.44626        -3.94199         5.03706
     2012.44900        -3.50186         4.99778
     2012.45174        -9.73974         5.08259
     2012.45448        -4.75361         5.03081
     2012.45722        -6.40449         5.16651
     2012.45995         2.71364         5.20579
     2012.46269        -0.09524         4.99956
     2012.46543        -7.40211         5.05759
     2012.46817        -5.56499         5.07634
     2012.47091        -1.25086         5.02902
     2012.47364        -1.76473         5.08973
     2012.47638        -6.16461         5.04420
     2012.47912        -6.16148         4.99242
     2012.48186        -7.93936         5.03616
     2012.48459        -9.55223         5.02367
     2012.48733       -10.39811         5.03170
     2012.49007        -2.68998         5.10223
     2012.49281        -6.82686         5.03884
     2012.49555        -6.43673         5.12098
     2012.49828        -1.56161         5.04777
     2012.50102        -1.32648         5.04331
     2012.50376        -2.97136         5.04241
     2012.50650        -3.46423         5.00670
     2012.50924        -2.88810         5.09241
     2012.51197        -7.29198         5.12098
     2012.51471        -8.84685         5.04152
     2012.51745        -7.85073         5.04688
     2012.52019        -5.74260         5.01117
     2012.52292        -0.29948         4.97813
     2012.52566        -2.11935         5.01474
     2012.52840        -5.40923         5.01831
     2012.53114        -1.79510         5.02992
     2012.53388        -3.02598         4.97010
     2012.53661         0.60715         5.01920
     2012.53935         2.66727         5.08884
     2012.54209         3.01640         5.03974
     2012.54483        -1.89447         4.99331
     2012.54757        -1.01035         5.03170
     2012.55030        -0.66222         5.07009
     2012.55304        -4.22310         5.01474
     2012.55578        -6.66997         5.02456
     2012.55852        -1.11685         5.02009
     2012.56125        -2.07372         5.05045
     2012.56399        -3.45060         5.00492
     2012.56673        -0.13847         5.02188
     2012.56947        -0.51135         5.00938
     2012.57221        -1.34122         5.03706
     2012.57494        -2.97009         5.01652
     2012.57768        -0.43397         5.02545
     2012.58042         1.40816         5.02009
     2012.58316        -5.88372         5.00938
     2012.58590        -0.30759         5.03527
     2012.58863         3.53353         5.03795
     2012.59137        -0.32334         5.00492
     2012.59411        -3.26522         5.09420
     2012.59685         5.86391         5.20311
     2012.59958         1.02003         5.04956
     2012.60232        -1.29984         5.22901
     2012.60506        -1.34672         5.04777
     2012.60780         3.10541         5.00849
     2012.61054         6.13254         5.06473
     2012.61327         0.94666         5.08170
     2012.61601         4.05779         5.02992
     2012.61875        10.37391         5.08080
     2012.62149         3.09104         5.02009
     2012.62423         0.38216         5.22365
     2012.62696        -4.97271         5.06563
     2012.62970        -1.89959         5.11027
     2012.63244         6.30754         5.12812
     2012.63518         2.06166         5.04063
     2012.63791         2.35179         4.99510
     2012.64065         3.40291         5.05223
     2012.64339         3.91204         5.00492
     2012.64613         5.11017         5.02813
     2012.64887         5.66329         5.05759
     2012.65160         9.27742         5.08527
     2012.65434        -3.16746         5.07098
     2012.65708         0.57867         5.22365
     2012.65982         3.64679         5.13973
     2012.66256         6.89092         5.12098
     2012.66529        -0.23196         5.05848
     2012.66803        -1.66883         5.06652
     2012.67077         6.87029         5.08438
     2012.67351         6.01342         5.06652
     2012.67624         5.35355         5.08795
     2012.67898         8.44067         5.06116
     2012.68172         8.59680         5.04956
     2012.68446         5.09792         5.09420
     2012.68720         2.17305         5.07634
     2012.68993         0.20617         5.03616
     2012.69267         3.40830         5.19419
     2012.69541         3.79042         5.12544
     2012.69815         2.17955         5.13080
     2012.70089        -0.81433         5.22454
     2012.70362        -1.89320         5.05759
     2012.70636        -6.03808         5.10402
     2012.70910        -0.01295         5.03795
     2012.71184         3.61518         5.09598
     2012.71457         1.62730         5.00045
     2012.71731         4.51543         5.00670
     2012.72005         5.53955         5.01295
     2012.72279         3.14668         5.02188
     2012.72553         3.70980         5.00045
     2012.72826         5.93293         5.18883
     2012.73100         1.31705         5.18169
     2012.73374        -0.40582         5.13526
     2012.73648         0.53130         5.04331
     2012.73921         5.47243         5.25311
     2012.74195         1.37855         5.18883
     2012.74469         3.27168         5.05670
     2012.74743        -1.43519         5.07723
     2012.75017        -0.78007         5.08705
     2012.75290         4.78206         5.11205
     2012.75564         3.56418         5.06652
     2012.75838         0.69131         5.05313
     2012.76112         5.16743         5.01563
     2012.76386         3.17656         5.03974
     2012.76659         3.56568         5.13259
     2012.76933         4.10781         5.09420
     2012.77207         8.11993         5.08884
     2012.77481         6.85106         5.18437
     2012.77754         3.15519         5.04956
     2012.78028        10.18431         5.17722
     2012.78302        -3.41856         5.10223
     2012.78576         4.94656         5.07277
     2012.78850        15.08669         5.23793
     2012.79123         1.87681         5.37810
     2012.79397         9.27994         5.08616
     2012.79671         1.99106         5.07455
     2012.79945        13.09819         5.23972
     2012.80219        14.74931         5.10045
     2012.80492         3.27244         5.08795
     2012.80766         3.21156         5.09330
     2012.81040         3.68869         5.10312
     2012.81314         6.71482         5.08348
     2012.81588        -0.04706         5.06116
     2012.81861        -6.28593         5.23436
     2012.82135         0.89819         5.19419
     2012.82409        -4.01368         5.21026
     2012.82683         4.78444         5.22186
     2012.82956        -1.09043         5.10312
     2012.83230         9.55269         5.23704
     2012.83504         0.05382         5.15133
     2012.83778        -0.20006         5.17097
     2012.84052        -0.05393         5.14598
     2012.84325        -0.58381         5.14330
     2012.84599         2.13832         5.12723
     2012.84873         4.80845         5.13705
     2012.85147         7.36057         5.23704
     2012.85420        -2.25930         5.11294
     2012.85694         6.47582         5.12009
     2012.85968         1.68695         5.13348
     2012.86242         2.32707         5.08080
     2012.86516         5.47620         5.15937
     2012.86789        -0.11268         5.30132
     2012.87063         1.61945         5.06920
     2012.87337         0.84857         5.11473
     2012.87611         2.36070         5.06384
     2012.87885         4.72483         5.12991
     2012.88158         6.21995         5.06741
     2012.88432         8.26908         5.12276
     2012.88706         3.78720         5.38703
     2012.88980         8.26633         5.31293
     2012.89253        -3.51455         5.12544
     2012.89527         0.39658         5.13973
     2012.89801         3.02670         5.14687
     2012.90075         5.00083         5.22543
     2012.90349         4.00995         5.09687
     2012.90622         4.66208         5.11027
     2012.90896        -0.01480         5.34150
     2012.91170         1.04133         5.23258
     2012.91444         6.84146         5.24240
     2012.91718         7.74958         5.19240
     2012.91991         8.23271         5.28882
     2012.92265         4.76683         5.01206
     2012.92539         5.00296         5.16115
     2012.92813        -0.01492         5.02902
     2012.93086        -6.83579         5.11652
     2012.93360        -2.13767         5.07098
     2012.93634        -0.27654         4.96921
     2012.93908        -1.80442         5.01385
     2012.94182        -0.59029         5.07188
     2012.94455         6.49983         5.06652
     2012.94729         2.47696         5.09866
     2012.95003         0.04209         5.06473
     2012.95277         7.05721         4.97456
     2012.95551         9.08034         5.02724
     2012.95824         4.73446         5.00313
     2012.96098         8.53359         5.20847
     2012.96372        -3.76629         5.07902
     2012.96646         1.22184         4.97456
     2012.96919         4.76996         5.03616
     2012.97193         2.91409         5.16294
     2012.97467         0.67921         5.00849
     2012.97741         0.23334         5.01474
     2012.98015        -2.79553         4.97278
     2012.98288        -1.27241         5.01563
     2012.98562         4.47572         5.02277
     2012.98836        -1.65316         4.99420
     2012.99110         1.61897         4.94778
     2012.99384        -1.44491         4.95760
     2012.99657        -0.44978         4.98171
     2012.99931         2.70234         5.05313
     2013.00205         3.63947         4.97635
     2013.00479        -0.10841         4.97992
     2013.00752         3.99572         5.11294
     2013.01026        -4.03416         5.04331
     2013.01300         1.46797         5.12009
     2013.01574         4.72310         5.02813
     2013.01848        -0.09978         5.02902
     2013.02121        -5.52865         5.00402
     2013.02395        -1.32453         5.10402
     2013.02669       -11.10440         5.21026
     2013.02943        -4.44428         5.07009
     2013.03216        -4.12015         5.00313
     2013.03490        -2.65303         5.02456
     2013.03764        -2.66290         5.05491
     2013.04038        -9.47578         5.01474
     2013.04312        -4.04665         5.16562
     2013.04585        -5.41753         5.13616
     2013.04859        -4.88340         5.13169
     2013.05133        -0.86427         4.99063
     2013.05407        -1.01015         4.98706
     2013.05681         2.13298         5.06741
     2013.05954        -3.95390         5.05848
     2013.06228        -8.10777         5.17187
     2013.06502        -2.59765         5.14241
     2013.06776        -0.22752         5.08973
     2013.07049         0.92960         5.02902
     2013.07323         1.59073         5.06563
     2013.07597        -7.56315         5.04509
     2013.07871        -3.07802         5.04509
     2013.08145        -3.37289         4.94867
     2013.08418        -5.43277         4.96831
     2013.08692        -3.78064         4.99688
     2013.08966        -7.31852         4.96921
     2013.09240        -6.25139         4.99778
     2013.09514         1.43673         5.11473
     2013.09787        -1.24914         5.22276
     2013.10061        -6.86402         5.36471
     2013.10335       -10.36589         5.10669
     2013.10609        -3.58477         5.01831
     2013.10882        -0.09564         4.96742
     2013.11156        -8.96452         5.05938
     2013.11430        -5.16439         5.04777
     2013.11704       -10.98026         5.12544
     2013.11978        -8.29914         5.18169
     2013.12251        -5.59801         5.01117
     2013.12525        -8.44189         5.03884
     2013.12799        -3.31876         5.07813
     2013.13073        -2.98464         5.05848
     2013.13347         0.52249         5.20579
     2013.13620        -9.71839         5.07098
     2013.13894         0.91574         5.03706
     2013.14168        -0.05214         5.09687
     2013.14442        -7.58801         5.32900
     2013.14715        -3.21289         5.40131
     2013.14989       -13.49076         5.05313
     2013.15263        -8.15363         5.04331
     2013.15537       -15.45951         5.01742
     2013.15811        -2.92838         5.21651
     2013.16084        -8.14826         5.01117
     2013.16358        -9.27613         5.01742
     2013.16632        -9.92801         5.02902
     2013.16906        -0.94888         4.98974
     2013.17180        -2.56876         5.04956
     2013.17453        -6.59863         4.99331
     2013.17727        -4.50951         5.09152
     2013.18001        -5.76738         5.16651
     2013.18275        -5.99425         4.96474
     2013.18548        -8.05713         5.06473
     2013.18822        -7.59200         5.01920
     2013.19096        -6.35888         5.00313
     2013.19370        -4.56675         4.98974
     2013.19644        -2.95963         5.05938
     2013.19917       -10.27250         5.08080
     2013.20191        -6.01638         5.05491
     2013.20465         0.40675         5.01027
     2013.20739        -3.44513         4.99778
     2013.21013         0.45700         5.02456
     2013.21286        -5.25188         4.98617
     2013.21560        -5.69475         5.06473
     2013.21834        -5.33262         4.96742
     2013.22108        -9.59050         4.94778
     2013.22381        -7.04837         5.03081
     2013.22655        -7.55125         5.04152
     2013.22929        -2.18812         5.10669
     2013.23203        -8.67200         4.98081
     2013.23477        -5.57687         4.98528
     2013.23750        -4.75175         5.10045
     2013.24024        -5.37862         5.11294
     2013.24298        -4.75550         5.10402
     2013.24572         5.60163         5.10045
     2013.24846        -2.55325         5.03081
     2013.25119        -5.70412         5.05402
     2013.25393        -5.74599         5.14955
     2013.25667        -5.99987         5.28793
     2013.25941        -3.34774         5.12991
     2013.26214        -2.42862         5.06295
     2013.26488         4.60151         5.18258
     2013.26762        -2.80437         5.12009
     2013.27036        -6.29624         5.09420
     2013.27310        -1.28612         5.30936
     2013.27583        -0.70499         5.13705
     2013.27857        -3.65287         5.10580
     2013.28131         0.85126         5.03795
     2013.28405        -2.82061         5.08616
     2013.28679        -3.52249         5.08795
     2013.28952        -7.43536         5.19329
     2013.29226        -7.26824         5.08170
     2013.29500        -6.98511         5.05045
     2013.29774       -10.36399         5.12634
     2013.30047        -8.15086         5.11919
     2013.30321       -11.27274         5.09420
     2013.30595        -8.24161         5.10312
     2013.30869        -3.14949         5.03974
     2013.31143        -4.56136         5.04599
     2013.31416        -1.09924         5.08438
     2013.31690        -1.92811         5.14419
     2013.31964        -5.85998         5.09152
     2013.32238        -9.56086         5.10312
     2013.32512        -8.70773         5.11741
     2013.32785        -1.54661         5.07188
     2013.33059        -5.96248         5.10045
     2013.33333        -1.95936         5.09955
     2013.33607        -8.62323         5.06652
     2013.33880        -9.41711         5.06116
     2013.34154        -4.90798         5.08080
     2013.34428        -3.46386         5.12723
     2013.34702        -3.92473         5.11384
     2013.34976        -2.82361         5.06741
     2013.35249        -8.45548         5.03259
     2013.35523       -11.75835         5.23347
     2013.35797        -4.46723         5.14687
     2013.36071         0.50990         5.36203
     2013.36344        -2.42598         5.13526
     2013.36618        -5.67085         5.09241
     2013.36892        -2.34873         5.06831
     2013.37166        -8.68360         5.23436
     2013.37440        -4.27448         5.02902
     2013.37713        -6.53635         5.09420
     2013.37987        -6.77823         5.05938
     2013.38261        -7.30910         5.07277
     2013.38535        -2.35097         5.18794
     2013.38809        -7.98285         5.09777
     2013.39082        -6.42672         5.09955
     2013.39356        -7.84760         5.07991
     2013.39630        -6.80547         5.08527
     2013.39904        -9.47135         5.03527
     2013.40177         0.74878         5.17633
     2013.40451        -9.41910         5.11562
     2013.40725       -11.09297         5.22543
     2013.40999        -6.63685         5.05313
     2013.41273        -2.60772         5.07098
     2013.41546        -5.49960         5.12544
     2013.41820        -7.37347         5.15401
     2013.42094        -0.10534         5.11919
     2013.42368        -9.93122         5.06473
     2013.42642        -5.75309         5.11384
     2013.42915        -0.87897         5.03527
     2013.43189        -6.37084         5.13080
     2013.43463        -5.06672         5.13437
     2013.43737        -4.30959         5.08973
     2013.44010        -4.34447         5.05759
     2013.44284        -2.67034         5.04956
     2013.44558        -4.28822         5.15401
     2013.44832       -13.07909         5.09955
     2013.45106        -9.15297         5.18169
     2013.45379        -2.85784         5.06831
     2013.45653        -4.49071         5.10491
     2013.45927       -10.57859         5.16830
     2013.46201        -9.26746         5.08795
     2013.46475        -5.72034         5.08884
     2013.46748        -6.58621         5.10134
     2013.47022        -5.24209         5.08616
     2013.47296        -6.90796         5.08795
     2013.47570        -6.02184         5.22097
     2013.47843        -3.04971         5.08170
     2013.48117         7.89441         5.13973
     2013.48391         1.66254         5.02992
     2013.48665        -6.93333         5.06027
     2013.48939         1.68779         5.06741
     2013.49212        -9.90408         5.06831
     2013.49486        -0.36596         5.08438
     2013.49760         8.33317         5.13526
     2013.50034        -2.98271         5.05313
     2013.50308        -2.51558         5.10045
     2013.50581         3.60654         5.08705
     2013.50855         4.35567         5.04688
     2013.51129         3.16979         5.00224
     2013.51403        -3.28708         5.03616
     2013.51676        -0.90896         5.06563
     2013.51950        -5.53983         5.18972
     2013.52224        -1.88170         5.07991
     2013.52498        11.81142         5.32007
     2013.52772         2.01355         5.08705
     2013.53045        -6.28133         5.09420
     2013.53319        -4.43120         5.27275
     2013.53593         5.81492         5.11830
     2013.53867        -5.23895         5.39506
     2013.54141        -4.33183         5.09420
     2013.54414         0.43930         5.11741
     2013.54688        -2.01458         5.08973
     2013.54962        -0.39945         5.04688
     2013.55236         3.18167         5.13526
     2013.55509        -0.67320         5.07188
     2013.55783         1.38993         5.09420
     2013.56057        -4.63595         5.37453
     2013.56331        -0.58182         5.18437
     2013.56605        -4.39270         5.11205
     2013.56878         6.30343         5.10937
     2013.57152         1.15455         5.07902
     2013.57426         4.94068         5.10759
     2013.57700        -0.96020         5.07277
     2013.57974        -0.67207         5.11830
     2013.58247         7.00105         5.07366
     2013.58521         0.99418         5.06384
     2013.58795         0.16731         5.07723
     2013.59069         8.37443         5.12634
     2013.59342         1.43156         5.06027
     2013.59616         3.04168         5.07545
     2013.59890         7.70581         5.17008
     2013.60164         3.80893         5.08973
     2013.60438         5.02606         5.33435
     2013.60711        -3.81382         5.26025
     2013.60985         0.84331         5.09152
     2013.61259         5.31043         5.05938
     2013.61533        17.27356         5.25668
     2013.61807         8.08168         5.30311
     2013.62080         6.69881         5.34685
     2013.62354        -0.36006         5.31650
     2013.62628        -1.74594         5.16205
     2013.62902         7.11119         5.15937
     2013.63175         5.44131         5.16383
     2013.63449         3.65344         5.21115
     2013.63723         6.15956         5.17901
     2013.63997         5.23969         5.22990
     2013.64271         1.61081         5.12455
     2013.64544         3.89394         5.12991
     2013.64818         7.08906         5.14508
     2013.65092        11.62519         5.23525
     2013.65366        11.90731         5.12991
     2013.65639         3.10344         5.09241
     2013.65913        19.71857         5.48880
     2013.66187         4.90369         5.14598
     2013.66461         4.94782         5.10759
     2013.66735        16.16794         5.19954
     2013.67008         4.19307         5.28971
     2013.67282         0.86519         5.41202
     2013.67556         8.86332         5.36381
     2013.67830         6.49344         5.11384
     2013.68104         8.22357         5.14866
     2013.68377        10.04469         5.09687
     2013.68651         9.98482         5.12812
     2013.68925         9.67694         5.13705
     2013.69199         8.88507         5.13348
     2013.69472        11.84720         5.09687
     2013.69746         2.14632         5.03706
     2013.70020        11.44945         5.05223
     2013.70294         8.94257         5.06295
     2013.70568         8.89970         5.11830
     2013.70841        11.73582         5.12098
     2013.71115        10.95195         5.13794
     2013.71389         4.59807         5.05223
     2013.71663         9.65720         5.21383
     2013.71937        15.51932         5.29953
     2013.72210        14.86845         5.18258
     2013.72484        18.93758         5.19687
     2013.72758         7.01470         5.07813
     2013.73032         1.55083         5.07723
     2013.73305         5.52895         5.08884
     2013.73579         4.72908         5.09866
     2013.73853         7.48720         5.13348
     2013.74127        10.66833         5.11384
     2013.74401         5.66845         5.35667
     2013.74674         2.94858         5.37988
     2013.74948         3.20670         5.13973
     2013.75222         0.52783         5.06027
     2013.75496         1.13195         5.10134
     2013.75770        -3.36092         5.07991
     2013.76043        -5.85579         5.06563
     2013.76317         2.42633         5.09777
     2013.76591         5.75146         5.32185
     2013.76865         1.84458         5.06831
     2013.77138         3.40571         5.05938
     2013.77412         2.10983         5.10312
     2013.77686        -0.35704         5.09062
     2013.77960        -1.51192         5.16740
     2013.78234        -3.88779         5.17097
     2013.78507        -3.01967         5.15669
     2013.78781        -8.37254         5.09509
     2013.79055        -1.65242         5.10223
     2013.79329         2.26271         5.11294
     2013.79603         4.00284         5.09955
     2013.79876        -3.33504         5.09777
     2013.80150         4.37709         5.18258
     2013.80424         9.27021         5.16205
     2013.80698         2.98434         5.07634
     2013.80971         6.51346         5.13616
     2013.81245         6.92259         5.11116
     2013.81519         4.04671         5.11116
     2013.81793         2.64684         5.09777
     2013.82067         5.40496         5.16919
     2013.82340         6.28709         5.06741
     2013.82614         3.08922         5.17455
     2013.82888         7.63834         5.11116
     2013.83162         6.61447         5.11027
     2013.83436         5.44459         5.23258
     2013.83709         7.19872         5.25132
     2013.83983         2.93484         5.23347
     2013.84257         1.81297         5.15312
     2013.84531         2.78109         5.24418
     2013.84804        -3.64878         5.13616
     2013.85078        -0.83266         5.25757
     2013.85352        -2.31053         5.16383
     2013.85626         0.92059         5.13616
     2013.85900         1.80472         5.19687
     2013.86173         2.77685         5.18258
     2013.86447        -2.75103         5.14955
     2013.86721         1.31310         5.15580
     2013.86995         0.01322         5.15580
     2013.87269         4.26335         5.14955
     2013.87542         7.70147         5.25757
     2013.87816         3.52060         5.13705
     2013.88090         2.53972         5.18704
     2013.88364        13.80385         5.33971
     2013.88637         2.85297         5.12544
     2013.88911        -3.52590         5.15758
     2013.89185        -1.87378         5.10134
     2013.89459        -0.55565         5.07545
     2013.89733        -1.22252         5.08795
     2013.90006        -1.18040         5.19240
     2013.90280        -9.69827         5.13169
     2013.90554        -5.18815         5.14866
     2013.90828         5.85698         5.15669
     2013.91102         0.30210         5.13526
     2013.91375         0.26223         5.16205
     2013.91649        -1.77865         5.16383
     2013.91923        -1.48952         5.24686
     2013.92197        -1.10840         5.19062
     2013.92470         0.66773         5.08705
     2013.92744        -0.75914         5.22454
     2013.93018        -0.14102         5.06563
     2013.93292         2.48211         5.04152
     2013.93566         3.49023         5.02992
     2013.93839         1.94236         5.06831
     2013.94113        -4.18752         5.13616
     2013.94387         1.05561         5.08973
     2013.94661        -0.03827         5.08438
     2013.94935        -1.30314         5.07277
     2013.95208         2.78598         5.05313
     2013.95482        -0.85389         5.10580
     2013.95756        -3.23377         5.14687
     2013.96030        -2.90264         5.09062
     2013.96303         1.28049         5.14419
     2013.96577         2.54461         5.07098
     2013.96851         7.10474         5.10223
     2013.97125         9.09586         5.18347
     2013.97399         0.84399         5.14062
     2013.97672        -8.11289         5.11830
     2013.97946        -0.08576         5.08348
     2013.98220         3.23036         5.10669
     2013.98494         3.51049         5.26650
     2013.98767        -7.42039         5.18258
     2013.99041         1.41174         5.13883
     2013.99315        -5.13914         5.11830
     2013.99589        -5.78201         5.14598
     2013.99863        -3.92288         5.11830
     2014.00410        -3.36263         5.15401
     2014.00684        12.85549         5.32543
     2014.00958         2.13362         5.15848
     2014.01232        -0.95526         5.18794
     2014.01505        -5.19513         5.26829
     2014.01779         0.59199         5.27543
     2014.02053         3.70112         5.10491
     2014.02327         0.49624         5.27989
     2014.02600        -2.07663         5.22454
     2014.02874        13.65850         5.36828
     2014.03148         5.11662         5.11294
     2014.03422         1.26975         5.08438
     2014.03696         1.84487         5.10759
     2014.03969         2.42200         5.11652
     2014.04243         2.07412         5.23347
     2014.04517         3.20025         5.24865
     2014.04791         0.39337         5.10669
     2014.05065         1.56850         5.12812
     2014.05338        -1.97938         5.13080
     2014.05612        -3.25425         5.12901
     2014.05886        -2.90913         5.08170
     2014.06160         5.25800         5.11919
     2014.06433        12.28913         5.42452
     2014.06707         3.35825         5.20133
     2014.06981         1.37638         5.10134
     2014.07255        -3.28350         5.09420
     2014.07529        -4.71037         5.09598
     2014.07802        -2.25325         5.10134
     2014.08076         7.42688         5.12098
     2014.08350         2.32900         5.05581
     2014.08624        -2.20087         5.14419
     2014.08900        -1.79075         5.35399
     2014.09171        -0.34962         5.33525
     2014.09445         4.54750         5.17812
     2014.09719        -0.90737         5.21204
     2014.09993         7.46676         5.11205
     2014.10266         2.64188         5.21204
     2014.10540         5.67401         5.18972
     2014.10814         4.83013         5.21204
     2014.11088         0.28826         5.27722
     2014.11362        -5.06162         5.10134
     2014.11635         0.10451         5.07455
     2014.11909        -2.89237         5.16562
     2014.12183         3.12276         5.17455
     2014.12457        12.23788         5.18526
     2014.12731         4.18201         5.19419
     2014.13004         3.95914         5.25757
     2014.13278         7.22926         5.26739
     2014.13552         2.35239         5.22365
     2014.13826         0.39251         5.18704
     2014.14099         1.09664         5.14866
     2014.14373        -1.12524         5.07723
     2014.14647         2.77689         5.14330
     2014.14921         4.54701         5.15223
     2014.15195         3.94314         5.18704
     2014.15468        -2.16474         5.21651
     2014.15742         1.01539         5.17187
     2014.16016         6.45251         5.31114
     2014.16290         3.05564         5.17365
     2014.16564         5.30477         5.11652
     2014.16837         0.84089         5.38881
     2014.17111         3.51202         5.48613
     2014.17385         4.20614         5.30043
     2014.17659        -1.95573         5.40042
     2014.17932         6.92339         5.58165
     2014.18206         3.53252         5.26739
     2014.18480        -0.96836         5.14508
     2014.18754        -3.11623         5.16383
     2014.19028        -0.59511         5.07723
     2014.19301        -5.63498         5.17812
     2014.19575        -2.96386         5.23436
     2014.19849         7.07827         5.18526
     2014.20123         1.87940         5.22990
     2014.20397        -0.94148         5.21204
     2014.20670        -2.20935         5.17455
     2014.20944         6.80277         5.17276
     2014.21218         4.46990         5.12812
     2014.21492         7.08702         5.36203
     2014.21765         1.09015         5.12991
     2014.22039         1.66427         5.10134
     2014.22313         2.73540         5.11830
     2014.22587         1.83052         5.12991
     2014.22861         3.69565         5.18883
     2014.23134         5.28978         5.15044
     2014.23408         4.33390         5.21651
     2014.23682         8.75003         5.23615
     2014.23956         5.01715         5.30221
     2014.24230        -0.29972         5.14598
     2014.24503        -0.39060         5.13080
     2014.24777         7.65753         5.46648
     2014.25051        -0.87735         5.16651
     2014.25325        -4.50722         5.16919
     2014.25598         0.41690         5.25757
     2014.25872        -4.54197         5.13080
     2014.26146        -1.26485         5.29775
     2014.26420         1.38728         5.22008
     2014.26694         2.46941         5.14687
     2014.26967         7.75053         5.25936
     2014.27241         0.42366         5.38971
     2014.27515        -1.52622         5.33346
     2014.27789        -2.34209         5.23079
     2014.28062        -1.16397         5.16919
     2014.28336         3.87516         5.15937
     2014.28610         9.37028         5.47006
     2014.28884        -0.17859         5.41917
     2014.29158        -5.03047         5.15937
     2014.29431         7.02066         5.31739
     2014.29705        10.15578         5.29061
     2014.29979        -6.19009         5.11562
     2014.30253         1.28204         5.28614
     2014.30527         2.02516         5.17008
     2014.30800         3.80529         5.24865
     2014.31074         3.38841         5.30846
     2014.31348        -3.50046         5.23704
     2014.31622         1.66666         5.15133
     2014.31895         2.23679         5.20311
     2014.32169        -0.14509         5.27543
     2014.32443        -3.98296         5.36381
     2014.32717        -6.00884         5.27989
     2014.32991         1.52129         5.16473
     2014.33264        -3.98358         5.20847
     2014.33538        -5.57446         5.26561
     2014.33812         0.12067         5.27900
     2014.34086         0.36079         5.16294
     2014.34360         2.46692         5.11919
     2014.34633        -2.01796         5.19776
     2014.34907         1.28717         5.37006
     2014.35181         1.60629         5.29507
     2014.35455         0.53642         5.22633
     2014.35728        -3.86246         5.10134
     2014.36002        -1.75833         5.33614
     2014.36276         2.01279         5.24418
     2014.36550         2.77392         5.23525
     2014.36824        -3.59695         5.19687
     2014.37097         0.23417         5.17187
     2014.37371        -0.69470         5.13526
     2014.37645        -9.09558         5.26025
     2014.37919        -0.52145         5.33435
     2014.38193         1.95367         5.35399
     2014.38466        -2.24920         5.19954
     2014.38740        -0.18108         5.16919
     2014.39014         2.25805         5.32989
     2014.39288        -1.67783         5.13437
     2014.39561         3.07030         5.26293
     2014.39835        -2.16258         5.23079
     2014.40109        -2.64945         5.15312
     2014.40383        -7.04032         5.18794
     2014.40657        -7.38520         5.16115
     2014.40930        -2.47607         5.16205
     2014.41204        -2.99795         5.12901
     2014.41478         0.19618         5.14508
     2014.41752         1.94930         5.09866
     2014.42026        -0.31057         5.13437
     2014.42299        -1.16345         5.11116
     2014.42573        -1.42632         5.18883
     2014.42847         6.73380         5.16205
     2014.43121        -3.10307         5.13169
     2014.43394         0.38606         5.16473
     2014.43668         4.03118         5.16830
     2014.43942         0.16931         5.12455
     2014.44216        -1.56857         5.14866
     2014.44490         6.17756         5.28168
     2014.44763        -0.48432         5.26382
     2014.45037        -3.86519         5.08348
     2014.45311        -1.01907         5.20936
     2014.45585        -0.37994         5.14866
     2014.45859        -2.71582         5.09598
     2014.46132        -0.17969         5.15669
     2014.46406         1.60243         5.21829
     2014.46680        -1.78444         5.19954
     2014.46954        -3.19431         5.19508
     2014.47227         4.27081         5.12901
     2014.47501         1.09394         5.14776
     2014.47775         4.98906         5.21829
     2014.48049        -1.44581         5.29239
     2014.48323         0.58031         5.22008
     2014.48596         0.52344         5.26918
     2014.48870         0.61756         5.20936
     2014.49144         4.53969         5.04241
     2014.49418         6.80981         5.08973
     2014.49692        -4.06906         5.11562
     2014.49965        -2.93694         5.15044
     2014.50239        -4.21181         5.12455
     2014.50513        10.38732         5.20401
     2014.50787         2.02944         5.12723
     2014.51060         2.08657         5.20669
     2014.51334         5.19569         5.14062
     2014.51608         8.44482         5.09330
     2014.51882         9.50494         5.11473
     2014.52156         9.12807         5.17901
     2014.52429         4.23019         5.20133
     2014.52703         8.24132         5.08527
     2014.52977         0.86744         5.27632
     2014.53251        -2.54543         5.10402
     2014.53525         0.09670         5.15490
     2014.53798         7.04882         5.13616
     2014.54072        12.99995         5.28704
     2014.54346         9.57707         5.20669
     2014.54620         1.37320         5.17365
     2014.54893         3.03832         5.16651
     2014.55167         4.33345         5.13616
     2014.55441        -2.39343         5.17722
     2014.55715        -8.39730         5.28346
     2014.55989         3.51082         5.13705
     2014.56262         4.95195         5.16026
     2014.56536        -1.25993         5.13705
     2014.56810         2.29920         5.17901
     2014.57084        10.16033         5.06563
     2014.57357         1.90645         5.14776
     2014.57631         4.68958         5.21829
     2014.57905        -4.36730         5.26918
     2014.58179         4.57383         5.25490
     2014.58453         1.01295         5.29329
     2014.58726         8.13908         5.43345
     2014.59000         5.75520         5.22811
     2014.59274         2.43333         5.36024
     2014.59548         2.22345         5.26561
     2014.59822        -0.42142         5.27364
     2014.60095         6.73470         5.24240
     2014.60369         9.03383         5.21294
     2014.60643         0.17596         5.20669
     2014.60917         4.87008         5.23793
     2014.61190         9.80421         5.37364
     2014.61464         9.91933         5.18169
     2014.61738         7.90146         5.31382
     2014.62012         8.37058         5.35489
     2014.62286         7.34471         5.33703
     2014.62559         9.20383         5.20222
     2014.62833         5.38396         5.14419
     2014.63107         7.05008         5.31739
     2014.63381         4.48521         5.35042
     2014.63655         8.40034         5.32453
     2014.63928         7.11746         5.32453
     2014.64202         4.98059         5.15848
     2014.64476         3.01571         5.29686
     2014.64750         8.67984         5.14776
     2014.65023        -3.65604         5.22008
     2014.65297         4.31409         5.15401
     2014.65571         4.84521         5.17276
     2014.65845         9.42534         5.12812
     2014.66119         4.73546         5.23525
     2014.66392        11.30259         5.20133
     2014.66666         7.64471         5.24240
     2014.66940         6.37484         5.23436
     2014.67214        11.27497         5.17276
     2014.67488         3.00909         5.16830
     2014.67761         4.59322         5.17812
     2014.68035         6.81734         5.26472
     2014.68309         3.89747         5.20936
     2014.68583         2.98659         5.16830
     2014.68856         5.50972         5.14062
     2014.69130         7.38384         5.16562
     2014.69404         2.73497         5.19776
     2014.69678         2.01509         5.23704
     2014.69952         8.86522         5.21294
     2014.70225         6.88734         5.14598
     2014.70499         2.73547         5.18258
     2014.70773         5.66560         5.18883
     2014.71047         8.37772         5.22722
     2014.71321         7.55385         5.19597
     2014.71594        11.06797         5.21472
     2014.71868         5.87310         5.09152
     2014.72142         8.95222         5.15044
     2014.72416         9.19735         5.20222
     2014.72689         9.80547         5.30757
     2014.72963         7.34260         5.25132
     2014.73237         8.71072         5.21561
     2014.73511         0.31285         5.10223
     2014.73785         3.15398         5.11027
     2014.74058         5.47210         5.16205
     2014.74332        10.26723         5.27007
     2014.74606        12.95235         5.17008
     2014.74880         5.93048         5.16026
     2014.75154         2.45960         5.27097
     2014.75427         2.11373         5.13080
     2014.75701         2.34085         5.16115
     2014.75975         5.69098         5.11741
     2014.76249         9.14710         5.21740
     2014.76522         4.54523         5.22633
     2014.76796         7.69635         5.17544
     2014.77070         4.77348         5.12901
     2014.77344         5.94161         5.07813
     2014.77618         5.24173         5.16740
     2014.77891         3.65886         5.10669
     2014.78165         3.79998         5.14419
     2014.78439        13.08511         5.28525
     2014.78713         4.82623         5.16205
     2014.78987         0.31036         5.07366
     2014.79260         0.42948         5.11027
     2014.79534         1.71661         5.14598
     2014.79808        -2.83627         5.24329
     2014.80082        -2.04014         5.37453
     2014.80355         2.47798         5.25490
     2014.80629         7.64211         5.20490
     2014.80903         4.20324         5.22097
     2014.81177         7.03536         5.15937
     2014.81451        20.73149         5.31828
     2014.81724         2.13661         5.22365
     2014.81998        10.75874         5.12901
     2014.82272        12.55186         5.47095
     2014.82546         9.99099         5.15580
     2014.82820         6.52011         5.29239
     2014.83093         4.59524         5.25222
     2014.83367         2.74436         5.21383
     2014.83641         0.59249         5.21204
     2014.83915         2.80462         5.22276
     2014.84188         5.67874         5.20758
     2014.84462         2.73987         5.28525
     2014.84736         5.68999         5.44149
     2014.85010         0.05112         5.32364
     2014.85284         2.39024         5.18437
     2014.85557         6.24937         5.42006
     2014.85831         9.44749         5.22276
     2014.86105         0.86662         5.20401
     2014.86379        -0.47126         5.22990
     2014.86653         3.70887         5.35042
     2014.86926        -0.73001         5.13973
     2014.87200         4.55012         5.16562
     2014.87474        -1.70475         5.19954
     2014.87748         3.07637         5.24240
     2014.88021         6.75950         5.18169
     2014.88295         5.60562         5.23525
     2014.88569        -0.06925         5.38167
     2014.88843         9.27587         5.50934
     2014.89117         4.82500         5.68879
     2014.89390         3.74512         5.35757
     2014.89664         6.76825         5.34774
     2014.89938        -1.04663         5.29329
     2014.90212         1.05150         5.37810
     2014.90485         8.41162         5.42452
     2014.90759         3.98775         5.38078
     2014.91033         5.81588         5.24686
     2014.91307         6.99100         5.19240
     2014.91581         6.01713         5.26739
     2014.91854        11.33125         5.24418
     2014.92128        -0.58462         5.19865
     2014.92402         2.98950         5.19419
     2014.92676         5.18563         5.26829
     2014.92950        -4.10025         5.28882
     2014.93223        -4.10412         5.39506
     2014.93497         7.22900         5.36024
     2014.93771       -12.01187         5.33167
     2014.94045         2.82525         5.36203
     2014.94318         5.43338         5.74860
     2014.94592         4.97851         5.19776
     2014.94866         2.50863         5.15937
     2014.95140        -3.40624         5.06741
     2014.95414         4.16288         5.10580
     2014.95687        -0.41799         5.18883
     2014.95961         2.93213         5.30311
     2014.96235        10.14826         5.29775
     2014.96509        -4.32962         5.21740
     2014.96783        -5.13649         5.12455
     2014.97056        -5.36937         5.09866
     2014.97330        -5.28624         5.13705
     2014.97604        -7.45011         5.08080
     2014.97878        -6.50999         5.15223
     2014.98151         5.34714         5.28971
     2014.98425         0.12526         5.06384
     2014.98699        -0.68561         5.06473
     2014.98973        -3.47049         5.09687
     2014.99247        -4.71836         5.11116
     2014.99520        -3.64524         5.13259
     2014.99794         5.84489         5.09062
     2015.00068        -3.12499         5.08616
     2015.00342        -3.94486         5.08973
     2015.00616        -8.31374         5.09598
     2015.00889        -6.35161         5.23704
     2015.01163        -7.43348         5.14062
     2015.01437        -6.12936         5.14776
     2015.01711        -1.46723         5.21294
     2015.01984         0.50689         5.21294
     2015.02258         5.57202         5.31739
     2015.02532         6.66814         5.25400
     2015.02806         2.04427         5.14598
     2015.03080         4.03739         5.15758
     2015.03353         3.39552         5.23525
     2015.03627        -2.08936         5.20758
     2015.03901        -1.35423         5.20490
     2015.04175         6.59089         5.23972
     2015.04449        -3.13298         5.34596
     2015.04722        -9.48985         5.35221
     2015.04996        -0.10973         5.22276
     2015.05270        -4.20760         5.19687
     2015.05544        -3.98348         5.28971
     2015.05817        -0.28835         5.30132
     2015.06091        -5.21723         5.22186
     2015.06365         4.35290         5.30043
     2015.06639        -0.17698         5.23079
     2015.06913        -4.50985         5.19419
     2015.07186        -4.69873         5.28525
     2015.07460        -3.32660         5.22633
     2015.07734        -6.65447         5.09509
     2015.08008        -6.94635         5.06116
     2015.08282        -5.88522         5.08616
     2015.08555        -9.99610         5.16562
     2015.08829         0.28703         5.21294
     2015.09103        -3.43585         5.11741
     2015.09377         3.07328         5.22365
     2015.09650         3.84240         5.21918
     2015.09924        14.85953         5.35578
     2015.10198        -6.14935         5.31739
     2015.10472         0.83578         5.25579
     2015.10746         0.53590         5.20133
     2015.11019       -14.57997         5.28436
     2015.11293        -3.18084         5.22276
     2015.11567        -0.43772         5.16383
     2015.11841        -5.12459         5.17544
     2015.12115         2.80253         5.17544
     2015.12388        -4.99334         5.18437
     2015.12662        -8.60722         5.11919
     2015.12936        -1.57309         5.19508
     2015.13210        -1.27997         5.18794
     2015.13483        -8.61784         5.21204
     2015.13757        -5.78572         5.22454
     2015.14031        -0.74559         5.16830
     2015.14305         0.89853         5.19062
     2015.14579        -2.18034         5.14776
     2015.14852        -2.26721         5.20758
     2015.15126        -6.37309         5.17455
     2015.15400        -4.02496         5.19865
     2015.15674        -0.24084         5.18704
     2015.15948         0.31729         5.19062
     2015.16221        -2.63359         5.16383
     2015.16495         0.28354         5.14955
     2015.16769         1.42466         5.16473
     2015.17043        -3.38821         5.15669
     2015.17316        -2.59809         5.37364
     2015.17590        -3.24896         5.33525
     2015.17864        -1.48583         5.19865
     2015.18138         4.10529         5.13705
     2015.18412         0.89342         5.15401
     2015.18685         1.56254         5.20133
     2015.18959         1.18667         5.32275
     2015.19233         2.73779         5.30578
     2015.19507         5.15992         5.22543
     2015.19780         0.12204         5.33525
     2015.20054        -6.56583         5.24865
     2015.20328        -2.87771         5.10402
     2015.20602         0.88142         5.18347
     2015.20876        -5.85146         5.15669
     2015.21149        -2.58833         5.15223
     2015.21423        -1.69720         5.58701
     2015.21697        -1.25308         5.18883
     2015.21971        -5.86995         5.20133
     2015.22245         3.37617         5.17008
     2015.22518        -3.18170         5.22901
     2015.22792         0.76642         5.14866
     2015.23066         1.52155         5.16383
     2015.23340        -3.64133         5.40488
     2015.23613        -1.22320         5.35757
     2015.23887        -5.23208         5.42899
     2015.24161         6.02005         5.45309
     2015.24435         5.42617         5.49862
     2015.24709         1.55530         5.29775
     2015.24982         2.74943         5.19240
     2015.25256         1.99855         5.15044
     2015.25530        -0.13532         5.16740
     2015.25804        -1.76520         5.10580
     2015.26078         5.80193         5.18347
     2015.26351         5.45605         5.16205
     2015.26625         1.16518         5.16651
     2015.26899         0.96330         5.21561
     2015.27173        -0.34857         5.27097
     2015.27446        11.05955         5.29061
     2015.27720        -0.11832         5.13526
     2015.27994        -3.42619         5.19062
     2015.28268        -0.13207         5.16562
     2015.28542         2.81806         5.26739
     2015.28815        -6.02582         5.23793
     2015.29089         0.20931         5.14955
     2015.29363        -0.42257         5.10045
     2015.29637        -3.92244         5.08705
     2015.29911        -2.25532         5.12455
     2015.30184         8.30381         5.14598
     2015.30458         5.27493         5.15044
     2015.30732        -2.38694         5.02813
     2015.31006        -2.65682         5.01206
     2015.31279        -2.14269         4.98081
     2015.31553         0.93044         5.03795
     2015.31827        -0.87444         5.05670
     2015.32101         3.40169         5.11830
     2015.32375         1.00681         5.03884
     2015.32648        -3.75106         5.14508
     2015.32922        -0.75194         5.16115
     2015.33196         2.03919         5.02009
     2015.33470         3.56931         4.97546
     2015.33744        -3.41856         4.93617
     2015.34017        -5.00944         4.95671
     2015.34291        -5.72531         5.08973
     2015.34565         1.54981         5.05134
     2015.34839         3.60794         5.02009
     2015.35112        -5.55893         4.92546
     2015.35386         7.64519         5.01563
     2015.35660        -3.16768         5.02009
     2015.35934        -4.76056         5.12812
     2015.36208         0.71457         5.07188
     2015.36481         2.79269         4.98617
     2015.36755         0.90982         4.91475
     2015.37029         0.36894         4.97188
     2015.37303         4.00607         5.04599
     2015.37577        -6.12481         4.95224
     2015.37850        -3.08868         5.07902
     2015.38124        -3.08155         4.95939
     2015.38398        -5.16143         4.95314
     2015.38672        -3.42130         4.96474
     2015.38945        -4.10618         4.99510
     2015.39219        -0.89705         5.00670
     2015.39493        -0.32893         5.09330
     2015.39767        -1.12580         5.05134
     2015.40041        -2.11668         5.01385
     2015.40314        -2.15955         5.16473
     2015.40588        -1.37043         5.03974
     2015.40862         0.70870         5.03081
     2015.41136         1.26082         5.06116
     2015.41410        -7.34805         5.13526
     2015.41683        -3.75392         5.01920
     2015.41957        -5.00380         4.98795
     2015.42231        -1.58067         4.99867
     2015.42505        -2.49955         5.10402
     2015.42778        -5.10042         5.04599
     2015.43052        -2.34330         4.97724
     2015.43326        -0.11017         5.05848
     2015.43600        -0.19505         5.08438
     2015.43874         8.06908         5.03527
     2015.44147         2.10920         5.27543
     2015.44421        -1.97767         5.02813
     2015.44695         1.34645         5.00670
     2015.44969        -2.53142         5.06384
     2015.45243         1.08871         5.11205
     2015.45516         2.05583         5.03081
     2015.45790         2.33396         5.17187
     2015.46064        -4.71792         5.18437
     2015.46338        -1.06979         5.16026
     2015.46611         8.26933         5.10937
     2015.46885         2.43646         5.07366
     2015.47159         8.34358         5.07098
     2015.47433        -5.09529         5.21918
     2015.47707         0.68383         5.16562
     2015.47980         0.78396         5.10759
     2015.48254        10.91309         5.08616
     2015.48528         5.64721         5.09509
     2015.48802         1.75634         5.08438
     2015.49076        -3.37354         5.04777
     2015.49349         0.20659         5.11652
     2015.49623        11.62971         5.25043
     2015.49897         8.02184         5.17901
     2015.50171         2.77796         5.02724
     2015.50444         6.09709         5.18883
     2015.50718        -4.16479         5.07634
     2015.50992         7.93434         5.05402
     2015.51266         7.24646         5.11741
     2015.51540         0.97559         5.08348
     2015.51813         2.91872         5.11205
     2015.52087         5.40984         5.10580
     2015.52361         7.32997         5.19597
     2015.52635         2.80409         5.05045
     2015.52908         2.40322         5.06295
     2015.53182         8.40834         5.07902
     2015.53456         0.58547         5.04509
     2015.53730        -0.06841         5.12098
     2015.54004         7.47872         5.16473
     2015.54277         7.34484         5.17633
     2015.54551        12.58097         5.14330
     2015.54825         3.51009         5.17990
     2015.55099        11.02222         5.20579
     2015.55373         8.29035         5.22722
     2015.55646        13.55247         5.24597
     2015.55920         8.82760         5.18080
     2015.56194        11.81472         5.20222
     2015.56468         6.89785         5.25132
     2015.56741         5.75297         5.11205
     2015.57015        10.10910         5.26739
     2015.57289        14.60322         5.31382
     2015.57563         4.24635         5.07455
     2015.57837        10.40947         5.17901
     2015.58110        10.78360         5.26204
     2015.58384         9.65973         5.18794
     2015.58658        17.23385         5.18169
     2015.58932         6.28398         5.14776
     2015.59206         6.30610         5.19508
     2015.59479        10.04023         5.18883
     2015.59753         1.90935         5.17633
     2015.60027         5.19248         5.31203
     2015.60301         9.22360         5.47184
     2015.60574         1.26773         5.23972
     2015.60848        16.38385         5.19151
     2015.61123         5.86698         5.18794
     2015.61396        14.14010         5.14508
     2015.61943         6.02736         5.01117
     2015.62217        10.80148         5.02902
     2015.62491        13.35361         5.03438
     2015.62765        13.15073         5.00670
     2015.63039        10.80886         5.01831
     2015.63312         6.57398         5.23883
     2015.63586         6.00411         5.14241
     2015.63860        11.16823         5.07723
     2015.64134         3.96936         5.03706
     2015.64407         0.38848         4.95760
     2015.64681         5.84361         5.16740
     2015.64955         3.50373         5.16294
     2015.65229         5.84886         5.11116
     2015.65503        14.48799         5.07545
     2015.65776        11.67311         5.32185
     2015.66050         7.03424         5.12098
     2015.66324         4.62736         4.98528
     2015.66598        10.24049         5.17365
     2015.66872         5.29661         5.26472
     2015.67145         6.48374         4.99688
     2015.67419         4.25386         4.96831
     2015.67693        10.28499         5.04152
     2015.67967        10.78811         5.02724
     2015.68240         4.43724         5.02634
     2015.68514        10.75337         5.02902
     2015.68788         6.62349         4.98974
     2015.69062         6.29462         4.99688
     2016.42162        -4.92790         5.00492
     2016.42436        -8.00778         5.01831
     2016.42710        -5.42965         4.94867
     2016.42984       -16.26352         5.01027
     2016.43258        -7.63940         4.96296
     2016.43531        -3.45227         4.99956
     2016.43805        -3.78915         4.93350
     2016.44079        -9.39402         4.97992
     2016.44353        -8.18290         4.91653
     2016.44626       -11.53077         4.85582
     2016.44900        -9.70565         4.94778
     2016.45174        -5.12752         4.92903
     2016.45448        -5.72040         4.92189
     2016.45722        -5.42227         4.93171
     2016.45995        -2.25515         4.96831
     2016.46269        -8.31202         4.90760
     2016.46543        -5.19089         4.87189
     2016.46817        -3.09777         4.92189
     2016.47091        -0.29864         4.91743
     2016.47364        -5.44352         4.92278
     2016.47638        -6.35039         4.99867
     2016.47912        -2.98027         4.97813
     2016.48186        -2.36314         4.87368
     2016.48459        -0.54502         4.95581
     2016.48733        -6.97989         4.88707
     2016.49007        -2.25777         4.88975
     2016.49281        -1.72464         4.90314
     2016.49555        -5.01752         4.82547
     2016.49828        -2.73939         5.00402
     2016.50102        -2.56126         4.96921
     2016.50376        -4.41414         5.11116
     2016.50650        -4.25401         5.09509
     2016.50924        -5.28689         4.92278
     2016.51197        -5.25676         4.94599
     2016.51471        -4.54064         4.92725
     2016.51745        -6.66751         5.08884
     2016.52019        -5.70439         4.96296
     2016.52292       -16.02426         4.91743
     2016.52566         1.39886         4.93974
     2016.52840        -1.04001         4.92635
     2016.53114        -6.09488         4.91921
     2016.53388        -5.52676         4.86475
     2016.53661        -2.56163         4.92100
     2016.53935        -1.22851         4.84243
     2016.54209        -1.79838         4.89332
     2016.54483         0.46574         4.90939
     2016.54757        -4.57913         4.89600
     2016.55030         1.19099         5.05491
     2016.55304         3.97712         4.89243
     2016.55578         1.20824         4.95849
     2016.55852         3.53537         4.89868
     2016.56125        -0.94351         4.89868
     2016.56399         0.86762         4.91296
     2016.56673         3.63575         5.01920
     2016.56947         0.06687         4.99867
     2016.57221         2.47700         4.90136
     2016.57494         3.76512         5.00135
     2016.57768         0.89525         4.92367
     2016.58042        -1.32263         4.88261
     2016.58316         1.95950         4.85493
     2016.58590        -0.64738         4.86207
     2016.58863        -1.10225         4.85493
     2016.59137         2.54387         4.87457
     2016.59411        -0.56200         4.87993
     2016.59685         3.97612         4.89778
     2016.59958        -0.56475         4.91296
     2016.60232         0.80838         4.91475
     2016.60506         1.77250         4.95135
     2016.60780        -0.85937         4.97903
     2016.61054         3.91875         4.85850
     2016.61327        -4.03512         4.85493
     2016.61601        -4.81300         4.85939
     2016.61875         1.79613         4.89778
     2016.62149        -1.90275         4.82993
     2016.62423         6.66438         4.95492
     2016.62696         4.69750         4.93617
     2016.62970        -2.29437         4.83172
     2016.63244        -7.78824         4.93974
     2016.63518         1.05388         4.82368
     2016.63791        10.51101         4.89778
     2016.64065         6.07213         4.81029
     2016.64339         1.17626         4.86029
     2016.64613         5.05238         4.88350
     2016.64887         1.22351         4.87279
     2016.65160         3.21563         4.95671
     2016.65434         6.19676         4.84957
     2016.65708        -2.55112         4.84600
     2016.65982        -2.73399         4.84868
     2016.66256        -6.40887         4.99867
     2016.66529        -2.87474         4.95581
     2016.66803         5.46639         4.91028
     2016.67077         2.17251         5.01742
     2016.67351         2.77564         4.83797
     2016.67624         8.77476         4.91832
     2016.67898         3.75189         4.90314
     2016.68172         9.46101         4.89332
     2016.68446         5.80914         5.07188
     2016.68720         0.62126         5.12991
     2016.68993         1.93539         4.91653
