# ================= DQRFIT RESULTS ================
# INPUT FILE: series/P260.rad
# OUTPUT: LDETRENDED
# FILTER FUNCTION: f(t)
# f(t)=+line(t)
# line(t)=+P 1+P 2*t
# heav(t)=(t<0?0:1)
# TOTAL OBSERVATIONS MTOT=  845
# INITIAL TIME INTERVAL= 2007.9304 - 2005.5578 =  2.3726
# TOTAL OBSERVATIONS AFTER PREFILTER M=  845
# TIME-SPAN= 2007.9304 - 2005.5578 =  2.3726
# OBSERVATIONS: USED M=   845 REJECTED MTOT-M=     0 %USED=  100.0000
# N=  2 PARAMETERS
# MAXSIG= 175.00000
# MAXRES=  14.42490
# SCALE FACTOR FOR LENGTHS: SCL=  10.00000
# SCALE FACTOR FOR SIGMAS: SCLSIG=   1.00000
# CHI^2=    477.870 DOF=   843 CHI^2/DOF=   0.56687
# RMS=      4.448 SDEV=      4.450 MEAN=    0.03729
#  P #       PARAMETER +-    SIGMA %error PARAMETER NAME
# P 1 =     -2344.05176 +-  442.193  18.86 YZERO                              
# P 2 =         1.16899 +-    0.220  18.85 SLOPE                              
#       T            LDETRENDED       SIG_OBS
     2005.55783         3.31175         4.39999
     2005.56057         4.58155         4.45646
     2005.56331         0.60335         4.50916
     2005.56605        -4.96385         4.63038
     2005.56878         0.68995         4.67781
     2005.57152        -1.77225         4.76063
     2005.57426         5.46955         4.48958
     2005.57700        -1.18465         4.59273
     2005.57974        -3.57385         4.57542
     2005.58247         8.24995         4.51895
     2005.58508         7.15590         4.69287
     2005.59354        -1.35699         4.55735
     2005.59616         5.40794         4.36159
     2005.59890         3.09574         4.37062
     2005.60164        -2.78146         4.40827
     2005.60438        -0.44066         4.37288
     2005.60711         1.18614         4.38493
     2005.60985         3.82994         4.48055
     2005.61259        -1.08126         4.50012
     2005.61533         1.39854         4.36084
     2005.61807        -6.44666         4.51594
     2005.62080        -0.16486         4.43763
     2005.62354        -1.88306         4.58445
     2005.62628         3.35174         4.40752
     2005.62902        -2.33346         4.44140
     2005.63175         3.26334         4.41279
     2005.63449        -0.10586         4.45947
     2005.63723         1.30094         4.41053
     2005.63997         3.06574         4.39773
     2005.64271         3.66054         4.40902
     2005.64544         1.26333         4.40902
     2005.64818        -5.76787         4.38644
     2005.65092         1.75293         4.49787
     2005.65366         0.14573         4.45119
     2005.65639        -3.13147         4.35707
     2005.65913         0.84733         4.46474
     2005.66187         2.50013         4.38192
     2005.66461         3.55293         4.42935
     2005.66735         4.77173         4.38568
     2005.67008         4.41553         4.39321
     2005.67282         0.93433         4.36084
     2005.67556         2.66913         4.42032
     2005.67830        -3.30107         4.40451
     2005.68104        -3.15127         4.40074
     2005.68377        -0.58147         4.42333
     2005.68651        -3.01867         4.47678
     2005.68925        -7.26087         4.51895
     2005.69199        -3.58307         4.56864
     2005.69472         1.74673         4.45796
     2005.69746         0.13452         4.43989
     2005.70020         3.10432         4.63113
     2005.70294         0.55412         4.56412
     2005.70568        -1.51408         4.55132
     2005.70841        -6.25728         4.62737
     2005.71115         2.48852         4.44140
     2005.71389         2.03132         4.34352
     2005.71663        -1.65888         4.54982
     2005.71937        -3.04708         4.43387
     2005.72210         0.41672         4.54906
     2005.72484        -2.29548         4.35858
     2005.72758       -11.59268         4.49184
     2005.73032         2.96012         4.46398
     2005.73305         3.47792         4.49787
     2005.73579         2.57272         4.70868
     2005.73853         0.66652         4.48582
     2005.74127         7.08732         4.42258
     2005.74401         7.04512         4.46926
     2005.74674         6.21592         4.37364
     2005.74948         8.60371         4.41053
     2005.75222         4.07351         4.53928
     2005.75496         0.23431         4.54530
     2005.75770        -2.25889         4.41580
     2005.76043         4.61691         4.39622
     2005.76317         5.90971         4.36837
     2005.76591        10.57451         4.43537
     2005.76865        12.18231         4.44968
     2005.77138         5.38111         4.35632
     2005.77412         8.25891         4.38418
     2005.77686         8.27571         4.48281
     2005.77960         5.03151         4.44817
     2005.78234         5.15631         4.38418
     2005.78507         3.69011         4.39095
     2005.78781        12.02491         4.65447
     2005.79055         7.36371         4.37138
     2005.79329        11.33851         4.37439
     2005.79603         6.06331         4.48808
     2005.79876         3.93911         4.51217
     2005.80150         4.49390         4.43989
     2005.80424         4.28970         4.44441
     2005.80698         4.72650         4.36686
     2005.80971         7.49330         4.32696
     2005.81245         4.98010         4.38945
     2005.81519         3.33690         4.33825
     2005.81793         0.39770         4.55433
     2005.82067         9.28550         4.39020
     2005.82340         2.79630         4.36385
     2005.82614         8.07510         4.34277
     2005.82888         7.55590         4.33072
     2005.83162        -3.21930         4.46022
     2005.83436        -0.89350         4.56111
     2005.83709         4.98030         4.73202
     2005.83983         5.60710         4.55735
     2005.84257         5.33890         4.52572
     2005.84531         2.25770         4.58445
     2005.84804        -0.18350         4.64694
     2005.85078         3.37230         4.54831
     2005.85352         1.36910         4.54229
     2005.85626         0.98489         4.51970
     2005.85900         0.49469         4.49711
     2005.86173        -2.60251         4.49862
     2005.86447         1.77929         4.45646
     2005.86721        -1.32791         4.42107
     2005.86995         1.89389         4.46700
     2005.87269        -0.37731         4.34503
     2005.87542        -4.65451         4.36460
     2005.87816        -2.92071         4.35783
     2005.88090        -1.76091         4.37815
     2005.88364         0.57689         4.35707
     2005.88637        -0.87931         4.42559
     2005.88911         0.35749         4.47754
     2005.89185         1.97529         4.37439
     2005.89459         2.01509         4.43010
     2005.89733        -1.78211         4.41655
     2005.90006         2.85169         4.72826
     2005.90280         1.06749         4.46097
     2005.90554        -1.63671         4.38644
     2005.90828        -1.94992         4.45119
     2005.91102         2.02788         4.48205
     2005.91375        -1.44932         4.35180
     2005.91649        -3.70652         4.44667
     2005.91923       -12.11572         4.60478
     2005.92197        -2.06492         4.32470
     2005.92470        -5.03612         4.31642
     2005.92744        -7.36432         4.32394
     2005.93018        -4.55752         4.34804
     2005.93292         0.64528         4.35255
     2005.93566         2.58008         4.38644
     2005.93839         5.03988         4.37665
     2005.94113         3.03068         4.33750
     2005.94387         1.54548         4.34653
     2005.94661         0.05928         4.35632
     2005.94935        -1.13092         4.33223
     2005.95208        -5.27612         4.33448
     2005.95482        -3.39732         4.45871
     2005.95756        -0.73852         4.33147
     2005.96030        -2.11273         4.39923
     2005.96303         0.59307         4.32018
     2005.96577        -1.85613         4.51067
     2005.96851         0.78467         4.53250
     2005.97125       -10.69853         4.72600
     2005.97399        -5.31873         4.49862
     2005.97672        -4.70493         4.43462
     2005.97946         1.06187         4.36234
     2005.98220        -4.15733         4.54831
     2005.98494         8.87447         4.54982
     2005.98767         1.30327         4.50690
     2005.99041        -2.08993         4.64242
     2005.99315        -0.16813         4.41956
     2005.99589         1.19667         4.44667
     2005.99863         9.40847         4.61457
     2006.00410         2.60707         4.48733
     2006.00684        -4.74613         4.47829
     2006.00958        -8.56933         4.43010
     2006.01232        -8.39554         4.43839
     2006.01505       -10.47474         4.45796
     2006.01779         7.19406         4.56789
     2006.02053        -3.48014         4.49485
     2006.02327        -4.45534         4.52271
     2006.02600        -6.70954         4.54530
     2006.02874        -5.43274         4.46926
     2006.03148        -0.56294         4.41429
     2006.03422        -3.95814         4.44140
     2006.03696        -2.18934         4.58069
     2006.03969        -2.42054         4.42333
     2006.04243        -5.85174         4.44893
     2006.04517        -6.80394         4.56337
     2006.04791         3.58486         4.53325
     2006.05065        -2.49434         4.47076
     2006.05338        -9.05754         4.40451
     2006.05612        -1.75574         4.28329
     2006.05886        -4.24294         4.28253
     2006.06160        -2.66814         4.26974
     2006.06433         2.46065         4.36385
     2006.06707        -3.73855         4.19520
     2006.06981        -6.97775         4.22908
     2006.07255       -10.64095         4.21553
     2006.07529        -9.95415         4.21176
     2006.07802       -11.20435         4.21026
     2006.08076       -10.99555         4.38117
     2006.08350        -1.22475         4.25769
     2006.08624        -4.37295         4.33750
     2006.08898        -4.40415         4.35557
     2006.09171        -5.21835         4.25543
     2006.09445        -3.39855         4.38117
     2006.09719        -8.20775         4.27124
     2006.09993        -6.32595         4.26597
     2006.10266        -6.29915         4.27726
     2006.10540       -10.48735         4.29985
     2006.10814        -6.87355         4.36611
     2006.11088        -7.79775         4.46323
     2006.11362        -8.68495         4.30286
     2006.11635        -7.72516         4.31566
     2006.11909       -10.83236         4.31792
     2006.12183        -2.86556         4.33976
     2006.12457        -2.85476         4.29759
     2006.12731        -9.79796         4.28555
     2006.13004        -1.28216         4.29157
     2006.13278        -4.30436         4.27952
     2006.13552         0.35544         4.31265
     2006.13826        -0.09776         4.27651
     2006.14099         0.20304         4.27425
     2006.14373         2.03384         4.28630
     2006.14647         2.64264         4.28856
     2006.14921        -3.64356         4.29006
     2006.15195        -6.11276         4.29006
     2006.15468        -6.39696         4.36686
     2006.15742        10.70384         4.56337
     2006.16016        13.14964         4.59198
     2006.16290        -3.58056         4.48883
     2006.16564        -7.35376         4.40752
     2006.16837         0.33804         4.54756
     2006.17111        -4.78817         4.30437
     2006.17385         1.29163         4.35632
     2006.17659        -0.61357         4.39246
     2006.17932        -1.28777         4.43312
     2006.18206        -3.80497         4.35406
     2006.18480         3.64783         4.30587
     2006.18754        -0.63137         4.29082
     2006.19028         4.89543         4.37966
     2006.19301        -2.12977         4.35557
     2006.19575        -6.77497         4.40074
     2006.19849        -3.44517         4.47603
     2006.20123         1.46363         4.39773
     2006.20397        -4.07957         4.44064
     2006.20670        -2.28377         4.53401
     2006.20944        -4.48297         4.39923
     2006.21218        -4.10417         4.38869
     2006.21492        -4.12937         4.40902
     2006.21765         0.97943         4.36912
     2006.22039        -4.88077         4.44516
     2006.22313        -6.89098         4.44667
     2006.22587        -3.37918         4.54229
     2006.22861        -4.61338         4.66576
     2006.23134        -1.84458         4.47904
     2006.23408         3.83022         4.47528
     2006.23682         0.94302         4.41354
     2006.23956         1.54882         4.34578
     2006.24230        -2.14738         4.26748
     2006.24503         3.11142         4.33750
     2006.24777         0.42722         4.35255
     2006.25051        -1.65398         4.29684
     2006.25325         7.93682         4.34954
     2006.25598         0.37362         4.40752
     2006.25872         0.71342         4.28856
     2006.26146        -1.92378         4.42333
     2006.26420        -0.73198         4.53325
     2006.26694         4.73982         4.43989
     2006.26967         4.73762         4.32620
     2006.27241        -1.20058         4.36310
     2006.27515         3.81321         4.48808
     2006.27789        -1.50099         4.63414
     2006.28062         0.95181         4.33072
     2006.28336         3.19361         4.37514
     2006.28610         4.29941         4.42709
     2006.28884         3.31421         4.34126
     2006.29158         2.22301         4.36084
     2006.29431         1.79581         4.31265
     2006.29705         2.40661         4.30813
     2006.29979         2.60441         4.41429
     2006.30253         1.99821         4.30060
     2006.30527         3.08501         4.33223
     2006.30800         2.41381         4.31943
     2006.31074         2.85261         4.27651
     2006.31348         0.96741         4.41580
     2006.31622         1.36221         4.36761
     2006.32169        -2.58219         4.37815
     2006.32443        -1.15539         4.32169
     2006.32717         0.88940         4.30889
     2006.32991        -4.86380         4.34277
     2006.33264         1.42300         4.36310
     2006.33538         1.18380         4.37439
     2006.33812         0.98660         4.31867
     2006.34086         1.41440         4.35255
     2006.34360        -2.28580         4.33373
     2006.34633        -2.48200         4.39547
     2006.34907        -4.05620         4.38117
     2006.35181        -1.76540         4.47076
     2006.35455        -1.91760         4.33524
     2006.35728         0.77620         4.36234
     2006.36004         2.90998         4.43839
     2006.36276        -9.77320         4.37439
     2006.36550        -3.22640         4.41429
     2006.36824        -1.24560         4.40451
     2006.37097         2.79620         4.45796
     2006.37371         3.45000         4.45194
     2006.37645         0.70280         4.36761
     2006.37919         2.32959         4.47377
     2006.38193         2.57439         4.49636
     2006.38466        -4.09281         4.51067
     2006.38740        -5.20101         4.49335
     2006.39014        -4.37421         4.44215
     2006.39288         0.45259         4.40676
     2006.39561         2.47939         4.53626
     2006.39835        -2.18181         4.54605
     2006.40109         3.76099         4.45269
     2006.40383        -4.49521         4.47227
     2006.40657        -1.81541         4.46173
     2006.40930        -3.72261         4.48657
     2006.41204         1.10419         4.48205
     2006.41478        -4.40401         4.42559
     2006.41752        -2.05921         4.61457
     2006.42026         3.69759         4.61005
     2006.42299         5.78339         4.58746
     2006.42573         4.57919         4.64619
     2006.42847         7.85799         4.60026
     2006.43121         7.52878         4.59951
     2006.43394         0.43558         4.47453
     2006.43668        -1.49362         4.48356
     2006.43942         0.91218         4.51518
     2006.44216         1.58598         4.44441
     2006.44490         6.09178         4.48281
     2006.44763         2.30558         4.41956
     2006.45037        -1.66762         4.43537
     2006.45311         3.27518         4.46398
     2006.45585         7.34298         4.43613
     2006.45859         7.18778         4.42709
     2006.46132         6.00558         4.55283
     2006.46406         1.92738         4.54379
     2006.46680         3.72318         4.55659
     2006.46954         5.88198         4.54379
     2006.47227         6.19278         4.48958
     2006.47501         8.80158         4.59123
     2006.52703        -1.80023         4.52648
     2006.52977         3.87957         4.55810
     2006.53251        -3.46663         4.55810
     2006.53525         2.17317         4.48281
     2006.53798         3.17596         4.54530
     2006.54072         3.22376         4.67706
     2006.54346         6.39456         4.37138
     2006.54620        -0.88564         4.55208
     2006.54893        -1.72984         4.41128
     2006.55167         0.38296         4.39171
     2006.55441        -0.35924         4.42709
     2006.55715         0.81756         4.45119
     2006.55989         5.61136         4.36310
     2006.56262         1.52016         4.36837
     2006.56536         1.48296         4.44968
     2006.56810        -2.08524         4.42107
     2006.57084        -3.48344         4.41730
     2006.57357         0.03736         4.45344
     2006.57631         3.33516         4.40225
     2006.57905         2.09396         4.41429
     2006.58179        -1.08624         4.39095
     2006.58453        -2.65744         4.49561
     2006.58726         0.86436         4.51518
     2006.59000         0.87915         4.55735
     2006.59274        -7.57905         4.51368
     2006.59548        -8.42625         4.54530
     2006.59822        -8.50645         4.56186
     2006.60095        -8.02865         4.41730
     2006.60369        -4.54585         4.34578
     2006.60643         0.65095         4.41580
     2006.60917        -0.01825         4.39171
     2006.61190        -5.08345         4.44516
     2006.61464        -2.52665         4.42258
     2006.61738         1.69315         4.39773
     2006.62012         1.91995         4.45194
     2006.62286        -5.12925         4.42935
     2006.62559        -3.96045         4.38945
     2006.62833        -0.38165         4.52196
     2006.63107        -4.46885         4.41655
     2006.63381        -2.90305         4.35030
     2006.63655        -1.99625         4.40978
     2006.63928        -0.94245         4.47980
     2006.64202        -0.30666         4.44516
     2006.64476         1.92514         4.44215
     2006.64750         6.55594         4.57014
     2006.65023         0.57774         4.56337
     2006.65297        -7.33046         4.62134
     2006.65571        -8.79766         4.61155
     2006.65845        -5.32686         4.65372
     2006.66119        -4.36306         4.69287
     2006.66392        -3.23126         4.62661
     2006.66666        -3.47646         4.61381
     2006.66940        -5.29366         4.67781
     2006.67214        -4.61186         4.64242
     2006.67488        -5.52906         4.75310
     2006.67761        -5.27726         4.77795
     2006.68035        -5.10746         4.63489
     2006.68309        -0.13466         4.84345
     2006.68583        -4.41786         4.75837
     2006.68856        -8.27106         4.54003
     2006.69130        -6.09526         4.51819
     2006.69404         2.19453         4.52346
     2006.69678        -2.17667         4.48582
     2006.69952         5.23613         4.49787
     2006.70225         3.98093         4.83216
     2006.70499        -7.01227         4.61155
     2006.70773        -1.11547         4.40074
     2006.71047         4.46033         4.41053
     2006.71321         4.58613         4.43688
     2006.71594         5.36593         4.49034
     2006.71868        -0.91227         4.44140
     2006.72142         1.84153         4.52422
     2006.72416         3.00933         4.64920
     2006.72689         7.66713         4.53401
     2006.72963         2.72093         4.53476
     2006.73237        -0.22727         4.42860
     2006.73511        -0.20947         4.41128
     2006.73785        -2.40967         4.44893
     2006.74058         0.76813         4.46097
     2006.74332         3.73993         4.44592
     2006.74606         2.18973         4.53928
     2006.74880         2.86452         4.52497
     2006.75154         4.19832         4.61457
     2006.75427        -2.54888         4.60101
     2006.75701         1.33192         4.49335
     2006.75975         3.27972         4.67555
     2006.76249        -1.21948         4.41279
     2006.76522        -4.09168         4.54680
     2006.76796        -3.20788         4.53250
     2006.77070        -3.78508         4.47980
     2006.77344        -2.34028         4.51970
     2006.77618         1.08552         4.44893
     2006.77891         5.61732         4.39848
     2006.78165         3.15012         4.42559
     2006.78439        -1.43408         4.42860
     2006.78713         0.34072         4.48883
     2006.78987         6.67752         4.52949
     2006.79260         6.30532         4.45344
     2006.79534        -2.08188         4.49260
     2006.79808        -0.03208         4.47754
     2006.80082         0.69671         4.60252
     2006.80355        -0.54749         4.51142
     2006.80629        -0.39469         4.47001
     2006.80903        -1.98589         4.43839
     2006.81177         1.65991         4.54906
     2006.81451         2.58171         4.66727
     2006.81724        -2.06649         4.58144
     2006.81998        -1.59469         4.43989
     2006.82272        -2.21289         4.41881
     2006.82546         0.98391         4.40902
     2006.82820         0.88071         4.45796
     2006.83093        -2.60749         4.45043
     2006.83367         2.08631         4.42785
     2006.83641         3.88211         4.82011
     2006.83915        -2.78309         4.55960
     2006.84188        -4.37529         4.56262
     2006.84462         0.90751         4.50841
     2006.84736        -4.34669         4.48281
     2006.85010        -0.94489         4.61080
     2006.85284        14.42490         5.22517
     2006.85557         4.05970         4.69362
     2006.85831         5.46850         4.62887
     2006.86105       -11.49670         4.90745
     2006.86379        -1.79790         4.67028
     2006.86653        -1.00910         4.87131
     2006.86926         0.22570         4.43236
     2006.87200         0.98550         4.40601
     2006.87474        -5.99570         4.46323
     2006.87748        -1.37190         4.48808
     2006.88021         3.32190         4.36987
     2006.88295         1.15870         4.37815
     2006.88569         3.25550         4.38869
     2006.88843         2.42830         4.43086
     2006.89117        -5.16090         4.39698
     2006.89390        -3.61010         4.58520
     2006.89664         0.51570         4.44592
     2006.89938         0.06250         4.36611
     2006.90212         2.83830         4.40601
     2006.90485         4.82509         4.44667
     2006.90759         8.29189         4.38267
     2006.91033         2.98569         4.37514
     2006.91307         3.65849         4.39547
     2006.91581        -0.25371         4.41806
     2006.91854        -0.57691         4.41354
     2006.92128         2.43389         4.39171
     2006.92402        -4.26131         4.40149
     2006.92676        -0.25051         4.40074
     2006.92950         1.54029         4.49937
     2006.93223        -0.89791         4.45495
     2006.93497        -0.65511         4.59424
     2006.93771         4.56169         4.56487
     2006.94045        -4.03251         4.62210
     2006.94318        -3.35271         4.45269
     2006.94592         1.83809         4.48808
     2006.94866        -0.01611         4.45194
     2006.95140         4.20369         4.42182
     2006.95414         1.65249         4.60854
     2006.95687         8.25128         4.49561
     2006.95961         2.47708         4.44817
     2006.96235         2.89588         4.42483
     2006.96509         4.13768         4.50841
     2006.96783         3.75348         4.49862
     2006.97056        -1.86072         4.47904
     2006.97330         1.88508         4.51895
     2006.97604        -5.75512         4.60553
     2006.97878         1.51868         4.47076
     2006.98151         0.04448         4.57993
     2006.98425        -5.41572         4.71019
     2006.98699         3.11508         4.80430
     2006.98973         4.17688         4.60478
     2006.99247        -0.54832         4.58897
     2006.99520        -0.88952         4.66576
     2006.99794         5.22728         4.59650
     2007.00342         6.36488         4.56563
     2007.00616         0.35368         4.60026
     2007.00889         5.81547         4.60403
     2007.01163         3.87127         4.53476
     2007.01437        -1.52593         4.48205
     2007.01711        -6.60813         4.46850
     2007.01984        -3.99533         4.46173
     2007.02258        -1.03553         4.39321
     2007.02532         4.69627         4.50765
     2007.02806         7.00907         4.50991
     2007.03080        -0.60213         4.32696
     2007.03353        -5.36833         4.26823
     2007.03627        -3.04953         4.30136
     2007.03901        -5.53873         4.27651
     2007.04175        -2.80193         4.30889
     2007.04449         0.30687         4.38493
     2007.04722        -5.37733         4.38267
     2007.04996        -1.48953         4.52196
     2007.05270         1.28327         4.48582
     2007.05544         1.51007         4.26597
     2007.05817        -3.17013         4.28028
     2007.06091        -2.58233         4.24263
     2007.06365        -2.94154         4.25016
     2007.06639        -1.98874         4.32696
     2007.06913        -1.24094         4.30136
     2007.07186         2.50086         4.23134
     2007.07460         1.28966         4.25694
     2007.07734        -0.08054         4.27576
     2007.08008        -0.12174         4.21402
     2007.08282         1.92206         4.20047
     2007.08555         2.75986         4.26371
     2007.08829         2.98766         4.26296
     2007.09103        -0.85954         4.25919
     2007.09377        -0.06274         4.22155
     2007.09650        -2.62694         4.21854
     2007.09924        -2.30214         4.20122
     2007.10198        -4.00734         4.22908
     2007.10472         1.69746         4.34728
     2007.10746        -3.59174         4.35180
     2007.11019        -3.24294         4.27199
     2007.11293        12.63386         4.35105
     2007.11567        -2.25035         4.16734
     2007.11841         0.59945         4.23736
     2007.12115        -5.59275         4.22305
     2007.12388        -3.60795         4.29082
     2007.12662         0.24285         4.22456
     2007.12936         2.07465         4.30889
     2007.13210        -0.49055         4.28630
     2007.13483         9.61325         4.31039
     2007.13757        -0.55195         4.29835
     2007.14031        -1.10115         4.31190
     2007.14305         7.93465         4.26446
     2007.14579         4.64545         4.26221
     2007.14852        -3.39675         4.23209
     2007.15126         3.09205         4.27049
     2007.15400         1.66385         4.25242
     2007.15674         3.44165         4.26597
     2007.15948         0.41945         4.24489
     2007.16221         0.62025         4.39396
     2007.16495        -2.08795         4.37815
     2007.16769        -0.35116         4.33147
     2007.17043         0.04764         4.35933
     2007.17316         6.63144         4.36008
     2007.17590         2.69824         4.33223
     2007.17864         7.82304         4.37740
     2007.18138         1.98184         4.38644
     2007.18412        -0.80736         4.41956
     2007.18685         4.71444         4.53024
     2007.18959         1.23024         4.39020
     2007.19233         0.32504         4.35707
     2007.19507        -0.73916         4.27726
     2007.19780         0.02864         4.29006
     2007.20054        -2.66356         4.38267
     2007.20328         1.56724         4.34728
     2007.20602         2.90804         4.25844
     2007.20876        -0.44716         4.27501
     2007.21149        -2.81436         4.27877
     2007.21423         6.00944         4.37213
     2007.21697         4.89624         4.39472
     2007.21971         4.88503         4.28404
     2007.22245         2.51883         4.25016
     2007.22518         4.16263         4.26748
     2007.22792         5.68243         4.31867
     2007.23066         1.17123         4.33373
     2007.23340        -4.95197         4.40074
     2007.23613        -3.83717         4.39246
     2007.23887         0.25063         4.25618
     2007.24161        -2.70757         4.25844
     2007.24435        -7.19177         4.28780
     2007.24709         4.50503         4.27199
     2007.24982         2.24883         4.31190
     2007.25256         0.57963         4.27576
     2007.25530        -0.84757         4.30136
     2007.25804         3.69823         4.36234
     2007.26078         0.61603         4.38418
     2007.26351        -5.48417         4.32921
     2007.26625         5.93863         4.32244
     2007.26899         7.29943         4.37364
     2007.27173         7.60922         4.37364
     2007.27446        13.08002         4.43763
     2007.27720         9.35582         4.23811
     2007.27994         6.16562         4.27199
     2007.28268         5.21142         4.32244
     2007.28542         2.73922         4.27501
     2007.28815         6.51302         4.27726
     2007.29089         3.73582         4.35707
     2007.29363         0.08162         4.29082
     2007.29637         0.13142         4.28630
     2007.29911         3.30222         4.25844
     2007.30184         3.35202         4.24037
     2007.30458         2.99182         4.31491
     2007.30732         1.99062         4.32169
     2007.31006         1.62042         4.36234
     2007.31279         4.10022         4.36837
     2007.31553         1.23002         4.26145
     2007.31827         4.44382         4.24715
     2007.32101         1.97962         4.24037
     2007.32375         2.04441         4.26898
     2007.32648         6.97121         4.30512
     2007.32922         5.05301         4.30813
     2007.33196        -1.10319         4.46624
     2007.33470         1.81461         4.40752
     2007.33744         0.00641         4.27501
     2007.34017        -0.36679         4.30738
     2007.34291         1.80301         4.29609
     2007.34565         3.22281         4.28178
     2007.34839         0.89761         4.31190
     2007.35112        -0.51159         4.36535
     2007.35386        -6.37079         4.59800
     2007.35660        -0.17899         4.58821
     2007.35934         1.13681         4.29157
     2007.36208        -1.06739         4.28479
     2007.36481         1.40741         4.37891
     2007.36755         2.59221         4.30813
     2007.37029        -4.13399         4.27952
     2007.37303         4.65581         4.39020
     2007.37577        -4.20939         4.36837
     2007.37850        -2.68060         4.33448
     2007.38124         2.88520         4.34126
     2007.38398         1.98400         4.34126
     2007.38672        -0.17420         4.31340
     2007.38945        -5.17740         4.28780
     2007.39219         2.30240         4.32244
     2007.39493         1.36020         4.28103
     2007.39767        -0.96000         4.31642
     2007.40041        -1.70620         4.29308
     2007.40314        -2.53340         4.31190
     2007.40588         0.40240         4.31792
     2007.40862        -5.05180         4.32997
     2007.41136        -5.77900         4.30211
     2007.41410        -0.96120         4.32696
     2007.41683        -4.55140         4.28479
     2007.41957         0.10540         4.28178
     2007.42231         6.91120         4.34804
     2007.42505         5.81900         4.61457
     2007.42778         0.44780         4.30437
     2007.43052         2.93059         4.32620
     2007.43326         6.06839         4.31265
     2007.43600        -1.59581         4.28404
     2007.43874         7.34899         4.51518
     2007.44147        -3.57021         4.42107
     2007.44421        -0.53941         4.40902
     2007.44695        -7.48761         4.34503
     2007.44969        -5.51581         4.28479
     2007.45243        -6.19201         4.32093
     2007.45516        -8.09221         4.32620
     2007.45790        -1.92441         4.31943
     2007.46064         1.85139         4.29533
     2007.46338         1.32119         4.27726
     2007.46611        -4.00401         4.30437
     2007.46885         0.79579         4.27952
     2007.47159        -1.17841         4.28329
     2007.47433        -4.31061         4.31943
     2007.47707        -8.60681         4.39622
     2007.47980        -9.09801         4.25919
     2007.48254        -9.69722         4.29232
     2007.48528        -5.81342         4.31265
     2007.48802       -12.75662         4.37740
     2007.49076         0.02218         4.33599
     2007.49349        -6.53102         4.35632
     2007.49623        -8.54622         4.32244
     2007.49897        -1.13942         4.31491
     2007.50171        -8.49062         4.33825
     2007.50444        -2.87482         4.32394
     2007.50718        -1.06102         4.30136
     2007.50992        -3.53222         4.33147
     2007.51266        -8.60742         4.35481
     2007.51540       -10.08762         4.31566
     2007.51813        -2.62582         4.34051
     2007.52087        -4.91302         4.29835
     2007.52361        -9.66122         4.33674
     2007.52635        -6.69442         4.29835
     2007.52908        -3.46462         4.31867
     2007.53182        -6.79482         4.33750
     2007.53456        -4.01303         4.34277
     2007.53730         2.17577         4.34503
     2007.54004        -2.39243         4.38869
     2007.54277        -6.82563         4.35406
     2007.54551        -5.73683         4.36008
     2007.54825        -1.50103         4.32545
     2007.55099        -3.73623         4.41429
     2007.55373        -1.85543         4.38568
     2007.55646        -0.98563         4.40526
     2007.55920         9.82317         4.72449
     2007.56194        -1.74803         4.43839
     2007.56468        -1.32823         4.38568
     2007.56741        -2.37743         4.34879
     2007.57015        -2.88863         4.35105
     2007.57289        -0.42883         4.36912
     2007.57563        -7.72303         4.31566
     2007.57837        -5.33123         4.33900
     2007.58110        -0.44243         4.29609
     2007.58384        -4.14063         4.32470
     2007.58658        -3.66584         4.32319
     2007.58932        -6.98604         4.32018
     2007.59206        -3.12324         4.29157
     2007.59479         5.13456         4.44968
     2007.59753        -7.11364         4.38794
     2007.60027         0.05416         4.30964
     2007.60301        -5.85904         4.31340
     2007.60574        -1.99924         4.27350
     2007.60848        -4.00644         4.25167
     2007.61122        -2.50964         4.27049
     2007.61396        -5.69884         4.25694
     2007.61670        -3.47704         4.67254
     2007.61943        -4.57524         4.56186
     2007.62217        -4.73844         4.48356
     2007.62491        -1.14364         4.45194
     2007.62765        -1.25184         4.56713
     2007.63039        -0.49804         4.58069
     2007.63312        -4.54824         4.48808
     2007.63586        -0.86044         4.46022
     2007.63860        -3.79864         4.50163
     2007.64134        -3.40185         4.39095
     2007.64407        -1.42705         4.62360
     2007.64681        -5.94325         4.50615
     2007.64955         2.17055         4.66576
     2007.65229        -1.74165         4.65823
     2007.65503        -1.03385         4.50916
     2007.65776        -0.84105         4.49109
     2007.66050        -3.79125         4.55810
     2007.66324         3.10955         4.52798
     2007.66598        -1.83565         4.52497
     2007.66872        -3.20185         4.55208
     2007.67145        -3.17205         4.53777
     2007.67419        12.89375         4.71395
     2007.67693        -1.60245         4.51970
     2007.67967        -1.48965         4.47377
     2007.68240         1.55315         4.48958
     2007.68514         3.63995         4.61607
     2007.68788        -0.06325         4.58144
     2007.69062         0.82555         4.51669
     2007.69336         3.17334         4.50238
     2007.69609        -1.27286         4.54379
     2007.69883        -2.30006         4.54229
     2007.70157         0.18774         4.57692
     2007.70431         5.36054         4.69437
     2007.70705        -3.29566         4.48281
     2007.70978         1.42414         4.59951
     2007.71252         3.79394         4.48130
     2007.71526        11.81874         4.43914
     2007.71800         5.87454         4.44516
     2007.72073         5.27734         4.35105
     2007.72347         8.44514         4.38267
     2007.72621         1.77994         4.33524
     2007.72895         1.47174         4.34879
     2007.73169         4.25854         4.43086
     2007.73442         4.68334         4.34954
     2007.73716         4.64814         4.42559
     2007.73990         2.08794         4.38192
     2007.74264         8.72574         4.43989
     2007.74538         1.73153         4.39396
     2007.74811         0.96133         4.53777
     2007.75085        10.03913         4.55810
     2007.75359         2.44393         4.52497
     2007.75633         6.53273         4.37514
     2007.75906         5.58853         4.34879
     2007.76180         4.31733         4.35481
     2007.76454         0.56113         4.33900
     2007.76728         3.88693         4.63188
     2007.77002         4.92373         4.67555
     2007.77275        14.23853         4.93229
     2007.77549         1.02133         4.35255
     2007.77823         0.44513         4.67630
     2007.78097        10.17493         4.34352
     2007.78371         3.66073         4.34051
     2007.78644         9.97953         4.34804
     2007.78918         8.83233         4.40827
     2007.79192         3.15613         4.49787
     2007.79466         7.14793         4.47453
     2007.79739         6.08972         4.36611
     2007.80013        -3.27148         4.91196
     2007.80287         4.88732         4.37815
     2007.80561         3.88012         4.36611
     2007.80835         2.65392         4.45721
     2007.81108         6.09372         4.46850
     2007.81382         5.09552         4.43236
     2007.81656         1.69532         4.49561
     2007.81930         7.00212         4.49335
     2007.82203        -6.05108         4.47453
     2007.82477         0.08672         4.46700
     2007.82751         2.16252         4.43914
     2007.83025         0.64232         4.41203
     2007.83299        -1.62988         4.31943
     2007.83572        -0.05408         4.31491
     2007.83846         1.18172         4.31792
     2007.84120        -0.06448         4.29759
     2007.84394        -3.65868         4.29232
     2007.84668        -7.90188         4.33223
     2007.84941        -3.76309         4.30437
     2007.85215        -0.83629         4.40300
     2007.85489        -1.14049         4.46097
     2007.85763        -2.24069         4.35707
     2007.86036        -0.08689         4.34352
     2007.86310         3.32491         4.38041
     2007.86584         1.48771         4.34126
     2007.86858         0.82451         4.31340
     2007.87132        -5.08069         4.29759
     2007.87405        -5.25789         4.38493
     2007.87679         0.03191         4.36385
     2007.87953        -1.68229         4.34804
     2007.88227         1.09051         4.45344
     2007.88501        -1.97169         4.44516
     2007.88774        -2.63389         4.33674
     2007.89048        -1.40509         4.35255
     2007.89322         1.76571         4.44893
     2007.89596         1.64651         4.37815
     2007.89869         1.36131         4.38192
     2007.90143        -1.96690         4.39773
     2007.90417         0.01890         4.45871
     2007.90691        -4.69030         4.41580
     2007.90965         0.89350         4.41354
     2007.91238         3.28830         4.40676
     2007.91512        -1.05690         4.39622
     2007.91786        -0.69610         4.41053
     2007.92060        -7.66430         4.47603
     2007.92334        -3.19250         4.53250
     2007.92607         0.30730         4.46775
     2007.92881         4.05910         4.43236
     2007.93043         9.91121         9.96999
