# ================= DQRFIT RESULTS ================
# INPUT FILE: series/P323.rad
# OUTPUT: LDETRENDED
# FILTER FUNCTION: f(t)
# f(t)=+line(t)
# line(t)=+P 1+P 2*t
# heav(t)=(t<0?0:1)
# TOTAL OBSERVATIONS MTOT=  175
# INITIAL TIME INTERVAL= 2008.0984 - 2007.6222 =  0.4763
# TOTAL OBSERVATIONS AFTER PREFILTER M=  147
# TIME-SPAN= 2008.0984 - 2007.6222 =  0.4763
# OBSERVATIONS: USED M=   147 REJECTED MTOT-M=    28 %USED=   84.0000
# N=  2 PARAMETERS
# MAXSIG= 175.00000
# MAXRES= 159.82748
# SCALE FACTOR FOR LENGTHS: SCL=  10.00000
# SCALE FACTOR FOR SIGMAS: SCLSIG=   1.00000
# CHI^2=   5849.971 DOF=   145 CHI^2/DOF=  40.34463
# RMS=     39.051 SDEV=     39.143 MEAN=    1.79544
#  P #       PARAMETER +-    SIGMA %error PARAMETER NAME
# P 1 =   -509335.65723 +- ********   9.15 YZERO                              
# P 2 =       250.03313 +-   23.206   9.28 SLOPE                              
#       T            LDETRENDED       SIG_OBS
     2007.62217        34.04866        37.34824
     2007.62491        31.31711        37.31013
     2007.62765        29.48155        37.97072
     2007.63039        30.06100        38.47885
     2007.63312        26.90845        36.96079
     2007.63586        29.87589        36.82105
     2007.63860        28.64434        37.37365
     2007.64134        30.84179        36.29386
     2007.64407        31.95924        37.94531
     2007.64681        23.22168        37.15769
     2007.64955        29.15813        37.58326
     2007.65229        24.36457        37.82463
     2007.65503        26.41802        37.55150
     2007.65776        26.16547        37.55785
     2007.66050        20.17191        38.37087
     2007.66324        22.46836        37.37365
     2007.66598        20.78081        37.04971
     2007.66872        19.67125        37.69759
     2007.67145        20.61470        37.25297
     2007.67419        26.07915        38.12316
     2007.67693        23.36959        37.22121
     2007.67967        18.58004        37.29743
     2007.68240        21.87949        36.96079
     2007.68514        23.26493        37.96436
     2007.68788        25.66438        38.08505
     2007.69062        20.20583        37.48798
     2007.69336        18.54127        37.71665
     2007.69609        18.37772        37.92625
     2007.69883         9.01417        37.47528
     2007.70157        13.90761        37.54515
     2007.70431        15.54906        39.31728
     2007.70705        10.17251        37.44987
     2007.70978        22.24095        37.81827
     2007.71252        15.76340        37.05606
     2007.71526        17.85085        36.17317
     2007.71800        11.91029        36.15412
     2007.72073        10.25374        36.20493
     2007.72347        16.50718        36.08425
     2007.72621        10.94763        36.78294
     2007.72895        10.75008        36.12871
     2007.73169         9.60253        36.36372
     2007.73442         7.74197        35.88099
     2007.73716         6.80942        37.25932
     2007.73990         9.01387        36.19223
     2007.74264         9.80431        36.16682
     2007.74538         7.72976        36.12871
     2007.74811         2.97421        37.24662
     2007.75085         5.24865        38.61224
     2007.75359         1.48310        37.06877
     2007.75633         3.52054        36.43995
     2007.75906         3.40599        36.16682
     2007.76180         4.50344        35.96356
     2007.76454        -2.09512        35.99532
     2007.76728        -0.73767        38.69481
     2007.77002         0.56578        39.08227
     2007.77275       -14.13278        38.12316
     2007.77549         0.49667        36.02073
     2007.77823        -4.21488        36.56698
     2007.78097        -0.54144        36.12871
     2007.78371        -5.52999        36.12236
     2007.78644        -3.41954        36.16682
     2007.78918        -6.30110        36.47806
     2007.79192        -6.71965        37.16404
     2007.79466       -11.43120        36.83375
     2007.79739       -12.17376        36.97984
     2007.80013        -7.17731        36.45900
     2007.80287       -10.22486        36.05249
     2007.80561       -11.49942        36.23669
     2007.80835       -14.08997        36.92903
     2007.81108       -13.28052        36.94173
     2007.81382       -15.31108        36.90997
     2007.81656       -15.42363        37.36095
     2007.81930       -16.23118        36.97349
     2007.82203       -21.72474        36.97984
     2007.82477       -26.32029        37.00525
     2007.82751       -25.08784        37.03701
     2007.83025       -28.92440        36.71942
     2007.83299       -29.49295        35.72220
     2007.83572       -20.70750        35.77301
     2007.83846       -23.76106        35.83018
     2007.84120       -21.02161        35.82383
     2007.84394       -27.19616        35.98897
     2007.84668       -28.38772        35.96356
     2007.84941       -29.55927        35.88734
     2007.85215       -25.92182        36.51617
     2007.85489       -29.12038        36.59874
     2007.85763       -31.36293        36.58604
     2007.86036       -30.31549        35.95086
     2007.86310       -31.84104        36.13506
     2007.86584       -28.14859        36.43359
     2007.86858       -40.41515        35.96992
     2007.87132       -32.50970        35.88734
     2007.87405       -30.44825        36.37643
     2007.87679       -36.00781        36.24304
     2007.87953       -42.08936        36.26210
     2007.88227       -38.05191        36.61144
     2007.88501       -39.21546        35.94451
     2007.88774       -39.26402        36.03343
     2007.89048       -38.12957        36.69401
     2007.89322       -39.22813        36.75753
     2007.89596       -39.04668        36.64955
     2007.89869       -41.04423        36.89092
     2007.90143       -43.97779        36.28750
     2007.90417       -44.75634        36.96714
     2007.90691       -48.60789        36.46535
     2007.90965       -49.38345        36.77659
     2007.91238       -40.65100        36.85281
     2007.91512       -42.87455        36.85916
     2007.91786       -48.86211        36.57968
     2007.92060       -58.20566        37.64042
     2007.92334       -54.30921        37.46258
     2007.92607       -47.34177        36.67496
     2007.92881       -53.60732        37.07512
     2007.93155       -56.83087        37.01795
     2007.93429       -49.97143        37.04971
     2007.93702       -48.82598        36.97349
     2007.93976       -54.40753        37.14499
     2007.94250       -48.29909        36.99255
     2007.94524       -54.63964        37.86274
     2007.99452         0.36940        41.67378
     2007.99726        -9.24416        39.10133
     2008.01095       -21.93292        38.69481
     2008.01368        31.37252        39.24106
     2008.01642        31.74697        38.59954
     2008.01916        52.93342        40.22558
     2008.02737        48.84876        41.21646
     2008.03285        49.58365        37.59596
     2008.03559        44.59110        37.28473
     2008.03833        26.32754        36.88457
     2008.04106        27.91999        36.75753
     2008.04380        15.36344        37.20215
     2008.04654        10.05088        36.80199
     2008.04928         4.97433        36.57333
     2008.05201         7.21978        36.37008
     2008.05475        10.07822        36.26210
     2008.05749         6.31367        36.52887
     2008.06023         9.92812        37.36730
     2008.06297        15.06156        37.56420
     2008.06570         5.91601        36.77659
     2008.06844         6.01045        37.60231
     2008.07939        91.13724        40.42249
     2008.08213       105.97569        38.65035
     2008.08487       122.56514        40.51776
     2008.08761       141.17358        38.89172
     2008.09308       159.82748        43.11563
     2008.09582       130.39892        46.17717
     2008.09843       129.94727        45.10372
