# ================= DQRFIT RESULTS ================
# INPUT FILE: series/P443.rad
# OUTPUT: LDETRENDED
# FILTER FUNCTION: f(t)
# f(t)=+line(t)+annual(t)
# line(t)=+P 1+P 2*t
# annual(t)=+P 3*sin(2*pi*t+P 4)
# heav(t)=(t<0?0:1)
# TOTAL OBSERVATIONS MTOT= 3749
# INITIAL TIME INTERVAL= 2022.7488 - 2008.4517 = 14.2971
# TOTAL OBSERVATIONS AFTER PREFILTER M= 3703
# TIME-SPAN= 2022.7488 - 2008.4517 = 14.2971
# OBSERVATIONS: USED M=  3703 REJECTED MTOT-M=    46 %USED=   98.7730
# N=  4 PARAMETERS
# MAXSIG= 175.00000
# MAXRES=  23.30091
# SCALE FACTOR FOR LENGTHS: SCL=  10.00000
# SCALE FACTOR FOR SIGMAS: SCLSIG=   1.00000
# CHI^2=   3505.033 DOF=  3699 CHI^2/DOF=   0.94756
# RMS=      5.293 SDEV=      5.293 MEAN=    0.00567
#  P #       PARAMETER +-    SIGMA %error PARAMETER NAME
# P 1 =       -91.17591 +-   41.248  45.24 YZERO                              
# P 2 =         0.04596 +-    0.020  44.52 SLOPE                              
# P 3 =         7.26665 +-    0.122   1.68 ANNUAL AMPLITUDE                   
# P 4 =        -3.01902 +-    0.024   0.78 ANNUAL PHASE                       
#       T            LDETRENDED       SIG_OBS
     2008.45174        -3.99649         5.44925
     2008.45448        -3.46962         5.48235
     2008.45722        -4.92374         5.33925
     2008.45995        -1.43987         5.33925
     2008.46269        -8.26899         5.33536
     2008.46543        -4.59812         5.33731
     2008.46817        -7.12824         5.31589
     2008.47091        -4.82637         5.43952
     2008.47364        -9.66650         5.42297
     2008.47638         2.44938         5.35872
     2008.47912        -2.84375         5.30518
     2008.48186         0.20213         5.32368
     2008.48459        -1.47200         5.50863
     2008.48733        -5.99713         5.35093
     2008.49007        -3.48425         5.32757
     2008.49281         1.41962         5.31297
     2008.49555        -1.76150         5.45022
     2008.49828        -2.22663         5.41421
     2008.50102        -2.95375         5.46580
     2008.50376         3.49312         5.59040
     2008.50650         3.19599         5.33147
     2008.50924         0.11187         5.31784
     2008.51197         4.53274         5.35970
     2008.51471         1.11562         5.34509
     2008.51745        -0.80951         5.35385
     2008.52019         8.72236         5.31200
     2008.52292        -0.14776         5.43173
     2008.52566        -1.04289         5.50863
     2008.52840         6.01299         5.31589
     2008.53114         5.82086         5.38792
     2008.53388         8.04574         5.34412
     2008.53661         6.29361         5.31200
     2008.53935         0.77648         5.31200
     2008.54209        -4.07264         5.32173
     2008.54483         2.89623         5.43465
     2008.54757         7.69811         5.46483
     2008.55030        10.13498         5.30908
     2008.55304         9.32685         5.31881
     2008.55578         3.57173         5.31784
     2008.55852         8.59660         5.35580
     2008.56125         5.67148         5.31589
     2008.56399        11.94335         5.28669
     2008.56673        13.09823         5.36164
     2008.56947         6.46810         5.30421
     2008.57221         7.85297         5.45509
     2008.57494         6.96885         5.43173
     2008.57768        12.35572         5.44438
     2008.58042        10.82460         5.28961
     2008.58316        18.84747         5.36943
     2008.58590         9.37935         5.23802
     2008.58863         8.83822         5.44244
     2008.59137         2.92309         5.25651
     2008.59411         6.95997         5.27209
     2008.59685         7.61884         5.28766
     2008.59958        13.82072         5.57093
     2008.60232        14.04159         5.58748
     2008.60506         9.64446         5.48527
     2008.60780         4.93134         5.38014
     2008.61054         5.07421         5.33536
     2008.61327         7.54809         5.34120
     2008.61601        13.19696         5.35191
     2008.61875         7.76884         5.36262
     2008.62149        13.33371         5.40837
     2008.62423        13.89858         5.32368
     2008.62696        13.54346         5.38500
     2008.62970        14.75833         5.54465
     2008.63244         9.29721         5.40350
     2008.63518        13.19908         5.48429
     2008.63791        15.19795         5.40545
     2008.64065         9.14383         5.31394
     2008.64339        11.99970         5.33049
     2008.64613        15.63958         5.50279
     2008.64887        10.33645         5.47651
     2008.65160        11.68233         5.33633
     2008.65434         9.21620         5.39863
     2008.65708        11.12007         5.62447
     2008.65982        11.59395         5.42784
     2008.66256        17.56782         5.54951
     2008.66529         9.53770         5.39766
     2008.66803         4.15957         5.39084
     2008.67077         8.19544         5.40155
     2008.67351         6.47432         5.35872
     2008.67624         7.36719         5.72376
     2008.67898         9.29807         5.42784
     2008.68172         7.81494         5.44438
     2008.68446         4.15682         5.39182
     2008.68720         7.16669         5.38500
     2008.68993        11.27956         5.44828
     2008.69267        12.04844         5.35483
     2008.69541         9.81331         5.42297
     2008.69815        17.28119         5.46969
     2008.70089        11.74806         5.39863
     2008.70362        12.50993         5.37430
     2008.70636        13.56981         5.34509
     2008.70910        10.20968         5.46775
     2008.71184         9.54956         5.56412
     2008.71457         8.32243         5.30713
     2008.71731         9.32831         5.35580
     2008.72005        12.47618         5.34509
     2008.72279         8.36005         5.29740
     2008.72553        13.08793         5.43076
     2008.72826        10.48780         5.32563
     2008.73100        11.16668         5.40837
     2008.73374        15.36355         5.50766
     2008.73648        10.27242         5.32660
     2008.73921         5.84130         5.33536
     2008.74469         7.87905         5.29642
     2008.74743        12.60892         5.35385
     2008.75017        11.19380         5.34801
     2008.75290        14.26067         5.34704
     2008.75564        18.22054         5.34899
     2008.75838        14.88942         5.32465
     2008.76112        16.19829         5.30810
     2008.76386         8.34717         5.35872
     2008.76659         8.45304         5.41713
     2008.76933         4.05791         5.41907
     2008.77207         5.76079         5.23510
     2008.77481         6.62266         5.25067
     2008.77754         5.47154         5.26430
     2008.78028         1.83441         5.29253
     2008.78302         9.53029         5.30518
     2008.78576         5.08916         5.28474
     2008.78850         3.72203         5.35191
     2008.79123        12.13091         5.38014
     2008.79397         8.96778         5.32173
     2008.79671         7.03466         5.41907
     2008.79945         0.36453         5.30129
     2008.80219        12.74040         5.29934
     2008.80492        -3.32672         5.36359
     2008.80766         8.38115         5.33633
     2008.81040         9.54103         5.33925
     2008.81314         3.14090         5.31005
     2008.81587        10.81078         5.31297
     2008.81861         1.98665         5.31005
     2008.82135         4.01752         5.31297
     2008.82409         6.32140         5.41907
     2008.82683         6.62927         5.36164
     2008.82956        12.66415         5.29448
     2008.83230         2.35202         5.27306
     2008.83504         7.87089         5.32270
     2008.83778        15.40377         5.30616
     2008.84052         8.76864         5.37040
     2008.84325        11.44152         5.27890
     2008.84599        10.32639         5.35093
     2008.84873         3.16527         5.33731
     2008.85147         2.29214         5.33925
     2008.85420         7.43201         5.39863
     2008.85694        10.56489         5.31394
     2008.85968        12.46776         5.34412
     2008.86242        -0.33936         5.36943
     2008.86516         9.96651         5.34704
     2008.86789         8.90138         5.34704
     2008.87063         4.71926         5.44633
     2008.87337         3.13213         5.35970
     2008.87611        -0.04299         5.36067
     2008.87885         2.45288         5.31589
     2008.88158         4.75276         5.37624
     2008.88432         0.73163         5.31589
     2008.88706        -1.02850         5.45022
     2008.88980        -1.29662         5.45996
     2008.89253        10.37625         5.36943
     2008.89527        -0.15487         5.46483
     2008.89801         8.76200         5.46580
     2008.90075         4.98887         5.38111
     2008.90349         2.13075         5.32855
     2008.90622         6.42562         5.32757
     2008.90896         4.79250         5.35775
     2008.91170         3.60437         5.40934
     2008.91444         4.38425         5.34023
     2008.91718         5.18012         5.32076
     2008.91991        10.21499         5.40253
     2008.92265         4.36287         5.37332
     2008.92539         3.89874         5.41226
     2008.92813         4.90162         5.41518
     2008.93086         3.95249         5.45801
     2008.93360         0.84836         5.42199
     2008.93634         2.72824         5.36067
     2008.93908        -2.59689         5.36554
     2008.94182         8.49199         5.38306
     2008.94455        -5.07014         5.45509
     2008.94729        -2.69126         5.37527
     2008.95003        -2.37639         5.30324
     2008.95277        -7.01152         5.32173
     2008.95551        -5.43764         5.35093
     2008.95824        -5.68177         5.37430
     2008.96098        -2.01389         5.37430
     2008.97193         0.35560         5.34607
     2008.97467         1.36248         5.34120
     2008.97741         3.72335         5.34315
     2008.98015         2.50623         5.32076
     2008.98288         2.95310         5.35288
     2008.98562        -1.70603         5.34899
     2008.98836        -4.65315         5.36651
     2008.99110        -8.13228         5.35191
     2008.99384       -10.86640         5.33341
     2008.99657        -1.03753         5.35775
     2008.99931        -1.92166         5.31784
     2009.00479        -3.06991         5.33633
     2009.00752        -5.34403         5.32368
     2009.01026        -6.74916         5.33633
     2009.01300        -5.90028         5.40350
     2009.01574        -4.81541         5.40545
     2009.04416       -11.60572        10.30958
     2009.04585       -10.44379         5.36164
     2009.04859        -8.40392         5.37430
     2009.05133        -9.68205         5.37527
     2009.05407        -9.43117         5.39571
     2009.05681        -8.69130         5.37040
     2009.05954        -5.62642         5.38306
     2009.06228       -12.17955         5.37624
     2009.06502        -8.15368         5.37819
     2009.06776       -11.30480         5.38987
     2009.07049        -8.98793         5.34217
     2009.07323       -12.74205         5.34315
     2009.07871        -8.35530         5.39474
     2009.08145        -7.68643         5.30616
     2009.08418        -6.69856         5.32076
     2009.08692        -8.09168         5.29837
     2009.08966       -13.15581         5.32660
     2009.09240        -8.51093         5.36456
     2009.09514        -8.62206         5.35191
     2009.09787        -4.95518         5.32173
     2009.10061        -4.84631         5.33341
     2009.10335        -6.03044         5.31297
     2009.10609        -5.57956         5.34120
     2009.10882        -4.60069         5.34315
     2009.11156       -11.31781         5.30129
     2009.11430        -7.17794         5.40837
     2009.11704        -2.98207         5.40058
     2009.11978        -3.68619         5.29934
     2009.12251        -5.19132         5.34217
     2009.12525        -7.89844         5.30908
     2009.12799        -4.76857         5.34509
     2009.13073        -2.94969         5.33828
     2009.13347       -10.10782         5.31881
     2009.13620       -11.89695         5.35580
     2009.13894        -9.06707         5.35970
     2009.14168        -7.13720         5.34607
     2009.14442        -4.47832         5.35775
     2009.14715        -8.55845         5.41323
     2009.14989        -4.97958         5.50960
     2009.15263       -12.68070         5.35483
     2009.15537        -7.56483         5.42102
     2009.15811        -8.42895         5.45120
     2009.16084       -11.30008         5.36554
     2009.16358        -4.39520         5.37040
     2009.16632        -4.65433         5.44536
     2009.16906        -2.94546         5.45509
     2009.17180        -1.40758         5.33536
     2009.17453        -1.18071         5.36651
     2009.17727        -0.58483         5.48235
     2009.18001        -4.93796         5.36164
     2009.18275       -13.01609         5.33147
     2009.18548        -9.11921         5.38500
     2009.18822        -8.33734         5.42881
     2009.19096        -8.57346         5.40545
     2009.19370        -8.59259         5.42005
     2009.19644        -5.85171         5.36262
     2009.19917        -0.55384         5.36262
     2009.20191        -0.66397         5.39084
     2009.20465       -14.01309         5.40934
     2009.20739       -13.76622         5.37624
     2009.21013       -14.49534         5.37040
     2009.21286       -10.32947         5.34801
     2009.21560        -5.99460         5.38598
     2009.21834        -5.65872         5.39669
     2009.22108         0.50815         5.38987
     2009.22381       -10.10697         5.35483
     2009.22655        -8.82110         5.36262
     2009.22929        -1.65122         5.39377
     2009.23203        -4.71435         5.32563
     2009.23477        -3.43148         5.42784
     2009.23750        -6.58960         5.42005
     2009.24024        -6.00573         5.43076
     2009.24298        -0.94685         5.41615
     2009.24572       -19.53998         5.46872
     2009.24846       -10.92011         5.38792
     2009.25119        -8.26423         5.52128
     2009.25393        16.02664         5.62544
     2009.25667         0.37052         5.42297
     2009.25941       -10.78261         5.45120
     2009.26214        -3.72073         5.43854
     2009.26488        -2.62186         5.39669
     2009.26762        -3.60999         5.43952
     2009.27036        -6.95911         5.45606
     2009.27310       -11.75924         5.43270
     2009.27583        -4.71536         5.48235
     2009.27857       -13.46549         5.47456
     2009.28131       -16.62062         5.46288
     2009.28405        -6.05974         5.49208
     2009.28679       -11.12087         5.50084
     2009.28952       -11.88499         5.47748
     2009.29226       -12.78012         5.50474
     2009.29500        -9.13924         5.47845
     2009.29774        -8.09937         5.46969
     2009.30047       -10.67450         5.47553
     2009.30321        -8.22462         5.45704
     2009.30595       -10.17575         5.53686
     2009.30869        -2.24487         5.47845
     2009.31143        -4.90200         5.41810
     2009.31416       -11.04613         5.40155
     2009.31690        -7.90925         5.39377
     2009.31964        -7.94538         5.38792
     2009.32238        -3.16650         5.36164
     2009.32512        -4.83063         5.53005
     2009.32785        -8.03775         5.53102
     2009.33059        -5.46888         5.35677
     2009.33333        -8.19601         5.41615
     2009.33607        -8.40313         5.37430
     2009.33880         0.16174         5.39084
     2009.34154        -7.19338         5.42297
     2009.34428        -0.91351         5.39571
     2009.34702       -18.15164         5.38792
     2009.34976        -7.42676         5.33731
     2009.35249       -11.05989         5.36651
     2009.35523        -8.30601         5.39279
     2009.35797        -3.02714         5.43270
     2009.36071        -4.10726         5.57190
     2009.36344        -6.06939         5.41421
     2009.36618        -8.17352         5.37430
     2009.36892        -4.49864         5.36943
     2009.37166        -4.11377         5.43173
     2009.37440        -6.56489         5.42297
     2009.37713        -3.88502         5.42005
     2009.37987        -7.05815         5.48916
     2009.38261        -9.11027         5.39474
     2009.38535        -6.46240         5.37138
     2009.38809        -8.75452         5.41421
     2009.39082       -11.01665         5.42102
     2009.39356        -9.17177         5.41810
     2009.39630       -11.28490         5.40642
     2009.39904        -5.58503         5.37235
     2009.40177        -4.48915         5.43854
     2009.40451         1.32472         5.41226
     2009.40725         2.51960         5.44244
     2009.40999        -3.23253         5.42784
     2009.41273        -1.08166         5.42978
     2009.41546         0.72522         5.39961
     2009.41820        -2.55391         5.40058
     2009.42094        -9.02903         5.43757
     2009.42368        -0.87616         5.44633
     2009.42642         0.16172         5.41129
     2009.42915         2.92259         5.49208
     2009.43189        -1.93654         5.40058
     2009.43463        -1.12866         5.39766
     2009.43737        -1.46079         5.45606
     2009.44010        -3.23391         5.52031
     2009.44284        -1.86504         5.42005
     2009.44558         0.38683         5.43173
     2009.44832         3.37571         5.45120
     2009.45106        -2.85642         5.43368
     2009.45379        -1.48054         5.45412
     2009.45653         1.01933         5.44730
     2009.45927        -1.38679         5.46385
     2009.46201         2.74208         5.41323
     2009.46475         5.62395         5.46483
     2009.46748         1.89083         5.44925
     2009.47022         2.27970         5.39863
     2009.47296         0.18358         5.41226
     2009.47570         0.35445         5.40447
     2009.47843         7.85432         5.51642
     2009.48117         4.93920         5.50182
     2009.48391        -0.58493         5.49890
     2009.48665        -3.53905         5.47553
     2009.48939        -1.97518         5.48916
     2009.49212         4.10070         5.48137
     2009.49486         3.25957         5.47943
     2009.49760         1.36644         5.49208
     2009.50034         1.46132         5.42589
     2009.50308         1.21519         5.42881
     2009.50581        -1.19893         5.47456
     2009.50855        -0.73306         5.41615
     2009.51129        -0.32119         5.48332
     2009.51403         6.67869         5.41421
     2009.51676         6.34956         5.42491
     2009.51950         1.29144         5.37235
     2009.52224        -2.77569         5.44536
     2009.52498         0.95719         5.44438
     2009.52772        10.10606         5.59040
     2009.53045         0.39193         5.52128
     2009.53319         2.28481         5.40545
     2009.53593         7.13668         5.40155
     2009.53867         0.96656         5.42784
     2009.54141         5.40743         5.41713
     2009.54414        12.24730         5.48429
     2009.54688        -0.11382         5.47845
     2009.54962         0.03305         5.37430
     2009.55236         4.57593         5.39279
     2009.55509         9.75480         5.40350
     2009.55783         7.92668         5.43076
     2009.56057         1.99955         5.68190
     2009.56331        15.54942         5.86782
     2009.56605         2.35630         5.58942
     2009.56878        -1.07983         5.59721
     2009.57152         2.73605         5.54173
     2009.57426        -0.10908         5.50182
     2009.57700        14.49379         5.71597
     2009.57974         3.39667         5.51544
     2009.58247        12.28354         5.47943
     2009.58521        10.30142         5.54659
     2009.58795        -2.66071         5.46580
     2009.59069         6.30417         5.49987
     2009.59342         4.09004         5.55243
     2009.59616         3.28391         5.40155
     2009.59890         9.93179         5.46288
     2009.60164         3.16266         5.43854
     2009.60438         5.90954         5.45022
     2009.60711         2.08641         5.42589
     2009.60985         6.02429         5.42297
     2009.61259         7.75816         5.44730
     2009.61533        -4.61497         5.44438
     2009.61807         2.82691         5.47164
     2009.62080         7.29378         5.43270
     2009.62354        -1.56134         5.43562
     2009.62628         5.74053         5.44146
     2009.62902         8.15640         5.48527
     2009.63175         6.36628         5.46969
     2009.63449         2.87515         5.57385
     2009.63723        -0.75097         5.65562
     2009.63997         5.23290         5.52031
     2009.64271         3.08978         5.49792
     2009.64544         1.68365         5.49695
     2009.64818        10.15152         5.57190
     2009.65092         1.77040         5.49890
     2009.65366         1.65827         5.47748
     2009.65639         1.81815         5.33341
     2009.65913         1.96602         5.36067
     2009.66187        12.66789         5.39766
     2009.66461         4.06077         5.39474
     2009.66735         5.61064         5.42784
     2009.67008         7.97352         5.52615
     2009.67282         2.56439         5.52712
     2009.67556         5.25527         5.41031
     2009.67830         7.15214         5.66730
     2009.68104         6.64901         5.63420
     2009.68377        -1.98911         5.43854
     2009.68651        13.23276         5.39279
     2009.68925        11.07264         5.50766
     2009.69199         1.53051         5.51836
     2009.69472         2.78438         5.42686
     2009.69746         9.49326         5.42297
     2009.70020        10.78013         5.45412
     2009.70294        10.84501         5.41031
     2009.70568         8.77088         5.44828
     2009.70841         3.16476         5.46775
     2009.71115         2.86863         5.59624
     2009.71389         9.50350         5.63323
     2009.71663        11.19838         5.50182
     2009.71937         4.83025         5.47359
     2009.72210        -1.82987         5.44828
     2009.72484         1.67900         5.52031
     2009.72758         1.20087         5.52226
     2009.73032         6.32875         5.44828
     2009.73305         7.77162         5.48527
     2009.73579         8.34650         5.51447
     2009.73853         5.91637         5.45801
     2009.74127         6.93425         5.56801
     2009.74401        13.12812         5.62641
     2009.74674         5.66199         5.42297
     2009.74948         5.29587         5.42784
     2009.75222         4.20774         5.47748
     2009.75496         7.44162         5.44828
     2009.75770         1.66249         5.48429
     2009.76043         5.38836         5.41129
     2009.76317         3.94224         5.42978
     2009.76591         4.13211         5.44633
     2009.76865         3.79099         5.62933
     2009.77138         4.22886         5.52420
     2009.77412         6.07874         5.42881
     2009.77686         4.67961         5.42199
     2009.77960        10.61448         5.42491
     2009.78234        13.71536         5.46093
     2009.78507        16.05523         5.51836
     2009.78781         1.99111         5.78508
     2009.79055         4.88698         5.68190
     2009.79329         3.35385         5.62252
     2009.79603         5.28673         5.60987
     2009.79876         3.99060         5.59624
     2009.80150         3.19048         5.60597
     2009.80424         2.13635         5.55341
     2009.83436         0.51197         5.51642
     2009.83709        -1.10316         5.56022
     2009.83983         0.16672         5.54173
     2009.84257         8.39659         5.53199
     2009.84531        -1.25154         5.65464
     2009.84804        -1.12166         5.61863
     2009.85078         1.86721         5.56801
     2009.85352         3.74309         5.56898
     2009.85626         3.87896         5.56119
     2009.85900        -6.74017         5.63226
     2009.86173        -2.87229         5.59429
     2009.86447         4.42058         5.84836
     2009.86721         3.74746         5.71597
     2009.86995        -3.84267         5.51934
     2009.87269        -0.25679         5.57288
     2009.87542        -2.22592         5.58650
     2009.87816        -1.05705         5.66535
     2009.88090        -1.95217         5.65367
     2009.88364        -0.86030         5.51836
     2009.88637         1.98858         5.54757
     2009.88911        -0.47655         5.43076
     2009.89185         0.39232         5.50766
     2009.89459        -0.17080         5.50960
     2009.89733        -8.19493         5.50668
     2009.90006        -4.98905         5.45606
     2009.90280         0.82282         5.45996
     2009.90554         1.07170         5.49890
     2009.90828        -3.15143         5.47651
     2009.91102        -3.54756         5.47359
     2009.91375        -0.62568         5.43952
     2009.91649        -0.51481         5.41031
     2009.91923        -3.66993         5.42005
     2009.92197        -5.77806         5.45217
     2009.92470        -6.93919         5.44925
     2009.92744        -2.91531         5.45704
     2009.93018        -3.98944         5.41129
     2009.93292        -2.34756         5.41323
     2009.93566        -1.85369         5.43660
     2009.93839        -1.84081         5.55925
     2009.94113         0.86006         5.42686
     2009.94387         2.24693         5.53005
     2009.94661         2.71581         5.53297
     2009.94935         2.65468         5.38987
     2009.95208       -10.11944         5.39863
     2009.95482        -9.77857         5.39766
     2009.95756       -16.74570         5.45801
     2009.96030       -21.88582         5.45704
     2009.96303        -4.25995         5.44049
     2009.96577       -10.23907         5.46093
     2009.96851        -6.02620         5.53102
     2009.97125        -0.14932         5.54659
     2009.97399        -1.17645         5.50084
     2009.97672        -6.90058         5.37819
     2009.97946        -8.93370         5.37332
     2009.98220        -5.59083         5.40934
     2009.98494        -3.02095         5.39182
     2009.98767        -2.15808         5.39084
     2009.99041        -5.66221         5.38598
     2009.99315        -4.63433         5.36554
     2009.99589        -6.16746         5.37138
     2009.99863        -7.75158         5.38500
     2010.00410       -15.49183         5.37722
     2010.00684       -10.20296         5.36943
     2010.00958        -8.91409         5.38403
     2010.01232       -10.56521         5.41226
     2010.01505       -10.22934         5.45704
     2010.01779        -4.77146         5.42491
     2010.02053       -11.34759         5.45217
     2010.02327       -10.62772         5.41031
     2010.02600        -6.92484         5.37527
     2010.02874        -3.03597         5.42881
     2010.03148         5.85291         5.42784
     2010.03422        -6.40722         5.50376
     2010.03696        -9.76034         5.75296
     2010.03969       -15.20447         5.55535
     2010.04243        -1.04660         5.38792
     2010.04517         1.94628         5.42005
     2010.04791         7.89815         5.40642
     2010.05065        -2.86497         5.52712
     2010.05338         0.03690         5.61084
     2010.05612         4.84077         5.51544
     2010.05886         9.13065         5.39279
     2010.06160         0.27852         5.36164
     2010.06433        -4.03560         5.35580
     2010.06707        -6.73773         5.36846
     2010.06981        -6.76485         5.50766
     2010.07255        -7.55198         5.53199
     2010.07529        -3.12411         5.49987
     2010.07802        -5.57123         5.37332
     2010.08076        -4.37136         5.36651
     2010.08350         0.89852         5.37430
     2010.08624        -0.68261         5.38111
     2010.08898         5.45726         5.51934
     2010.09171         3.20214         5.34315
     2010.09445         0.10101         5.51642
     2010.09719         1.58889         5.54562
     2010.09993        -9.82324         5.37430
     2010.10266         0.03264         5.37527
     2010.10540        -2.22949         5.49792
     2010.10814        -1.70462         5.47748
     2010.11088        -0.98574         5.53297
     2010.11362         1.18813         5.43076
     2010.11635         1.99301         5.41615
     2010.11909        -3.73312         5.41226
     2010.12183        -3.00924         5.40350
     2010.12457         1.11463         5.40642
     2010.12731        -0.02050         5.57580
     2010.13004        -9.83262         5.45412
     2010.13278        -4.89075         5.50279
     2010.13552         1.96913         5.48916
     2010.13826        -4.67900         5.38890
     2010.14099        -0.93113         5.35288
     2010.14373        -2.73325         5.52420
     2010.14647        -1.26838         5.57288
     2010.14921        -2.08750         5.46191
     2010.15195        -7.64763         5.37722
     2010.15468        -6.04175         5.38792
     2010.15742         0.98612         5.42686
     2010.16016         1.72899         5.39474
     2010.16290        -4.42713         5.42491
     2010.16564         1.17774         5.42394
     2010.16837        -3.31138         5.40058
     2010.17111        -0.92551         5.37430
     2010.17385        -3.43964         5.35775
     2010.17659        -3.18876         5.37624
     2010.17932         0.90211         5.38987
     2010.18206        -5.43801         5.39669
     2010.18480         1.08286         5.35385
     2010.18754        -0.33326         5.35093
     2010.19028        -2.29139         5.35580
     2010.19301        -3.99652         5.41421
     2010.19575        -2.73964         5.38500
     2010.19849        -3.53177         5.40155
     2010.20123        -8.82389         5.39571
     2010.20397        -5.13802         5.38208
     2010.20670       -14.58815         5.38792
     2010.20944       -10.94027         5.37624
     2010.21218        -7.55340         5.40253
     2010.21492        -4.12452         5.38014
     2010.21765        -5.23365         5.43854
     2010.22039        -7.58177         5.40934
     2010.22313        -8.64190         5.39669
     2010.22587        -6.49003         5.47164
     2010.22861         1.97785         5.47067
     2010.23134       -10.02328         5.47164
     2010.23408        -9.12940         5.47261
     2010.23956        -7.01566         5.53686
     2010.24230        -1.28978         5.69553
     2010.24503        -5.15191         5.54659
     2010.24777        -3.42303         5.51447
     2010.25051        -2.09016         5.69455
     2010.25325        -1.91828         5.51350
     2010.25598        -1.96541         5.51350
     2010.25872         4.49646         5.49208
     2010.26146        -3.82966         5.59721
     2010.26420        -7.70079         5.65172
     2010.26694        -8.06591         5.54951
     2010.26967        -5.04304         5.57774
     2010.27241        -3.01617         5.54075
     2010.27515        -2.73929         5.49305
     2010.27789        -1.13042         5.51447
     2010.28062        -1.61854         5.42199
     2010.28336        -7.99367         5.56509
     2010.28610        -2.99979         5.57190
     2010.28884        -3.22592         5.47456
     2010.29158         1.89395         5.40642
     2010.29431        -0.52217         5.39571
     2010.29705        -1.09230         5.44049
     2010.29979         0.66158         5.56606
     2010.30253         6.61445         5.53394
     2010.30527         5.75532         5.57677
     2010.30800         3.79220         5.41810
     2010.31074        -7.44593         5.46872
     2010.31348        -2.44905         5.44925
     2010.31622         3.98182         5.42784
     2010.31895         4.01170         5.54951
     2010.32169         5.52657         5.49208
     2010.32443        -0.12756         5.46677
     2010.32717         2.96332         5.40350
     2010.32991        -1.07281         5.43660
     2010.33264        -0.91693         5.40934
     2010.33538        -4.39306         5.60111
     2010.33812        -5.39219         5.40934
     2010.34086        -6.80331         5.41323
     2010.34360        -5.73644         5.39182
     2010.34633        -3.03056         5.47067
     2010.34907        -3.89669         5.38306
     2010.35181        -4.12081         5.35580
     2010.35455         0.90806         5.36943
     2010.35728        -6.83507         5.39182
     2010.36002        -4.92119         5.48819
     2010.36276         0.81368         5.37819
     2010.36550        -3.69144         5.61960
     2010.36824        -6.21857         5.59332
     2010.37097        -2.58170         5.40642
     2010.37371         4.85318         5.45898
     2010.37645         5.33205         5.40350
     2010.37919         1.36193         5.60889
     2010.38193        -5.16420         5.59040
     2010.38466        -2.52032         5.33536
     2010.38740         2.11955         5.37916
     2010.39014        -4.24558         5.33244
     2010.39288        -6.48170         5.34217
     2010.39561        -9.56383         5.34509
     2010.39835        -6.95395         5.30129
     2010.40109        -0.47108         5.35288
     2010.40383        -1.97621         5.34315
     2010.40657        -1.35033         5.38695
     2010.40930        -0.88146         5.35970
     2010.41204        -3.77058         5.32563
     2010.41478         1.56229         5.34607
     2010.41752         0.10417         5.42686
     2010.42026         2.23204         5.37235
     2010.42299         4.60791         5.29740
     2010.42573        -3.52721         5.27306
     2010.42847        -7.06134         5.29740
     2010.43121        -1.73046         5.39766
     2010.43394        -5.25659         5.35093
     2010.43668        -2.96572         5.31394
     2010.43942         2.46316         5.29448
     2010.44216        -5.26797         5.26625
     2010.44490        -5.64309         5.28863
     2010.44763        -9.37522         5.37332
     2010.45037        -4.43634         5.31978
     2010.45311        -4.22047         5.32465
     2010.45585        -0.49460         5.31005
     2010.45859        -4.08172         5.35483
     2010.46132        -6.51585         5.39474
     2010.46406         1.85803         5.35580
     2010.46680         1.70390         5.35483
     2010.46954        -3.63823         5.30518
     2010.47227        -4.28435         5.27793
     2010.47501        -6.07148         5.31881
     2010.47775        -2.17060         5.50863
     2010.48049         2.03727         5.44146
     2010.48323         2.65415         5.30616
     2010.48596         0.49402         5.31394
     2010.48870         4.90089         5.29350
     2010.49144        -0.39723         5.28766
     2010.49418         4.60164         5.29253
     2010.49692        -3.52348         5.26333
     2010.49965         1.67739         5.26333
     2010.50239         2.70526         5.25067
     2010.50513         3.47514         5.28085
     2010.50787         6.52401         5.32173
     2010.51060        -0.30811         5.27014
     2010.51334         6.46076         5.27306
     2010.51608         8.06764         5.27890
     2010.51882        -0.42749         5.28669
     2010.52156        10.59138         5.39377
     2010.52429        12.80526         5.38014
     2010.52703         8.54113         5.34704
     2010.52976         4.12801         5.32076
     2010.53254         0.31488         5.36846
     2010.53525         5.69775         5.27793
     2010.53798        -4.77737         5.24288
     2010.54072        -1.16250         5.20687
     2010.54346        -0.59362         5.21368
     2010.54620         0.56625         5.22536
     2010.54893        -0.39687         5.27014
     2010.55167        -1.54700         5.24288
     2010.55441         5.91387         5.27793
     2010.55715         1.51475         5.20492
     2010.55989         0.17962         5.23218
     2010.56262         1.76950         5.26138
     2010.56536        -0.15263         5.18935
     2010.56810         3.06924         5.22244
     2010.57084        -0.59488         5.27209
     2010.57357         4.94499         5.34509
     2010.57631         5.19187         5.34704
     2010.57905        -3.93426         5.19129
     2010.58179         4.84562         5.22439
     2010.58453        -0.74451         5.17669
     2010.58726        -0.45464         5.41713
     2010.59000         8.90024         5.40350
     2010.59274         1.19711         5.34217
     2010.59548         6.81999         5.24580
     2010.59822         7.83886         5.21076
     2010.60095         5.51673         5.22536
     2010.60369         4.17661         5.20687
     2010.60643         4.64748         5.24094
     2010.60917         6.71136         5.18643
     2010.61190         8.55323         5.18935
     2010.61464         3.04711         5.22536
     2010.61738         5.73098         5.17474
     2010.62012         7.37885         5.24580
     2010.62286         7.68073         5.24483
     2010.62559         6.57560         5.20979
     2010.62833         9.86648         5.25164
     2010.63107         5.91035         5.33439
     2010.63381         9.74023         5.24970
     2010.63655        10.11510         5.23218
     2010.63928         4.50997         5.24580
     2010.64202         4.88385         5.22244
     2010.64476         4.10972         5.36456
     2010.64750         5.87960         5.26041
     2010.65023        10.00747         5.39961
     2010.65297         6.12134         5.42199
     2010.65571         4.30022         5.16598
     2010.65845         8.48309         5.12510
     2010.66119         5.71497         5.23510
     2010.66392         6.13384         5.22634
     2010.66666         8.04372         5.17280
     2010.66940         4.74159         5.19324
     2010.67214         5.95546         5.16209
     2010.67488        11.84634         5.20784
     2010.67761         5.73221         5.18058
     2010.68035         6.35109         5.19811
     2010.68309        15.15196         5.18643
     2010.68583        14.07883         5.19421
     2010.68856         6.91171         5.15820
     2010.69130         4.27658         5.20687
     2010.69404         5.18246         5.32952
     2010.69678         6.67633         5.18837
     2010.69952         4.05621         5.20395
     2010.70225         1.28808         5.15138
     2010.70499         9.09695         5.21076
     2010.70773         0.73983         5.31881
     2010.71047         7.51870         5.25456
     2010.71321         8.34858         5.22439
     2010.71594         6.13845         5.29837
     2010.71868         8.97132         5.24970
     2010.72142        10.58320         5.35970
     2010.72416         9.15007         5.37332
     2010.72689         7.44495         5.33536
     2010.72963         7.21582         5.21563
     2010.73237         8.14970         5.29156
     2010.73511         6.96557         5.27209
     2010.73785         6.21444         5.44536
     2010.74058         3.32332         5.53978
     2010.74332         7.98719         5.25262
     2010.74606        10.35507         5.29058
     2010.74880         9.09594         5.33049
     2010.75154         8.20281         5.17766
     2010.75427         9.69669         5.26819
     2010.75701         5.92356         5.29156
     2010.75975         7.40444         5.17280
     2010.76249         7.28131         5.19811
     2010.76522         9.22719         5.19227
     2010.76796        10.53806         5.27598
     2010.77070         3.07493         5.27695
     2010.77344         4.57481         5.33244
     2010.77618         2.47768         5.21465
     2010.77891         1.61656         5.21368
     2010.78165         9.96343         5.26430
     2010.78439        11.21930         5.31297
     2010.78713        12.67518         5.38111
     2010.78987         7.65605         5.20687
     2010.79260         8.14993         5.20784
     2010.79534         5.19280         5.19032
     2010.79808         8.67468         5.20979
     2010.80082         9.05255         5.20492
     2010.80355         8.92842         5.16014
     2010.80629         8.19430         5.25067
     2010.80903         8.03717         5.22147
     2010.81177         8.85305         5.26917
     2010.81451        15.01592         5.20492
     2010.81724         6.20579         5.24970
     2010.81998         6.35267         5.19908
     2010.82272         4.10254         5.22536
     2010.82546         6.19442         5.22926
     2010.82820         9.35029         5.21952
     2010.83105         5.40316         5.75393
     2010.83367         2.97504         5.49792
     2010.83641        -1.51809         5.24580
     2010.83915        -0.06021         5.20589
     2010.84188         7.35566         5.19519
     2010.84462         6.91854         5.25749
     2010.84736        11.24841         5.23315
     2010.85010         9.69228         5.27209
     2010.85284         4.68016         5.20297
     2010.85557         8.03803         5.16793
     2010.85831         4.63491         5.15917
     2010.86105        -0.74022         5.17864
     2010.86379        -4.68734         5.16890
     2010.86653         0.74153         5.19811
     2010.86926         2.27840         5.14846
     2010.87200         1.68028         5.15138
     2010.87748        -2.92797         5.22049
     2010.88021         1.76090         5.13970
     2010.88295         1.67077         5.16598
     2010.88569         4.10065         5.13775
     2010.88843         1.96752         5.40545
     2010.89117         4.16940         5.36067
     2010.89390         5.17827         5.10076
     2010.89664         4.69815         5.08908
     2010.89938         3.91602         5.08616
     2010.90212        -6.12611         5.13289
     2010.90485         1.53477         5.12413
     2010.90759         2.48364         5.04917
     2011.16221        -1.99806         5.17572
     2011.16495       -14.28919         5.20200
     2011.16769        -7.68831         5.22634
     2011.17043       -15.50844         5.23802
     2011.17316       -19.88156         5.22147
     2011.17590       -14.39669         5.17085
     2011.17864        -9.25081         5.16793
     2011.18138       -12.23594         5.19519
     2011.18412       -17.01807         5.25164
     2011.18685       -12.22119         5.26138
     2011.18959        -4.98832         5.19227
     2011.19233         2.20656         5.15138
     2011.19507         3.08443         5.20200
     2011.19780       -15.34670         5.35093
     2011.20054        -2.81282         5.25359
     2011.20328       -12.56195         5.35677
     2011.20602         2.30793         5.35970
     2011.21423        14.72155         5.26625
     2011.22518        11.45205         5.23899
     2011.22792        -4.67208         5.23412
     2011.23066        -6.10721         5.23899
     2011.23340        -4.03433         5.18935
     2011.23613        -9.02246         5.20784
     2011.23887       -12.20458         5.20784
     2011.24161       -13.16271         5.27014
     2011.24435       -25.46383         5.29350
     2011.24709       -16.55496         5.20103
     2011.24982       -18.44509         5.18740
     2011.25256       -10.39221         5.19227
     2011.25530       -15.06134         5.20784
     2011.30732       -12.51573         5.20297
     2011.31006        -9.24185         5.18448
     2011.31279        -4.16298         5.20881
     2011.31553       -10.17011         5.21660
     2011.31827       -10.92323         5.21757
     2011.32101       -15.83736         5.24191
     2011.32375       -18.85948         5.21173
     2011.32648       -16.35061         5.17961
     2011.32922       -19.50074         5.20005
     2011.33196       -23.54086         5.23120
     2011.33470       -23.36699         5.29058
     2011.33744       -12.54111         5.26917
     2011.34017        -9.01424         5.33536
     2011.34291        -6.69736         5.35580
     2011.34565        -6.91049         5.31102
     2011.34839       -15.29362         5.32368
     2011.35112       -14.86174         5.28571
     2011.35386       -14.92587         5.28571
     2011.35660        -7.80599         5.21563
     2011.35934       -19.37612         5.20492
     2011.36208       -21.85425         5.22828
     2011.36481       -18.02537         5.39474
     2011.36755        -9.67150         5.36748
     2011.37029       -15.87962         5.34217
     2011.37303       -12.36075         5.35093
     2011.37577       -13.71287         5.33633
     2011.37850       -15.29700         5.31784
     2011.38124       -14.47813         5.33244
     2011.38398       -11.07125         5.31005
     2011.38672       -10.84138         5.31005
     2011.38945        -3.53950         5.34509
     2011.39219        -8.38763         5.31005
     2011.39493       -10.93076         5.38695
     2011.39767        -9.66888         5.31784
     2011.40041        -5.19401         5.31686
     2011.40314       -11.37513         5.31978
     2011.40588        -7.35826         5.30226
     2011.40862        -4.47238         5.32270
     2011.41136        -6.92351         5.29642
     2011.41410        -9.23364         5.34607
     2011.41683       -12.11976         5.33244
     2011.41957        -6.95789         5.30810
     2011.42231       -11.84401         5.33439
     2011.42505        -6.22014         5.34023
     2011.42778        -9.15127         5.33925
     2011.43052       -12.11239         5.35872
     2011.43326       -10.89052         5.36943
     2011.43600       -10.33964         5.31686
     2011.43874       -13.43277         5.31881
     2011.44147        -9.32889         5.30616
     2011.44421        -5.52202         5.31102
     2011.44695        -4.07315         5.35093
     2011.44969        -7.64427         5.35483
     2011.45243       -16.74440         5.33049
     2011.45516        -8.90452         5.31200
     2011.45790        -9.31065         5.32952
     2011.46064        -9.07178         5.34607
     2011.46338       -13.08590         5.33536
     2011.46611        -7.13903         5.35483
     2011.46885        -5.29815         5.34509
     2011.47159       -10.25728         5.37235
     2011.47433        -8.71840         5.37430
     2011.47707        -3.52153         5.32660
     2011.47980        -1.35666         5.34315
     2011.48254        -4.63178         5.36748
     2011.48528        -7.14691         5.34899
     2011.48802        -3.61103         5.32173
     2011.49076         1.23784         5.36748
     2011.49349        -5.89229         5.35580
     2011.49623        -4.95741         5.40934
     2011.49897        -2.43954         5.40253
     2011.50171         0.71034         5.42784
     2011.50444        -7.43579         5.33147
     2011.50718        -5.10391         5.33147
     2011.50992        -4.42204         5.35580
     2011.51266         0.10183         5.53297
     2011.51540        -7.02529         5.35872
     2011.51813         0.40258         5.32563
     2011.52087        -0.78854         5.32757
     2011.52361        -7.30267         5.34509
     2011.52635        -5.43180         5.37527
     2011.52908        -2.20592         5.38111
     2011.53182        -2.36205         5.36164
     2011.53456        -2.14717         5.32173
     2011.53730        -2.72530         5.34120
     2011.54004        -0.05242         5.39084
     2011.54277        -0.63855         5.35970
     2011.54551        -4.47968         5.40739
     2011.54825        -1.59380         5.34120
     2011.55099        -0.70793         5.41713
     2011.55373        -2.47805         5.37332
     2011.55646        -4.06718         5.34023
     2011.55920         0.28969         5.36164
     2011.56194         3.38557         5.40350
     2011.56468         3.72744         5.31102
     2011.56741         5.28932         5.31881
     2011.57015        -0.66781         5.39961
     2011.57289        -3.77993         5.31784
     2011.57563         5.36294         5.36359
     2011.57837         1.99281         5.44730
     2011.58110        -5.69331         5.32368
     2013.81366        17.49008        14.49434
     2013.81519         5.64701         5.17377
     2013.81793        -0.96811         5.15430
     2013.82067         8.72876         5.31784
     2013.82340        16.81563         5.23023
     2013.82614         9.57051         5.28182
     2013.82888        11.31638         5.20589
     2013.83162         7.50826         5.19421
     2013.83436         2.83913         5.27501
     2013.83709         6.15201         5.25554
     2013.83983         3.34688         5.27598
     2013.84257         3.46875         5.25554
     2013.84531         3.95563         5.31881
     2013.84804         1.47750         5.15625
     2013.85078         6.71438         5.18740
     2013.85352         6.63125         5.17085
     2013.85626         5.12212         5.24872
     2013.85900         4.36000         5.16112
     2013.86173         0.85987         5.19129
     2013.86447        -2.20725         5.15333
     2013.86721         2.03162         5.15528
     2013.86995         1.83850         5.16696
     2013.87269         8.89837         5.17085
     2013.87542       -14.70776         5.16696
     2013.87816         5.02212         5.14943
     2013.88090         3.64899         5.26333
     2013.88364         3.26887         5.40739
     2013.88637        -3.38826         5.15041
     2013.88911        -4.39439         5.14067
     2013.89185        -8.97751         5.11342
     2013.89459        -5.57664         5.15236
     2013.89733         0.79724         5.15917
     2013.90006         2.02311         5.23412
     2013.90280        -4.22501         5.23315
     2013.90554        -0.76014         5.16209
     2013.90828         1.36373         5.15528
     2013.91102        -1.18339         5.16890
     2013.91375        -2.31152         5.15722
     2013.91649        -1.14964         5.17766
     2013.91923         0.39423         5.23510
     2013.92197         1.39610         5.20395
     2013.92470         4.90698         5.13581
     2013.92744         3.29885         5.25262
     2013.93018         3.71573         5.15528
     2013.93292         0.82160         5.12510
     2013.93566         0.40948         5.12997
     2013.93839         3.23935         5.15236
     2013.94113        -1.41678         5.14165
     2013.94387         2.93410         5.12802
     2013.94661         2.71997         5.22536
     2013.94935         3.18785         5.13581
     2013.95208         1.51072         5.16112
     2013.95482         2.89659         5.14651
     2013.95756         3.55947         5.13678
     2013.96030         4.45634         5.18837
     2013.96303        -0.76878         5.12023
     2013.96577         2.47209         5.15430
     2013.96851        -0.26003         5.17961
     2013.97125        -7.74716         5.16404
     2013.97399        -4.88829         5.19129
     2013.97672        -6.98041         5.14749
     2013.97946        -4.00754         5.14749
     2013.98220        -5.80466         5.16988
     2013.98494        -2.79279         5.16209
     2013.98767        -4.52192         5.19032
     2013.99041        -7.19604         5.17182
     2013.99315       -10.59517         5.17864
     2013.99589        -5.75829         5.20005
     2013.99863        -6.97142         5.19421
     2014.00410        -0.03467         5.20589
     2014.00684        -8.85680         5.21563
     2014.00958        -4.64592         5.17766
     2014.01232        -6.22005         5.25749
     2014.01505        -1.83517         5.27111
     2014.01779        -2.92130         5.27501
     2014.02053        -3.35143         5.19227
     2014.02327        -3.42355         5.38598
     2014.02600         0.59632         5.34801
     2014.02874       -11.07080         5.22147
     2014.03148         5.11107         5.22147
     2014.03422        -6.36305         5.21173
     2014.03696        -1.74918         5.16890
     2014.03969        -4.91931         5.17766
     2014.04243        -2.67743         5.33536
     2014.04517         4.34544         5.35580
     2014.04791         3.27632         5.17572
     2014.05065         4.98819         5.12510
     2014.05338        -2.57894         5.13386
     2014.05612        -4.47306         5.16209
     2014.05886        -6.66919         5.14457
     2014.06160        -1.43831         5.15820
     2014.06433         0.91256         5.33633
     2014.06707         3.07144         5.28571
     2014.06981         0.69631         5.21855
     2014.07255        -2.02082         5.15236
     2014.07529         1.19706         5.18740
     2014.07802        -5.69407         5.17864
     2014.08076         2.00881         5.16112
     2014.08350         2.17968         5.16209
     2014.08624        -0.80245         5.24678
     2014.08898        -1.31457         5.41129
     2014.09171        -0.62270         5.38306
     2014.09445        -1.29582         5.15722
     2014.09719        -4.30095         5.29448
     2014.09993         3.40393         5.15041
     2014.10266         2.36980         5.34996
     2014.10540         6.01567         5.13970
     2014.10814         4.45655         5.15722
     2014.11088        -1.62858         5.29156
     2014.11362        -1.32270         5.27306
     2014.11635        -3.26783         5.19324
     2014.11909        -0.62996         5.20200
     2014.12183         0.58992         5.21952
     2014.12457        -0.23821         5.18350
     2014.12731         3.19167         5.21465
     2014.13004        -4.21846         5.19129
     2014.13278        -3.18858         5.31102
     2014.14373         4.42491         5.22926
     2014.14647         4.59079         5.22342
     2014.14921         0.93566         5.22342
     2014.15195        13.49854         5.26917
     2014.15468         8.15541         5.25359
     2014.16290        -1.50997         5.24483
     2014.16564        -5.99109         5.29642
     2014.16837       -11.40322         5.55243
     2014.17111        -8.98335         5.48235
     2014.17659        -2.86260         5.25846
     2014.17932        -7.43972         5.48235
     2014.18206        -9.57685         5.36456
     2014.18480        -4.22497         5.20200
     2014.18754        -2.16610         5.18643
     2014.19028        -3.44323         5.19324
     2014.19301         1.57965         5.23315
     2014.19575         0.82752         5.23510
     2014.19849        -0.24960         5.24191
     2014.20123        -8.54773         5.25359
     2014.20397       -15.40086         5.22926
     2014.20670        -6.23598         5.19421
     2014.20944        -4.63611         5.22536
     2014.21218       -10.71423         5.28085
     2014.21492        -9.48236         5.30032
     2014.21765         3.36752         5.20589
     2014.22039        -2.31161         5.22147
     2014.22313       -10.26874         5.21757
     2014.22587       -10.55786         5.22147
     2014.22861        -2.37899         5.24580
     2014.23134        -2.29811         5.18156
     2014.23408        -0.06124         5.18350
     2014.23682        -0.84837         5.24970
     2014.23956       -14.92949         5.38014
     2014.24230        -6.03862         5.20979
     2014.24503        -6.54274         5.18545
     2014.24777         4.13913         5.41226
     2014.25051        -2.89799         5.22049
     2014.25325        -2.82612         5.24678
     2014.25598        -9.84725         5.38598
     2014.25872        -5.56137         5.23120
     2014.26420       -13.17562         5.19616
     2014.26694       -14.58375         5.21855
     2014.26967       -13.22088         5.23315
     2014.27241        -7.77000         5.32465
     2014.27515        -8.45313         5.29350
     2014.27789        -4.73925         5.22926
     2014.28062        -3.35338         5.23704
     2014.28336        -8.26950         5.19227
     2014.28610        -7.73563         5.36262
     2014.28884       -12.85076         5.45120
     2014.29158       -10.28688         5.17182
     2014.29431        -8.18701         5.17669
     2014.29705        -4.01513         5.25456
     2014.29979       -12.87826         5.24580
     2014.30253        -8.60739         5.23510
     2014.30527        -7.99151         5.19032
     2014.30800        -3.57464         5.20979
     2014.31074       -12.18676         5.30713
     2014.31348       -12.46789         5.20492
     2014.31622        -1.89801         5.19713
     2014.31895        -8.52314         5.19421
     2014.32169        -4.93427         5.28669
     2014.32443       -13.09539         5.30713
     2014.32717       -15.54652         5.35385
     2014.32991        -7.22064         5.18837
     2014.33264        -7.10677         5.18350
     2014.33538        -6.80090         5.21660
     2014.33812        -3.15302         5.32465
     2014.34086        -7.24015         5.19519
     2014.34360        -5.70227         5.19616
     2014.34633       -12.60640         5.19421
     2014.34907        -9.18052         5.34801
     2014.35181        -5.49365         5.32368
     2014.35455        -8.73378         5.19519
     2014.35728        -9.44290         5.19421
     2014.36002       -12.66703         5.20395
     2014.36276       -12.34515         5.20784
     2014.36550        -9.10028         5.19227
     2014.36824        -8.57641         5.26527
     2014.37097        -8.58353         5.22634
     2014.37371       -10.93766         5.22634
     2014.37645        -5.59278         5.20395
     2014.37919        -3.09391         5.25262
     2014.38193       -10.22003         5.23120
     2014.38466        -9.67616         5.24580
     2014.38740        -9.67429         5.29253
     2014.39014        -6.32341         5.33244
     2014.39288        -3.42954         5.27209
     2014.39561        -6.71166         5.26138
     2014.39835        -4.56679         5.29740
     2014.40109        -7.89592         5.24483
     2014.40383        -9.10104         5.27695
     2014.40657        -4.42617         5.26138
     2014.40930        -5.05929         5.26819
     2014.41204       -11.77942         5.19811
     2014.41478       -11.13354         5.18837
     2014.41752        -7.17567         5.20395
     2014.42026        -2.88280         5.18350
     2014.42299        -6.67392         5.18935
     2014.42573        -9.92105         5.20784
     2014.42847       -16.17717         5.26527
     2014.43121       -12.75330         5.20492
     2014.43394        -9.57643         5.21173
     2014.43668        -8.87355         5.19324
     2014.43942        -9.82068         5.21855
     2014.44216        -7.77180         5.18935
     2014.44490        -3.60293         5.35191
     2014.44763        -1.96605         5.31102
     2014.45037        -2.23718         5.18350
     2014.45311        -0.34831         5.27209
     2014.45585        -2.61343         5.18448
     2014.45859        -7.89156         5.20395
     2014.46132        -5.90268         5.20589
     2014.46406        -1.38181         5.16598
     2014.46680        -3.59794         5.21368
     2014.46954        -6.33606         5.18058
     2014.47227        -2.57119         5.23023
     2014.47501        -2.78531         5.24288
     2014.47775        -3.85844         5.20492
     2014.48049        -5.92856         5.20005
     2014.48323         1.12031         5.29740
     2014.48596         0.70818         5.46580
     2014.48870         4.73506         5.30129
     2014.49144        -2.28407         5.18643
     2014.49418        -3.19819         5.11731
     2014.49692        -6.32332         5.13678
     2014.49965        -1.23145         5.20784
     2014.50239        -0.68057         5.22536
     2014.50513        -0.56970         5.19713
     2014.50787        -3.72782         5.17864
     2014.51060        -6.21795         5.14554
     2014.51334        -0.15207         5.17280
     2014.51608         2.71980         5.16306
     2014.51882        -2.33633         5.22828
     2014.52156         5.72955         5.28279
     2014.52429         3.50642         5.18837
     2014.52703         8.56830         5.19324
     2014.52977        -1.19283         5.25749
     2014.53251        -0.30696         5.29058
     2014.53525        -0.30808         5.25651
     2014.53798         6.69279         5.17864
     2014.54072         5.61567         5.29837
     2014.54346         5.06954         5.21271
     2014.54620         4.98242         5.21757
     2014.54893         6.73229         5.21855
     2014.55167         6.51116         5.24191
     2014.55441         6.32204         5.26430
     2014.55715        -0.24809         5.36554
     2014.55989         0.30079         5.23996
     2014.56262         4.10066         5.22536
     2014.56536        -0.32547         5.21952
     2014.56810         1.29141         5.21271
     2014.57084         3.52328         5.22926
     2014.57357         0.10616         5.21563
     2014.57631        -0.41997         5.21660
     2014.57905         3.64891         5.21368
     2014.58179         3.82178         5.34315
     2014.58453         2.29965         5.36943
     2014.58726         2.31353         5.48429
     2014.59000         3.68140         5.34315
     2014.59274         6.62728         5.28669
     2014.59548         1.50115         5.33828
     2014.59822         2.09402         5.36067
     2014.60095         6.90490         5.35191
     2014.60369         5.87177         5.29253
     2014.60643         1.65165         5.28863
     2014.60917         5.31352         5.31589
     2014.61190         4.09240         5.40837
     2014.61464        11.42627         5.46191
     2014.61738         5.67514         5.49403
     2014.62012        11.20402         5.47553
     2014.62286         7.03289         5.29058
     2014.62559         9.17777         5.29740
     2014.62833         5.79464         5.29058
     2014.63107         7.57851         5.37138
     2014.63381         6.81839         5.46677
     2014.63655        12.38926         5.37430
     2014.63928         0.92614         5.26041
     2014.64202         1.25001         5.26625
     2014.64476         3.94889         5.30129
     2014.64750         6.96276         5.21952
     2014.65023         4.68863         5.19713
     2014.65297        12.31351         5.26138
     2014.65571        -2.75062         5.25943
     2014.65845        12.80426         5.33633
     2014.66119        12.30913         5.26527
     2014.66392        11.15101         5.27695
     2014.66666        12.18888         5.21757
     2014.66940         5.18775         5.31394
     2014.67214        11.41863         5.31200
     2014.67488         4.34450         5.24678
     2014.67761         4.37238         5.24970
     2014.68035         6.01825         5.24288
     2014.68309         2.42512         5.26333
     2014.68583         3.51100         5.27209
     2014.68856         4.64687         5.29448
     2014.69130         5.31475         5.24386
     2014.69404         2.31662         5.19032
     2014.69678         4.00350         5.20005
     2014.69952         6.88437         5.21660
     2014.70225         5.79824         5.22536
     2014.70499        10.55812         5.22147
     2014.70773        10.38899         5.20297
     2014.71047         9.84287         5.22536
     2014.71321        10.93974         5.17961
     2014.71594         8.91761         5.28085
     2014.71868        10.12549         5.19713
     2014.72142        10.70736         5.20979
     2014.72416         7.28924         5.25846
     2014.72689         5.40011         5.26722
     2014.72963         9.89899         5.22634
     2014.73237        16.74486         5.31784
     2014.73511         6.77873         5.24580
     2014.73785         6.05861         5.20784
     2014.74058         5.25448         5.22634
     2014.74332        10.15436         5.33147
     2014.74606        13.49723         5.28474
     2014.74880        11.46210         5.26527
     2014.75154         6.49998         5.34996
     2014.75427         7.50585         5.22926
     2014.75701         1.22773         5.31102
     2014.75975         2.06160         5.29642
     2014.76249         7.52348         5.25456
     2014.76522         3.85335         5.23412
     2014.76796         6.58322         5.27890
     2014.77070         2.66010         5.20784
     2014.77344         5.26497         5.33341
     2014.77618        12.30985         5.28377
     2014.77891         8.50572         5.24094
     2014.78165        12.43459         5.38598
     2014.78439         9.72647         5.27598
     2014.78713        13.85434         5.23023
     2014.78987         5.05922         5.18740
     2014.79260         8.96509         5.18545
     2014.79534        10.54197         5.31200
     2014.79808        -0.53116         5.45606
     2014.80082         8.92371         5.32076
     2014.80355         7.50559         5.31784
     2014.80629         6.30246         5.30324
     2014.80903         3.60534         5.34217
     2014.81177         7.56721         5.21855
     2014.81451        11.39908         5.23607
     2014.81724         3.88896         5.24580
     2014.81998         8.48183         5.24580
     2014.82272        11.70971         5.40058
     2014.82546        10.72958         5.20492
     2014.82820        -3.10254         5.16306
     2014.83093         3.89533         5.29156
     2014.83367         4.50620         5.26917
     2014.83641         6.57808         5.23996
     2014.83915         7.33495         5.28474
     2014.84188         7.19783         5.42881
     2014.84462        -3.96830         5.33244
     2014.84736        -1.81343         5.40545
     2014.85010         2.32345         5.33536
     2014.85284         3.23932         5.27403
     2014.85557        12.95520         5.25846
     2014.85831         9.23207         5.30616
     2014.86105        -0.96005         5.27403
     2014.86379         0.25982         5.27793
     2014.86653        -1.33031         5.25456
     2014.86926         2.20257         5.20979
     2014.87200         5.63744         5.30421
     2014.87474        -1.46568         5.26625
     2014.87748        -1.64081         5.26819
     2014.88021         4.59506         5.28474
     2014.88295         4.20794         5.25846
     2014.88569         5.49381         5.40253
     2014.88843         9.34969         5.57580
     2014.89117         4.79156         5.63128
     2014.89390        -1.86156         5.42589
     2014.89664         1.94031         5.42491
     2014.90212        -9.97894         5.41129
     2014.90485        -8.23907         5.29837
     2014.90759        -0.00819         5.20200
     2014.91033        -3.59332         5.24483
     2014.91307        -3.41845         5.18448
     2014.91581         2.66343         5.19227
     2014.91854         5.73830         5.17669
     2014.92128         1.35918         5.19324
     2014.92402         3.53805         5.20784
     2014.92676         0.19593         5.30032
     2014.92950         2.43380         5.26917
     2014.93223        -3.49033         5.22926
     2014.93497        -6.11945         5.21173
     2014.93771        -1.42758         5.33925
     2014.94045         0.39430         5.29448
     2014.94318         2.13217         5.40837
     2014.94592        -3.17696         5.33536
     2014.94866        -6.28908         5.12997
     2014.95140        -2.98221         5.11829
     2014.95414        -0.12133         5.15625
     2014.95687         7.16054         5.18058
     2014.95961        10.58242         5.17474
     2014.96235        -0.59071         5.14846
     2014.96509         4.23916         5.26722
     2014.96783        -3.27296         5.15820
     2014.97056         1.42591         5.25456
     2014.97330        -1.15221         5.21271
     2014.97604        -8.41534         5.19616
     2014.97878        -2.37647         5.16014
     2014.98151         1.33041         5.25651
     2014.98425        -7.41572         5.14846
     2014.98699        -4.53884         5.18643
     2014.98973        -6.63897         5.11342
     2014.99247        -5.68709         5.14165
     2014.99520        -7.91022         5.12607
     2014.99794        -2.00135         5.08908
     2015.00068        -0.41147         5.07740
     2015.00342         0.80340         5.12899
     2015.00616       -14.18572         5.10466
     2015.00889        -9.02185         5.24872
     2015.01437        -3.77610         5.21368
     2015.01711        -1.35723         5.32270
     2015.01984         0.39565         5.19324
     2015.02258         2.66852         5.28766
     2015.02532        -0.39360         5.13581
     2015.02806        -5.23373         5.12218
     2015.03080         0.58714         5.14943
     2015.03353        -7.65598         5.14262
     2015.03627         1.35589         5.11634
     2015.03901        -2.94023         5.15917
     2015.04175        -3.38336         5.16209
     2015.04449        -0.49149         5.17182
     2015.04722        -4.28961         5.23704
     2015.04997        -5.76674         5.22049
     2015.05270        -5.34886         5.19032
     2015.05544        -2.53999         5.14943
     2015.05817         1.50289         5.17474
     2015.06091        -3.32724         5.14457
     2015.06365         3.87263         5.32173
     2015.06639        -0.04849         5.15236
     2015.06913         1.52438         5.15138
     2015.07186        -2.61974         5.17085
     2015.07460        -2.53687         5.16404
     2015.07734        -3.09700         5.15041
     2015.08008        -6.43712         5.13970
     2015.08282        -5.12725         5.14554
     2015.08555        -0.35137         5.11439
     2015.08829        -1.35350         5.16404
     2015.09103         0.60438         5.12899
     2015.09377         1.10425         5.12218
     2015.09650        -0.77388         5.12510
     2015.09924         3.15300         5.24775
     2015.10198         3.64887         5.16306
     2015.10472         1.00475         5.14846
     2015.10746         2.05862         5.13970
     2015.11019        -3.83251         5.23412
     2015.11293        -5.06663         5.23412
     2015.11567         0.25324         5.14651
     2015.11841        -4.82888         5.11342
     2015.12115        -3.43201         5.15430
     2015.12388        -1.18513         5.15820
     2015.12662        -3.70226         5.13094
     2015.12936        -1.95939         5.11244
     2015.13210        -4.00951         5.17377
     2015.13483        -3.48664         5.18350
     2015.13757        -3.68976         5.18350
     2015.14031       -11.29389         5.14749
     2015.14305        -4.25602         5.09103
     2015.14579        -4.87914         5.12607
     2015.14852        -1.89827         5.14457
     2015.15126        -1.06239         5.12705
     2015.15400        -5.31452         5.11634
     2015.15674         1.83936         5.10368
     2015.15948         5.81723         5.11050
     2015.16221         2.39210         5.14554
     2015.16495         3.43598         5.13191
     2015.16769         2.42785         5.13191
     2015.17043         0.76073         5.10855
     2015.17316        -3.39040         5.24191
     2015.17590        -0.48052         5.27111
     2015.17864         0.10435         5.14359
     2015.18138         0.91922         5.13094
     2015.18412         3.96810         5.15138
     2015.18685         2.90197         5.09103
     2015.18959        -2.69915         5.15528
     2015.19233         2.85572         5.25943
     2015.19507        -0.51341         5.14943
     2015.19780        -2.31253         5.13873
     2015.20054         2.00234         5.11342
     2015.20328        -5.56278         5.09103
     2015.20602        -2.04991         5.37040
     2015.20876        -2.82303         5.14943
     2015.21149        -8.64816         5.13970
     2015.21423        -1.07029         5.30518
     2015.21697        -1.43441         5.19421
     2015.21971        -9.90254         5.17961
     2015.22245        -1.03466         5.10368
     2015.22518        -2.15379         5.14359
     2015.22792        -1.30592         5.13386
     2015.23066         0.04696         5.13386
     2015.23340         2.34883         5.26333
     2015.23613         1.86071         5.27890
     2015.23887        -0.83542         5.38014
     2015.24161         2.43246         5.41129
     2015.24435         4.38933         5.41615
     2015.24709        -6.59080         5.26041
     2015.24982        -6.15792         5.09979
     2015.25256         0.35295         5.13775
     2015.25530        -3.40817         5.14067
     2015.25804        -2.86430         5.12510
     2015.26078         4.17957         5.10660
     2015.26351         1.35745         5.10952
     2015.26625         1.23532         5.17572
     2015.26899        -6.94180         5.11634
     2015.27173         6.02107         5.25262
     2015.27446         3.24295         5.25943
     2015.27720         0.03882         5.12218
     2015.27994        -3.99931         5.14846
     2015.28268        -6.28643         5.12899
     2015.28542        -6.85556         5.22634
     2015.28815        -6.13968         5.29934
     2015.29089        -5.03981         5.13873
     2015.29363        -3.85694         5.16306
     2015.29637        -4.34606         5.16988
     2015.29911         2.48681         5.14262
     2015.30184         5.73769         5.12510
     2015.30458        -5.91844         5.12997
     2015.30732        -0.69556         5.04820
     2015.31006        -2.56569         5.05793
     2015.31279        -2.49482         5.04625
     2015.31553        -6.62194         4.99855
     2015.31827        -5.13907         5.01802
     2015.32101        -3.88919         5.06280
     2015.32375        -3.04432         5.01802
     2015.32648        -3.89745         5.09200
     2015.32922        -3.24857         5.11342
     2015.33196        -3.63270         5.02094
     2015.33470        -1.61482         5.02484
     2015.33744        -1.63995         5.04138
     2015.34017        -3.47207         5.01705
     2015.34291        -6.03120         4.98687
     2015.34565        -2.62133         5.01413
     2015.34839        -1.96845         4.98201
     2015.35112        -3.24658         5.02094
     2015.35386         1.27230         5.01705
     2015.35660        -1.11783         4.99758
     2015.35934        -2.05796         5.10563
     2015.36208         0.17192         5.07253
     2015.36481        -2.34521         5.00439
     2015.36755        -1.16733         5.02776
     2015.37029        -1.61346         4.99563
     2015.37303        -5.37758         5.00147
     2015.37577        -4.08571         4.99077
     2015.37850        -3.77284         5.13094
     2015.38124        -3.89196         4.99953
     2015.38398         0.38091         5.01802
     2015.38672         0.93879         5.04820
     2015.38945        -3.41534         4.98687
     2015.39219        -1.22947         4.99369
     2015.39493        -3.11959         5.00050
     2015.39767        -4.23972         5.00342
     2015.40041        -5.26984         5.00147
     2015.40314        -4.98297         5.18156
     2015.40588        -4.39509         5.09590
     2015.40862        -4.38722         5.06183
     2015.41136         3.52965         5.04625
     2015.41410         0.74353         5.06377
     2015.41683        -1.38360         5.03262
     2015.41957        -3.35672         5.04333
     2015.42231         0.73515         4.98882
     2015.42505        -3.32598         5.21465
     2015.42778        -4.88410         5.05307
     2015.43052         3.63177         5.06864
     2015.43326        -2.66135         5.03554
     2015.43600         0.56152         5.01608
     2015.43874        -0.28960         5.00926
     2015.44147         0.65727         5.27695
     2015.44421        -4.53686         5.02678
     2015.44695        -0.79498         5.05793
     2015.44969        -2.63911         5.03165
     2015.45243         7.20477         5.11244
     2015.45516         3.18164         5.03554
     2015.45790         1.49751         5.12802
     2015.46064         1.59939         5.18058
     2015.46338         2.39726         5.15528
     2015.46611         2.82114         5.06280
     2015.46885         7.28801         5.02289
     2015.47159        11.37589         5.01023
     2015.47433        -2.15024         5.20297
     2015.47707         0.06763         5.14067
     2015.47980         3.31551         5.11829
     2015.48254         1.29738         5.11439
     2015.48528         3.90526         5.08129
     2015.48802         3.20713         5.03165
     2015.49076        -1.64400         5.11244
     2015.49349        -0.63312         5.17961
     2015.49623         0.83975         5.17961
     2015.49897         3.22563         5.16696
     2015.50171        -1.66750         5.03554
     2015.50444         2.72738         4.98882
     2015.50718         5.55625         5.09687
     2015.50992        10.29512         5.06475
     2015.51266        12.23100         5.04236
     2015.51540         6.38787         5.15430
     2015.51813         6.28375         4.99661
     2015.52087        10.03562         5.02873
     2015.52361        12.47249         5.15820
     2015.52635        10.51737         5.04917
     2015.52908         9.16324         5.14067
     2015.53182        10.80912         5.19129
     2015.53456        10.18899         5.16598
     2015.53730        11.66687         5.17961
     2015.54004         7.69074         5.18253
     2015.54277         6.23361         5.20881
     2015.54551        13.99949         5.22828
     2015.54825         6.03136         5.22439
     2015.55099         3.52924         5.13678
     2015.55373         5.11511         5.13386
     2015.55646        13.55098         5.15722
     2015.55920         8.43186         5.19324
     2015.56194        15.52473         5.15917
     2015.56468         9.28661         5.11926
     2015.56741         8.82248         5.10952
     2015.57015         6.54236         5.30032
     2015.57289         4.35623         5.27695
     2015.57563         5.28610         5.15041
     2015.57837         8.24098         5.11439
     2015.58110         7.24885         5.14943
     2015.58384         6.40573         5.19227
     2015.58658        16.68260         5.26917
     2015.58932         6.80847         5.27306
     2015.59206         2.08135         5.21563
     2015.59479        10.40822         5.10174
     2015.59753        16.44510         5.15722
     2015.60027        12.54297         5.27890
     2015.60301        12.63185         5.36554
     2015.60574        12.21772         5.19324
     2015.60848        12.08259         5.12997
     2015.61122        13.85047         5.18156
     2015.61396        19.21834         5.12997
     2015.61670        14.27022         5.10466
     2015.61943        13.57109         5.07837
     2015.62217        17.79696         5.09979
     2015.62491        18.59384         5.06377
     2015.62765        13.22071         5.05988
     2015.63039        14.45659         5.10758
     2015.63312        19.43446         5.12705
     2015.63586        22.03034         5.07351
     2015.63860        10.02421         5.03262
     2015.64134        13.16208         5.12315
     2015.64407        19.78996         5.04917
     2015.64681         7.91683         5.13094
     2015.64955        13.59171         5.04917
     2015.65229        15.83558         5.09687
     2015.65503        23.86045         5.06669
     2015.65776        14.91033         5.22731
     2015.66050        20.79020         5.04236
     2015.66324        22.43908         5.02581
     2015.66598        21.48795         5.25651
     2015.66872        16.86183         5.22634
     2015.67145        13.84270         5.05793
     2015.67419        15.52357         5.02776
     2015.67693        13.96345         5.04138
     2015.67967        17.82832         5.05112
     2015.68240        13.27120         5.04041
     2015.68514        10.78107         5.17182
     2015.68788        10.28995         5.09103
     2015.69062         9.99182         5.04236
     2015.69336         9.40269         5.23802
     2015.69609        11.08957         5.03554
     2015.69883        11.05544         5.10952
     2015.70157        16.32732         5.10174
     2015.70431        10.89519         5.05891
     2015.70705        10.89506         5.02289
     2015.70978        19.40294         5.01802
     2015.71252        14.09581         5.02581
     2015.71526        13.77569         5.04528
     2015.71800        12.19156         5.13386
     2015.72073        16.31444         5.20297
     2015.72347        12.43531         5.05112
     2015.72621        11.63218         5.03457
     2015.72895        11.56506         5.05307
     2015.73169        12.55493         5.01900
     2015.73442         9.72481         5.12705
     2015.73716        10.55168         5.04917
     2015.73990        14.66955         5.15333
     2015.74264        13.11043         5.13386
     2015.74538        16.28130         5.30421
     2015.74811        10.27318         5.24678
     2015.75085         3.44805         5.06475
     2015.75359        10.22993         5.08519
     2015.75633        12.00480         5.06864
     2015.75906        13.25867         5.04138
     2015.76180         6.77855         5.16306
     2015.76454        10.17442         5.04917
     2015.76728         7.87530         5.10076
     2015.77002        11.72717         5.30713
     2015.77275        16.61004         5.16890
     2015.77549         9.87392         5.10660
     2015.77823        10.18879         5.11634
     2015.78097         9.36067         5.06280
     2015.78371        12.18954         5.07545
     2015.78644        11.14842         5.05988
     2015.78918         8.84729         5.06280
     2015.79192        16.77916         5.05599
     2015.79466        12.44404         5.04917
     2015.79739        10.70791         5.04430
     2015.80013         8.70579         5.23120
     2015.80287         2.60966         5.10368
     2015.80561         6.74753         5.08129
     2015.80835         4.10341         5.06767
     2015.81108         6.21728         5.05793
     2015.81382        11.24316         5.09687
     2015.81656         7.49203         5.08227
     2015.81930         8.10891         5.07351
     2015.82203        11.30378         5.12607
     2015.82477         8.96165         5.14457
     2015.82751        12.03153         5.13775
     2015.83025        15.00340         5.07059
     2015.83299        -5.06372         5.20687
     2015.83572         6.14415         5.14067
     2015.83846         6.97302         5.17766
     2015.84120         6.29290         5.17280
     2015.84394         1.98577         5.17572
     2015.84668         0.83665         5.18545
     2015.84941        10.95952         5.20687
     2015.85215         8.68140         5.21173
     2015.85489        12.84327         5.14943
     2015.85763         5.68414         5.16306
     2015.86036        -4.70198         5.14846
     2015.86310         2.54489         5.15820
     2015.86584         4.52977         5.20881
     2015.86858        -3.08536         5.21368
     2015.87132         1.47551         5.15625
     2015.87405        -5.50161         5.15722
     2015.87679        -4.88674         5.18740
     2015.87953        -0.60186         5.18740
     2015.88227         7.45001         5.18545
     2015.88501        -4.58411         5.13970
     2015.88774         0.30576         5.14359
     2015.89048         5.60263         5.14651
     2015.89322         7.94251         5.11439
     2015.89596         4.35238         5.20492
     2015.89869         6.05726         5.16306
     2015.90143        -3.94287         5.12705
     2015.90417        -0.86800         5.12218
     2015.90691         0.63288         5.11634
     2015.90965         3.22375         5.16306
     2015.91238         7.15563         5.18156
     2015.91512         5.72550         5.20005
     2015.91786         1.12438         5.14846
     2015.92060         4.46825         5.19421
     2015.92334        -3.45688         5.18740
     2015.92607        -0.72700         5.17572
     2015.92881        -8.74113         5.24094
     2015.93155        -0.67125         5.35385
     2015.93429         5.92762         5.31394
     2015.93702        -1.54851         5.27111
     2015.93976         5.88137         5.34996
     2015.94250         6.18424         5.31102
     2015.94524         3.36612         5.30518
     2015.94798         9.58099         5.31686
     2015.95071         3.61187         5.14067
     2015.95345        -0.25426         5.16501
     2015.95619        -4.21939         5.21563
     2015.95893         3.92849         5.37430
     2015.96167         0.80236         5.28669
     2015.96440       -19.38176         5.16501
     2015.96714         6.09111         5.24775
     2015.96988        -2.59002         5.18643
     2015.97262         0.35086         5.22634
     2015.97535         2.90073         5.17572
     2015.97809        -3.10539         5.19032
     2015.98083        -6.38652         5.19421
     2015.98357       -12.50164         5.21368
     2015.98631        -6.30677         5.20103
     2015.98904        -8.58290         5.18935
     2015.99178        -3.04002         5.19227
     2015.99452        -2.30715         5.21563
     2015.99726         2.59673         5.23218
     2016.00000        -4.76340         5.21563
     2016.00273        -4.29153         5.20979
     2016.00426         7.23240        15.95254
     2016.02296         2.30754        10.97832
     2016.02464         1.52247         5.20297
     2016.02737        -1.12466         5.16112
     2016.03011        -2.41778         5.19324
     2016.03285        -2.43591         5.20492
     2016.03559         1.63396         5.17280
     2016.03833         1.77284         5.28766
     2016.04106        -1.10929         5.16598
     2016.04380         3.67559         5.16890
     2016.04654         2.04346         5.16306
     2016.04817        11.26939        12.17953
     2016.05309        -3.79584        11.51468
     2016.05475         1.14408         5.15041
     2016.05863         0.04191        12.67987
     2016.05924         5.42588         9.93578
     2016.06421         8.01865        18.07364
     2016.06570        -1.08342         7.14496
     2016.06844        -2.90555         5.27890
     2016.07118        -6.64667         5.26235
     2016.07281        -6.15975        11.66556
     2016.08875         3.33452        13.89861
     2016.09034        -4.95955         5.22828
     2016.09308        -6.73768         5.20589
     2016.09582        -7.55280         5.21952
     2016.09856       -14.55193         5.26527
     2016.10130       -14.26506         5.22634
     2016.10403       -12.14918         5.20687
     2016.10677        -5.58731         5.20005
     2016.10951        -6.86343         5.27014
     2016.11225       -11.26156         5.26625
     2016.11498        -7.37368         5.24580
     2016.11772       -21.73481         5.23315
     2016.12046        -9.04194         5.22536
     2016.12320       -12.95506         5.20005
     2016.12594        -4.46719         5.21465
     2016.12867         0.01269         5.16988
     2016.13141         2.50956         5.16501
     2016.13415         4.52743         5.17474
     2016.13689        -1.99769         5.12802
     2016.13963        -3.52282         5.12997
     2016.14236       -12.66694         5.15820
     2016.14510        -7.98207         5.14554
     2016.14784        -4.29919         5.18350
     2016.15058        -3.76232         5.11731
     2016.15331        -3.44145         5.24872
     2016.15605        -4.53657         5.13970
     2016.15879        -8.21870         5.29642
     2016.16153         1.25518         5.22828
     2016.16427        -3.53795         5.21173
     2016.16700       -15.43808         5.16209
     2016.16974       -12.37720         5.19908
     2016.17248        -5.38733         5.23899
     2016.17522        -6.52045         5.21757
     2016.17796         2.91042         5.27209
     2016.18069        -0.75470         5.27111
     2016.18343        -6.71883         5.36456
     2016.18617         0.84004         5.13873
     2016.18891        -8.64808         5.15820
     2016.19164        -2.49421         5.08032
     2016.19438         4.35867         5.08811
     2016.19712        -3.33346         5.04625
     2016.19986        -2.07858         5.21465
     2016.20260       -13.56571         5.18350
     2016.20533        -9.41684         5.35093
     2016.20807        -4.11896         5.25846
     2016.21081        -4.74009         5.24094
     2016.21355        -3.58521         5.15820
     2016.21629         0.23466         5.07935
     2016.21902        -2.40847         5.04528
     2016.22176       -13.64959         5.07059
     2016.22450       -20.70672         5.07545
     2016.22724        -9.51784         5.09492
     2016.22997        -6.31497         5.06864
     2016.23271        -5.39009         5.06475
     2016.23545       -10.14522         5.09103
     2016.23819        -6.99135         5.05793
     2016.24093         0.48353         5.19032
     2016.24366        -0.55560         5.08714
     2016.24640        -3.85972         5.05696
     2016.24914        -5.06185         5.07059
     2016.25188        -5.41998         5.08129
     2016.25462        -3.79510         5.10076
     2016.25735        -4.98923         5.12510
     2016.26009        -8.07135         5.10076
     2016.26283        -8.11748         5.11829
     2016.26557        -3.32160         5.11731
     2016.26830        -2.31173         5.08519
     2016.27104        -3.01886         5.12315
     2016.27378        -1.45998         5.09006
     2016.27652        -5.22911         5.13483
     2016.27926        -2.46723         5.15138
     2016.28199        -7.06636         5.09687
     2016.28473        -8.69849         5.10758
     2016.28747        -8.53061         5.10076
     2016.29021        -7.51074         5.10660
     2016.29295        -6.99086         5.15722
     2016.29568        -3.23699         5.14554
     2016.29842        -4.11311         5.21076
     2016.30116        -3.89324         5.19713
     2016.30390        -9.58037         5.15333
     2016.30663        -0.32549         5.16988
     2016.30937        -2.85862         5.13289
     2016.31211        -3.95274         5.10758
     2016.31485        -3.67387         5.09687
     2016.31759        -3.09800         5.10466
     2016.32032        -5.23312         5.12218
     2016.32306        -7.30925         5.15820
     2016.32580        -8.23337         5.17280
     2016.32854        -6.27550         5.10368
     2016.33128        -3.60362         5.08129
     2016.33401         0.19525         5.14749
     2016.33675        -2.75688         5.19908
     2016.33949        -1.89400         5.19713
     2016.34223        -3.35413         5.19324
     2016.34496        -1.84225         5.24288
     2016.34770         1.73962         5.21076
     2016.35044        -6.87551         5.29642
     2016.35318        -1.91963         5.15625
     2016.35592       -10.98976         5.13289
     2016.35865       -11.38288         5.09200
     2016.36139        -1.80301         5.09298
     2016.36413         0.94287         5.11731
     2016.36687         0.08874         5.11439
     2016.36961         6.44061         5.12997
     2016.37234         8.24149         5.10952
     2016.37508         2.49636         5.11050
     2016.37782        -4.87476         5.11536
     2016.38056        -1.36089         5.12899
     2016.38329         1.20198         5.09006
     2016.38603         0.33586         5.10076
     2016.38877         9.76673         5.13581
     2016.39151        -1.11739         5.08324
     2016.39425        -0.98152         5.07545
     2016.39698         4.51636         5.09103
     2016.39972         2.00923         5.10758
     2016.40246        -0.87690         5.18448
     2016.40520        -0.49102         5.11439
     2016.40794        -6.23715         5.11439
     2016.41067        -6.66027         5.13191
     2016.41341        -5.93840         5.08908
     2016.41615        -3.34953         5.11439
     2016.41889         2.71435         5.13386
     2016.42162         0.89422         5.16793
     2016.42436        -1.43990         5.09687
     2016.42710         0.82997         5.17669
     2016.42984       -12.32015         5.10466
     2016.43258        -4.22628         5.09298
     2016.43531         5.50559         5.15820
     2016.43805         2.04747         5.09103
     2016.44079        -1.53566         5.03749
     2016.44353        -3.40378         5.06669
     2016.44626        -2.26891         5.05501
     2016.44900        -0.07404         5.09298
     2016.45174         8.05184         5.09395
     2016.45448         3.20371         5.04722
     2016.45722         0.96859         5.07837
     2016.45995         6.23446         5.05696
     2016.46269         0.83834         5.08422
     2016.46543        -1.44679         5.07740
     2016.46817         0.52808         5.05891
     2016.47091         1.23096         5.07837
     2016.47364         1.07183         5.12023
     2016.47638         9.04071         5.10368
     2016.47912         1.32158         5.20395
     2016.48186         0.21745         5.08129
     2016.48459        -2.86767         5.06864
     2016.48733        -0.09080         5.08324
     2016.49007         1.38708         5.10466
     2016.49281        -1.43705         5.13386
     2016.49555        -1.04117         5.09395
     2016.49828         2.30670         5.10660
     2016.50102         1.88457         5.11342
     2016.50376        -6.65955         5.24678
     2016.50650        -0.36868         5.14067
     2016.50924         3.08120         5.06085
     2016.51197         0.28707         5.07740
     2016.51471         4.44894         5.05793
     2016.51745         4.39082         5.25262
     2016.52019        -0.79631         5.05988
     2016.52292         0.83057         5.05793
     2016.52566         2.42544         5.03068
     2016.52840         2.28532         5.04722
     2016.53114        -1.61781         5.05112
     2016.53388         4.17106         5.02873
     2016.53661        -0.92206         5.11147
     2016.53935         2.67881         5.05307
     2016.54209         5.21669         5.06183
     2016.54483         6.44556         5.06183
     2016.54757         7.07443         5.03846
     2016.55030         3.00931         5.14165
     2016.55304         2.96818         5.06669
     2016.55578         8.72306         5.26917
     2016.55852         1.24093         5.04917
     2016.56125         6.55781         5.01218
     2016.56399         3.60068         5.01705
     2016.56673         4.74455         5.11536
     2016.56947         2.37643         5.20200
     2016.57221         3.60430         5.07740
     2016.57494         5.52918         5.19908
     2016.57768         0.83805         5.08324
     2016.58042         6.65692         5.05988
     2016.58316         1.11480         5.05112
     2016.58590        -1.56833         5.08519
     2016.58863         3.60355         5.01121
     2016.59137         5.61242         5.05112
     2016.59411         4.53530         5.13678
     2016.59685         8.47217         5.07448
     2016.59958         0.83304         5.05696
     2016.60232         3.57692         5.01413
     2016.60506         6.67079         5.03652
     2016.60780         3.30567         5.04236
     2016.61054         1.28754         5.06572
     2016.61327         1.02541         5.06961
     2016.61601         9.32029         5.08811
     2016.61875         3.55416         5.07740
     2016.62149         6.33504         5.03165
     2016.62423         5.06391         5.12315
     2016.62696         7.76279         5.03652
     2016.62970         3.25266         5.02678
     2016.63244         3.01753         5.07643
     2016.63518        12.85241         5.01802
     2016.63791        14.27328         5.09298
     2016.64065        10.21816         5.06767
     2016.64339         6.52203         5.05696
     2016.64613         4.13690         5.03068
     2016.64887         1.12378         5.05793
     2016.65160         9.30065         5.15236
     2016.65434         4.30953         5.08422
     2016.65708         3.53740         5.08519
     2016.65982         1.30728         5.11829
     2016.66256         1.17615         5.03554
     2016.66529         8.43702         5.10758
     2016.66803        11.86190         5.12121
     2016.67077        12.89177         5.14359
     2016.67351         4.66165         5.03652
     2016.67624        10.49352         5.04333
     2016.67898         5.69039         5.02776
     2016.68172        14.63627         5.03652
     2016.68446         9.80714         5.29350
     2016.68720         7.03802         5.35288
     2016.68993         8.40989         5.08908
     2016.69267         8.01777         5.05307
     2016.69541         8.91764         5.08129
     2016.69815         9.00751         5.02581
     2016.70089        11.13439         4.99563
     2016.70362        12.77726         5.14359
     2016.70636         3.43614         5.34704
     2016.70910        10.69401         5.32952
     2016.71184        16.63889         5.07837
     2016.71457        11.53676         5.07545
     2016.71731        13.39463         5.07448
     2016.72005         6.87551         5.01705
     2016.72279         8.31638         5.03652
     2016.72553        12.63826         5.16988
     2016.72826         8.92613         5.18740
     2016.73100         6.84100         5.05404
     2016.73374         7.58388         5.00829
     2016.73648         8.39575         5.04138
     2016.73921         6.83863         5.07253
     2016.74195         3.74350         5.02970
     2016.74469         7.38638         5.04041
     2016.74743         7.32425         5.05015
     2016.75017         8.90912         5.01121
     2016.75290         7.61500         5.01413
     2016.75564        10.76587         5.01705
     2016.75838        14.02475         5.05209
     2016.76112        12.75362         5.01121
     2016.76386         9.53449         5.00147
     2016.76659         6.29837         5.08811
     2016.76933         8.82624         5.02678
     2016.77207         6.98012         5.09492
     2016.77481         8.76099         5.01900
     2016.77754         7.86687         5.01218
     2016.78028         3.91074         5.01023
     2016.78302         4.52561         5.02192
     2016.78576         6.91649         5.05988
     2016.78850         8.12836         5.11244
     2016.79123        10.45724         5.14554
     2016.79397        12.00411         5.00245
     2016.79671         5.31598         5.01023
     2016.79945         1.69986         5.00926
     2016.80219         0.01773         5.11926
     2016.80492         4.60661         5.01315
     2016.80766         6.13148         5.03846
     2016.81040        -1.74464         5.06377
     2016.81314         6.71423         5.05112
     2016.81587        -2.15190         5.02776
     2016.81861        -1.78802         5.05112
     2016.82135         3.70985         4.99077
     2016.82409         2.18773         5.00537
     2016.82683         0.17860         5.05112
     2016.82956         4.27047         5.01510
     2016.83230         8.86535         5.00926
     2016.83504         1.53722         4.99953
     2016.83778         4.94410         5.00342
     2016.84052        -1.77903         5.04917
     2016.84325         4.98385         5.03165
     2016.84599         9.18472         5.05891
     2016.84873        10.99359         5.05891
     2016.85147         2.87247         5.04917
     2016.85420         1.13234         5.01608
     2016.85694        -0.38678         5.09298
     2016.85968         2.02509         5.26235
     2016.86242         6.64496         5.23120
     2016.86516         5.39784         5.16306
     2016.86789         7.25371         5.02192
     2016.87063         4.07959         5.03749
     2016.87337         2.61146         5.05793
     2016.87611        -1.74566         5.08129
     2016.87885         6.51221         5.09882
     2016.88158        -2.64892         5.09103
     2016.88432         3.90896         5.05793
     2016.88706         2.76983         5.08714
     2016.88980         7.18971         5.07545
     2016.89253         7.94558         5.10855
     2016.89527         3.72145         5.10563
     2016.89801        -0.61867         5.11634
     2016.90075        -9.45080         5.09103
     2016.90349         6.24408         5.18643
     2016.90622         9.92495         5.20005
     2016.90896         2.93183         5.12997
     2016.91170         4.15970         5.05599
     2016.91444         6.69857         5.05599
     2016.91718        -2.66855         5.17182
     2016.91991        -4.25168         5.17766
     2016.92265        -8.28180         5.06085
     2016.92539        -6.01293         5.08714
     2016.92813       -13.09906         5.03749
     2016.93086       -12.66318         5.00926
     2016.93360        -3.46031         5.01510
     2016.93634        -2.64443         5.03652
     2016.93908        -2.12356         5.14457
     2016.94182        -1.49568         5.07837
     2016.94455        -7.10881         5.04041
     2016.94729        -7.91594         5.11244
     2016.95003        -0.57306         5.14067
     2016.95277         0.00781         5.15722
     2016.95551        -0.01131         5.06377
     2016.95824         5.05256         5.03262
     2016.96098         2.56343         5.03846
     2016.96372        -4.91569         5.05015
     2016.96646       -12.90882         5.07156
     2016.96919        10.02806         5.09006
     2016.97193         0.94893         5.08129
     2016.97467         5.78681         5.08227
     2016.97621        10.08673        14.90221
     2017.05531        20.00710        17.70763
     2017.05681         9.80603         5.03068
     2017.05954        -1.62910         5.06767
     2017.06228        -0.27322         5.01802
     2017.06502        -4.37135         5.02581
     2017.06776        -5.95147         5.08324
     2017.07049        -2.59160         5.05307
     2017.07323        -7.55372         5.04625
     2017.07597       -10.40685         5.03846
     2017.07871        -4.01598         5.11342
     2017.08145       -11.94410         5.08129
     2017.08418        -9.82123         5.05015
     2017.08692        -4.71435         5.04917
     2017.08966        -3.99148         5.02192
     2017.09240        -5.11161         5.04430
     2017.09514        -7.46473         5.07545
     2017.09787        -2.57586         5.06669
     2017.10061         0.33202         5.02776
     2017.10335        -6.01911         5.12802
     2017.10609        -2.62723         5.02970
     2017.10882        -4.76836         5.14262
     2017.11156        -4.75349         5.07059
     2017.11430        -7.43361         5.01315
     2017.11704       -11.78674         5.02873
     2017.11978        -8.02486         5.01900
     2017.12251       -12.93999         5.04625
     2017.12525        -3.91312         5.08616
     2017.12799        -3.87524         5.03262
     2017.13073        -1.92537         5.06183
     2017.13347         2.76851         5.07059
     2017.13620        -1.02262         5.06183
     2017.13894        -2.27274         5.05793
     2017.14168        -9.25687         5.05696
     2017.14442        -7.53800         5.02776
     2017.14715       -10.45712         5.07643
     2017.14989        -6.62025         5.05307
     2017.15263        -1.11737         5.04722
     2017.15537        -2.52350         5.04041
     2017.15811        -0.16163         5.18350
     2017.16084        -3.31675         5.03262
     2017.16358       -17.60288         5.06085
     2017.16632        -3.89100         5.07059
     2017.16906       -11.17113         5.05696
     2017.17180        -8.24525         5.09395
     2017.17453        -5.04638         5.05015
     2017.17727       -11.20151         5.14457
     2017.18001        -8.64663         5.05501
     2017.18275         1.06324         5.14651
     2017.18548         1.71412         5.08908
     2017.19370        -5.04026         5.07253
     2017.19644        -9.63939         5.07545
     2017.19917       -13.33151         5.10271
     2017.20191        -8.81564         5.05307
     2017.20465        -7.60776         5.17669
     2017.20739        -7.05589         5.04917
     2017.21013       -13.67302         5.09492
     2017.21286        -9.62614         5.07545
     2017.21560       -10.18927         5.06864
     2017.21834        -6.05139         5.02970
     2017.22108        -0.46752         5.05404
     2017.22381       -10.23264         5.16793
     2017.22655        -7.20077         5.19519
     2017.22929       -17.46690         5.06669
     2017.23203        -5.13702         5.05015
     2017.23477       -11.16615         5.05793
     2017.23750       -14.13827         5.04820
     2017.24024       -20.70140         5.07545
     2017.24298        -9.94753         5.03749
     2017.24572        -9.87565         5.02776
     2017.24846       -15.58278         5.07837
     2017.25119       -13.06690         5.05501
     2017.25393       -14.51903         5.01997
     2017.25667        -8.17115         5.07643
     2017.25941       -11.59428         5.06183
     2017.26214        -9.29341         5.06183
     2017.26488         1.85947         5.12315
     2017.26762        -8.65266         5.04333
     2017.27036       -10.33378         5.04528
     2017.27310       -12.74491         5.05793
     2017.27583       -15.83004         5.03457
     2017.27857       -15.91916         5.06767
     2017.28131       -12.54129         5.08129
     2017.28405       -14.95641         5.05501
     2017.28679       -15.05954         5.08519
     2017.28952        -8.67166         5.03749
     2017.29226       -11.69079         5.01802
     2017.29500       -14.12292         5.06280
     2017.29774       -15.44404         5.05307
     2017.30047       -14.08917         5.10855
     2017.30321       -12.80929         5.05599
     2017.30595        -9.61942         5.08714
     2017.30869       -11.12555         5.03165
     2017.31143        -8.16767         5.03457
     2017.31416        -9.95780         5.03749
     2017.31690        -9.28992         5.10563
     2017.31964       -13.77405         5.13678
     2017.32238       -15.56517         5.20005
     2017.32512       -15.02930         5.05112
     2017.32785       -12.09043         5.05988
     2017.33059       -14.48055         5.07253
     2017.33333        -9.41068         5.03944
     2017.33607       -14.45180         5.02386
     2017.33880       -12.03093         5.12121
     2017.34154        -5.51906         5.32855
     2017.34428       -16.75118         5.02386
     2017.34702       -12.04631         5.04528
     2017.34976        -9.65943         5.03165
     2017.35249       -14.79156         5.04236
     2017.35523       -10.31968         5.10855
     2017.35797        -9.46881         5.07545
     2017.36071        -6.10794         5.07740
     2017.36344        -6.78006         5.08422
     2017.36618        -9.95219         5.08616
     2017.36892        -3.94631         5.08616
     2017.37166       -11.64944         5.11926
     2017.37440        -5.88657         5.08032
     2017.37713        -7.41969         5.15528
     2017.37987       -13.82482         5.17085
     2017.38261        -9.06494         5.10660
     2017.38535       -10.06607         5.09200
     2017.38809        -8.78419         5.07643
     2017.39082       -10.87132         5.12413
     2017.39356       -10.67345         5.20297
     2017.39630        -2.34857         5.07448
     2017.39904        -5.70270         5.09590
     2017.40177        -4.67482         5.09200
     2017.40451        -1.77095         5.33147
     2017.40725        -3.04408         5.11731
     2017.40999         2.36080         5.16598
     2017.41273        -5.10933         5.11147
     2017.41546        -5.18145         5.11342
     2017.41820        -7.44158         5.23315
     2017.42094        -3.53070         5.12023
     2017.42368        -6.82783         5.07253
     2017.42642        -8.94396         5.07545
     2017.42915        -6.92808         5.08324
     2017.43189        -0.42221         5.16501
     2017.43463        -2.27033         5.13289
     2017.43737        -2.16746         5.12413
     2017.44010        -1.48659         5.08032
     2017.44284         0.20629         5.10466
     2017.44558         0.60016         5.12510
     2017.44832        -6.03996         5.13191
     2017.45106         3.45991         5.10855
     2017.45379        -0.57721         5.21076
     2017.45653         3.12466         5.22828
     2017.45927        -1.66947         5.17474
     2017.46201        -2.93759         5.14651
     2017.46475        -8.28972         5.17377
     2017.46748        -2.69284         5.20881
     2017.47022        -8.69597         5.20200
     2017.47296        -3.63410         5.10952
     2017.47570        -2.05722         5.12802
     2017.47843        -5.55035         5.10076
     2017.48117        -1.65147         5.11731
     2017.48391        -0.68760         5.10855
     2017.48665         0.00428         5.17961
     2017.48939         0.26115         5.09784
     2017.49212         0.77602         5.10466
     2017.49486         2.70790         5.13483
     2017.49760        -0.02723         5.14651
     2017.50034         0.82665         5.13191
     2017.50308        -2.63648         5.12997
     2017.50581         0.31939         5.11342
     2017.50855         1.38827         5.14262
     2017.51129        -0.79486         5.16112
     2017.51403         2.28002         5.19324
     2017.51676        -5.40111         5.13094
     2017.51950        -6.33123         5.10563
     2017.52224         0.34164         5.14749
     2017.52498        -1.34549         5.14262
     2017.52772         2.69139         5.28766
     2017.53045        -2.52374         5.15041
     2017.53319        -1.09486         5.13386
     2017.53593         0.86701         5.23412
     2017.53867         7.25688         5.14457
     2017.54141         6.24776         5.11439
     2017.54414         3.62063         5.12899
     2017.54688         3.64751         5.11342
     2017.54962         1.99938         5.16696
     2017.55236        -3.39674         5.11342
     2017.55509         5.89113         5.15528
     2017.55783         0.66800         5.18058
     2017.56057        -1.81412         5.18350
     2017.56331        -3.50225         5.13094
     2017.56605         2.09663         5.15041
     2017.56878         2.91050         5.10076
     2017.57152         8.33437         5.13483
     2017.57426        -3.94875         5.16793
     2017.57700         0.59812         5.28377
     2017.57974         2.91700         5.17669
     2017.58247         1.52187         5.10758
     2017.58521        -2.33625         5.10466
     2017.58795         3.54762         5.18643
     2017.59069         4.90549         5.22439
     2017.59342         4.65737         5.13873
     2017.59616         6.49824         5.13191
     2017.59890         2.45712         5.10952
     2017.60164         7.73799         5.15917
     2017.60438         2.14886         5.15722
     2017.60711         4.80774         5.20297
     2017.60985         3.15261         5.20395
     2017.61259         5.57949         5.12121
     2017.61533         4.84636         5.19616
     2017.61807         6.11424         5.20103
     2017.62080         1.56911         5.18935
     2017.62354         0.64698         5.20103
     2017.62628         5.93686         5.20297
     2017.62902         1.94173         5.37040
     2017.63175         3.34261         5.11342
     2017.63531        -1.71756         8.40263
     2017.63723         0.96635         5.09103
     2017.63997         9.79223         5.19713
     2017.64271         8.55510         5.18058
     2017.64544         1.49198         5.18545
     2017.64818         2.33485         5.20297
     2017.65092         6.50973         5.10563
     2017.65366         6.16260         5.05209
     2017.65639         6.93047         5.13191
     2017.65913         5.37235         5.10855
     2017.66187         6.64922         5.11342
     2017.66461         6.99310         5.30226
     2017.66735        10.38897         5.17864
     2017.67008        15.37084         5.10855
     2017.67282         9.91872         5.31492
     2017.67556         6.51259         5.08519
     2017.67830         7.99047         5.08714
     2017.68104         7.19234         5.09590
     2017.68377        11.62822         5.20103
     2017.68651        14.47409         5.35093
     2017.68925        17.96196         5.14651
     2017.69199        13.19784         5.12413
     2017.69472         9.32571         5.10368
     2017.69746         9.72459         5.21076
     2017.70020         9.24346         5.29058
     2017.70294         9.51734         5.32465
     2017.70568         8.02221         5.20200
     2017.70841        10.77108         5.06183
     2017.71115        10.43196         5.17377
     2017.71302        18.41887         8.64599
     2017.71769        15.75566        10.19374
     2017.71829        13.00063        11.21876
     2017.72324        20.70340        11.92157
     2017.72484         5.69833         5.09784
     2017.72639         7.60326        15.62547
     2017.73965        15.13865        11.72299
     2017.75882         8.21377        11.63636
     2017.75928         4.28575        13.78861
     2017.76989         8.51126        17.11773
     2017.77063         0.27322         7.61221
     2018.44490        -3.72376         4.98201
     2018.44763         0.94311         5.11731
     2018.45037        -0.10702         5.00147
     2018.45311         1.40786         4.99174
     2018.45585         7.43673         5.14554
     2018.45859         7.92061         5.05112
     2018.46132        -6.19652         5.01608
     2018.46406        -0.20465         5.00439
     2018.46680        -2.52777         5.02094
     2018.46954         2.24110         5.16988
     2018.47227         2.67498         5.15430
     2018.47501         3.64585         4.99563
     2018.47775         0.66373         4.99953
     2018.48049        -1.11440         5.05793
     2018.48323         2.39447         5.05793
     2018.48596        -1.73165         5.04625
     2018.48870        -2.13578         5.04917
     2018.49144         2.00610         4.97227
     2018.49418         1.60197         5.10271
     2018.49692         1.54284         5.14554
     2018.49965         1.72772         5.08129
     2018.50239         0.83659         5.03165
     2018.50513        -0.73153         5.06280
     2018.50787         0.95034         5.04625
     2018.51060         9.60522         5.24288
     2018.51334         3.61609         5.17280
     2018.51608         1.88596         5.06864
     2018.51882        -0.49316         5.13483
     2018.52156         0.68571         5.09590
     2018.52429        -2.63541         5.01510
     2018.52703         2.86946         5.06864
     2018.52977         5.13233         5.05501
     2018.53251         2.76221         5.00926
     2018.53525         7.24608         5.07156
     2018.53798        -0.18204         5.07448
     2018.54072         2.74783         5.01121
     2018.54346         1.71171         5.06961
     2018.54620         1.65658         5.03165
     2018.54893        -1.29255         5.04236
     2018.55167        -6.02367         5.04820
     2018.55441         3.37920         5.01997
     2018.55715        -0.48992         5.04041
     2018.55989         0.93395         5.24094
     2018.56262         3.79182         5.05988
     2018.56536        -0.13230         5.07935
     2018.56810         5.58857         5.06961
     2018.57084         0.27045         5.05891
     2018.57357         1.25332         5.15917
     2018.57631         1.16620         5.26430
     2018.57905         7.53307         5.32952
     2018.58179         4.79194         5.15917
     2018.58453         4.94782         5.13581
     2018.58726         4.40269         5.04722
     2018.59000         5.78457         5.06085
     2018.59274         4.43844         5.10466
     2018.59548        11.23431         5.04528
     2018.59822         9.46019         5.09103
     2018.60095         8.40206         5.03165
     2018.60369         8.23194         5.07059
     2018.60643         9.91781         5.12023
     2018.60917         4.83569         5.08714
     2018.61190         7.92856         4.99661
     2018.61464         7.87543         5.04430
     2018.61738        12.64431         5.02873
     2018.62012        11.86218         5.06669
     2018.62286        11.35606         5.13581
     2018.62559         6.20593         5.16306
     2018.62833         5.14780         5.02484
     2018.63107         8.85568         5.04528
     2018.63381        10.72755         5.26527
     2018.63655         2.50743         5.06572
     2018.63928         5.75930         5.26138
     2018.64202        12.40518         5.27209
     2018.64476        11.24605         5.08908
     2018.64750         7.83492         5.05209
     2018.65023        14.27780         5.23899
     2018.65297        13.58667         5.05307
     2018.65571        10.85955         5.04722
     2018.65845         8.00542         5.05501
     2018.66119         8.49529         5.06961
     2018.66392         6.08117         5.09298
     2018.66666         3.31704         5.06669
     2018.66940         1.60292         5.02094
     2018.67214         8.38779         5.04722
     2018.67488         7.56667         5.03944
     2018.67761        10.85154         5.08324
     2018.68035         3.24441         5.11536
     2018.68309         2.70029         5.09784
     2018.68583         8.98916         5.10466
     2018.68856        10.96304         5.06767
     2018.69130         7.84091         5.23704
     2018.69404         5.38778         5.20589
     2018.69678         9.69166         5.02386
     2018.69952         6.42353         5.03165
     2018.70225         4.32041         5.22147
     2018.70499         5.03328         5.08616
     2018.70773         1.32616         5.09103
     2018.71047         3.17903         5.06475
     2018.71321         0.91590         5.04917
     2018.71594        -0.18822         5.07643
     2018.71868        -0.76335         5.04625
     2018.72142         4.88753         5.07643
     2018.72416         2.47640         5.23218
     2018.72689         4.30928         5.09687
     2018.72963         3.39515         5.06085
     2018.73237        -1.95598         5.06767
     2018.73511         2.48990         5.07935
     2018.73785         4.54177         5.07059
     2018.74058         1.04465         5.01121
     2018.74332         7.33552         5.01997
     2018.74606         4.76339         5.01900
     2018.74880         3.83827         5.05209
     2018.75154         2.32914         5.12802
     2018.75427         1.03802         5.03846
     2018.75701         2.65889         5.10368
     2018.75975         3.75577         5.00829
     2018.76249         5.42464         5.04722
     2018.76522        -1.00849         5.16598
     2018.76796         2.41439         5.04236
     2018.77070         9.64326         5.07156
     2018.77344         7.02614         5.02776
     2018.77618         3.85001         5.07643
     2018.77891         7.76788         5.05891
     2018.78165        -2.43624         5.15430
     2018.78439         2.58363         5.05209
     2018.78713         4.60451         5.03554
     2018.78987        -3.53062         5.10563
     2018.79260         0.76126         5.02484
     2018.79534         8.18813         5.05307
     2018.79808         3.44600         5.04430
     2018.80082         6.89488         5.06377
     2018.80355         7.50675         5.01121
     2018.80629         9.41763         5.17280
     2018.80903         5.80450         5.07059
     2018.81177         4.55337         5.40253
     2018.81451         5.44325         5.20297
     2018.81724        -0.05788         5.16501
     2018.81998        10.80100         5.08519
     2018.82272         4.12087         5.10174
     2018.82546         7.93975         5.06085
     2018.82820         2.65562         5.06183
     2018.83093         4.73149         5.10952
     2018.83367         5.92437         5.06864
     2018.83641         7.12024         5.14165
     2018.83915         7.82612         5.06572
     2018.84188         7.63399         5.06961
     2018.84462         7.17686         5.06767
     2018.85010         2.66861         5.04528
     2018.85284         3.26549         5.05112
     2018.85557        -3.38864         5.07837
     2018.85831        -0.17676         5.05209
     2018.86105         0.18711         5.09200
     2018.86379        -0.08902         5.16209
     2018.86653         3.94786         5.09103
     2018.86926        -2.79727         5.08714
     2018.87200         1.13361         5.07059
     2018.87474         7.72448         5.08324
     2018.87748         1.40335         5.12413
     2018.88021         4.37523         5.16501
     2018.88295         4.58210         5.17182
     2018.88569         5.39898         5.13678
     2018.88843        10.68085         5.14749
     2018.89117         8.03373         5.14359
     2018.89390        -2.62840         5.20687
     2018.89664        -2.13953         5.31589
     2018.89938         3.56935         5.19324
     2018.90212         2.78622         5.20200
     2018.90485         6.86310         5.20492
     2018.90759         5.04997         5.12899
     2018.91033         8.74584         5.16014
     2018.91307         8.55172         5.24386
     2018.91581         7.81159         5.14262
     2018.91854        11.62447         5.16014
     2018.92128         5.74134         5.09979
     2018.92402         3.85122         5.11147
     2018.92676         7.07209         5.13386
     2018.92950         8.35896         5.12218
     2018.93223         4.77884         5.24094
     2018.93497         5.13371         5.13775
     2018.93771         4.16959         5.13483
     2018.94045        -7.06854         5.12121
     2018.94318         5.35633         5.08032
     2018.94592         5.56321         5.09687
     2018.94866         0.64208         5.08616
     2018.95140         9.06896         5.17474
     2018.95414         5.66583         5.08227
     2018.95687         4.78571         5.09590
     2018.95961         0.85458         5.13289
     2018.96235       -10.59955         5.14359
     2018.96509        -2.20767         5.11536
     2018.96783        -1.82780         5.14067
     2018.97056         5.67508         5.09882
     2018.97330        -4.10205         5.08908
     2018.97604        -4.53118         5.10076
     2018.97878        -1.58030         5.08032
     2018.98151        -6.95543         5.06280
     2018.98425         1.31845         5.23899
     2018.98699       -10.61968         5.18837
     2018.98973        -3.45280         5.13191
     2018.99247        -8.17693         5.18058
     2018.99520        -2.48506         5.19324
     2018.99794       -18.96618         5.15333
     2019.00068       -10.10031         5.13873
     2019.00342        -5.10343         5.14749
     2019.00616        -7.68656         5.13873
     2019.00889        -5.64769         5.13289
     2019.01163        -4.79081         5.11731
     2019.01437         5.42406         5.10952
     2019.01711        -3.10106         5.11536
     2019.01984       -16.11519         5.13873
     2019.02258       -18.17031         5.13386
     2019.02532        -5.71844         5.15528
     2019.02806        -5.66657         5.18156
     2019.03080        -4.91369         5.16501
     2019.03353        -4.99382         5.01413
     2019.03627        -8.83494         5.05891
     2019.03901        -2.01007         5.05501
     2019.04175        -2.06520         5.02192
     2019.04449         1.41968         5.01900
     2019.04722        -0.25045         5.15138
     2019.04996       -14.45657         5.19032
     2019.05270       -10.61970         5.30518
     2019.05544        -3.91782         5.14359
     2019.05817        -8.11995         5.22049
     2019.06091        -4.46308         5.18156
     2019.06365        -2.56520         5.16306
     2019.06639        -0.92133         5.14651
     2019.06913        -2.31845         5.24288
     2019.07186        -7.74358         5.27209
     2019.07460        -5.39171         5.03554
     2019.07734         0.81617         5.02873
     2019.08008         2.05104         5.05307
     2019.08282         1.15892         5.24288
     2019.08555         2.83479         5.14651
     2019.08829       -11.24233         5.08129
     2019.09103         1.30154         5.03068
     2019.09377         3.74441         5.02873
     2019.09650         6.68029         5.04333
     2019.09924         3.32116         5.06961
     2019.10198        -3.28096         5.03554
     2019.10472         1.26791         5.03944
     2019.10746        -5.17922         5.01997
     2019.11019         1.98966         5.03846
     2019.11293         2.16153         5.16112
     2019.11567         1.51741         5.29448
     2019.11841        11.60328         5.06377
     2019.12115        14.49016         5.16501
     2019.12388         9.15003         5.15820
     2019.12662         2.93190         5.07643
     2019.12936        -2.24722         5.09298
     2019.13210        -0.65335         5.08324
     2019.13483        -4.94447         5.08324
     2019.13757        -6.68160         5.09784
     2019.14031         2.38127         5.09298
     2019.14305         0.92115         5.10758
     2019.14579       -10.43898         5.07253
     2019.14852        -0.54810         5.08519
     2019.15126        -0.05023         5.03457
     2019.15400        -2.08935         5.05599
     2019.15674        -0.55448         5.02192
     2019.15948        -9.04461         5.04236
     2019.16221        -4.94373         5.16112
     2019.16495        -2.60886         5.04917
     2019.16769        -9.28798         5.04333
     2019.17043        -7.29511         5.01802
     2019.17316        -6.45324         5.01705
     2019.17590        -3.14236         5.04625
     2019.17864        -3.96049         5.05404
     2019.18138        -5.11061         5.05404
     2019.18412       -11.09774         5.05112
     2019.18685        -2.09686         5.05307
     2019.18959         3.04801         5.06280
     2019.19233        -9.03512         5.04917
     2019.19507        -4.86024         5.04722
     2019.19780       -12.03237         5.02970
     2019.20054        -6.14749         5.14359
     2019.20328        -5.60362         5.04625
     2019.20602        -9.97375         5.03749
     2019.20876       -12.49487         5.06669
     2019.21149        -9.00600         5.05209
     2019.21423         0.80688         5.02776
     2019.21697        -5.51225         5.06767
     2019.21971        -4.94737         5.19713
     2019.22245        -7.87450         5.06669
     2019.22518        -6.62863         5.02970
     2019.22792        -3.49575         5.01802
     2019.23066       -11.07488         5.03652
     2019.23340        -4.68700         5.03846
     2019.23613        -5.51013         5.03652
     2019.23887        -7.79525         5.05501
     2019.24161       -12.10738         5.19227
     2019.24435        -9.10851         5.09784
     2019.24709        -5.67063         5.14359
     2019.24982         0.69124         5.05599
     2019.25256         0.83012         5.18545
     2019.25530        -2.80301         5.04138
     2019.25804        -1.44114         5.01413
     2019.26078         2.49474         5.08811
     2019.26351        -6.74739         5.13094
     2019.26625        -4.35251         5.03165
     2019.26899        -5.60664         5.14651
     2019.27173        -4.01176         5.30908
     2019.27446        -7.67889         5.03652
     2019.27720       -10.45002         5.15236
     2019.27994        -1.47714         5.06377
     2019.28268        -5.96027         5.05307
     2019.28542        -0.52839         5.04236
     2019.28815         1.32348         5.03652
     2019.29089        -0.15365         5.03846
     2019.29363         1.97923         5.06475
     2019.29637        -2.76390         5.15820
     2019.29911         2.36598         5.06085
     2019.30184        -3.06315         5.06475
     2019.30458        -8.30227         5.02776
     2019.30732        -3.68140         5.06085
     2019.31006        -0.14753         5.11244
     2019.31279        -6.34065         5.14749
     2019.31553         0.74822         5.06669
     2019.31827        -7.27290         5.08616
     2019.32101        -1.73503         5.02289
     2019.32375       -13.91216         5.04625
     2019.32648         0.99572         5.06377
     2019.32922        -4.42841         5.05696
     2019.33196         0.82247         5.18448
     2019.33470        -0.28966         5.14846
     2019.33744        -1.99778         5.02289
     2019.34017        -5.03291         5.08811
     2019.34291        -3.58704         5.05891
     2019.34565        -6.20216         5.18837
     2019.34839        -5.10029         5.13094
     2019.35112        -8.16241         5.07448
     2019.35386        -4.34554         5.02386
     2019.35660        -1.74367         5.07545
     2019.35934         0.97521         5.07643
     2019.36208         0.91708         5.09882
     2019.36481        -0.37404         5.07935
     2019.36755         1.18783         5.08227
     2019.37029         0.03471         5.11244
     2019.37303         1.10158         5.06864
     2019.37577         0.78345         5.23510
     2019.37850         1.44633         5.12705
     2019.38124         1.04820         5.09784
     2019.38398         2.09308         5.06572
     2019.38672         1.91295         5.04138
     2019.38945        -4.95518         5.07351
     2019.39219        -1.17030         5.09298
     2019.39493         0.78357         5.08129
     2019.39767        10.04945         5.10076
     2019.40041         1.03932         5.01218
     2019.40314         4.40920         5.06475
     2019.40588         3.98807         5.12315
     2019.40862         2.13794         5.08032
     2019.41136        -2.34318         5.10563
     2019.41410        -1.50631         5.05015
     2019.41683         0.88057         5.12510
     2019.41957        -4.34356         5.11634
     2019.42231        -0.16869         5.08227
     2019.42505         5.77419         5.07643
     2019.42778         1.67106         5.26722
     2019.43052         3.98894         5.06475
     2019.43326        -2.20219         5.04917
     2019.43600        -1.04331         5.10368
     2019.43874        -2.99744         5.16598
     2019.44147        -8.37857         5.16209
     2019.44421         4.87731         5.16014
     2019.44695        -0.68882         5.23023
     2019.44969        -1.48694         5.16404
     2019.45243         4.39993         5.18448
     2019.45516         0.21480         5.14457
     2019.45790        -4.35832         5.16209
     2019.46064         0.22255         5.18058
     2019.46338         3.52843         5.42978
     2019.46611         1.01930         5.44341
     2019.46885        10.67418         5.29837
     2019.47159         4.45005         5.16014
     2019.47433        -0.31108         5.17474
     2019.47707         7.43380         5.16598
     2019.47980         0.86767         5.20784
     2019.48254         4.73555         5.20005
     2019.48528         6.38242         5.21271
     2019.48802        -1.13271         5.14165
     2019.49076         0.80017         5.08324
     2019.49349        -0.49996         5.09395
     2019.49623         3.21392         5.12413
     2019.49897         1.09679         5.08032
     2019.50171         4.18367         5.05891
     2019.50444         3.24554         5.04333
     2019.50718        -2.01759         5.10368
     2019.50992         0.81129         5.11342
     2019.51266         0.19016         5.07059
     2019.51540         6.45704         5.03554
     2019.51813         1.18391         5.05307
     2019.52087         3.65078         5.14943
     2019.52361         0.47166         5.19811
     2019.52635         0.24553         5.10758
     2019.52908        -4.07059         5.33049
     2019.53182        -0.83272         5.25164
     2019.53456        -0.54384         5.14457
     2019.53730         2.82203         5.20881
     2019.54004         5.05290         5.31200
     2019.54277         7.02978         5.35872
     2019.54551         1.63365         5.36748
     2019.54825        -1.48147         5.09590
     2019.55099         1.97740         5.11634
     2019.55373         3.93927         5.25846
     2019.55646         6.39815         5.27987
     2019.55920        -9.64098         5.29156
     2019.56194        -0.56410         5.06183
     2019.56468         2.31077         5.21271
     2019.56741        -3.20535         5.16890
     2019.57015        -2.47648         5.06669
     2019.57289        -1.88861         5.17085
     2019.57563        -0.64073         5.08519
     2019.57837        -0.64986         5.19811
     2019.58110         4.92702         5.10952
     2019.58384         6.31889         5.63031
     2019.58658         1.69176         5.11342
     2019.58932         6.26764         5.00926
     2019.59206         9.53451         5.16014
     2019.59479        -0.86961         5.12023
     2019.59753         5.93126         5.29448
     2019.60027         7.38514         5.28279
     2019.60301         5.88901         5.09784
     2019.60574         8.80888         5.41810
     2019.60848         4.39076         5.31102
     2019.61122        -1.55137         5.07935
     2019.61396         4.17651         5.17766
     2019.61670        -0.19862         5.09298
     2019.61943         1.57725         5.09103
     2019.62217         4.09813         5.24094
     2019.62491         6.67800         5.08227
     2019.62765         6.43988         5.11536
     2019.63039         8.44975         5.11050
     2019.63312         2.93963         5.11829
     2019.63586         8.15450         5.21076
     2019.63860         6.79937         5.14749
     2019.64134         2.19625         5.28766
     2019.64407         5.87112         5.11634
     2019.64681         2.23000         5.11926
     2019.64955         5.49187         5.10271
     2019.65229         8.06474         5.10563
     2019.65503         5.05362         5.22244
     2019.65776        -0.10251         5.14943
     2019.66050         6.67537         5.21952
     2019.66324         2.21224         5.13581
     2019.66598         2.19512         5.09492
     2019.66872         6.02799         5.12802
     2019.67145        -3.75814         5.12510
     2019.67419         2.26974         5.15138
     2019.67693         4.77961         5.22244
     2019.67967         3.49049         5.19908
     2019.68240        -4.99364         5.15041
     2019.68514         7.59123         5.24483
     2019.68788         7.06311         5.20297
     2019.69062         5.53998         5.20200
     2019.69336         4.22086         5.09200
     2019.69609         4.76273         5.14457
     2019.69883         3.24861         5.21271
     2019.70157         2.52748         5.10855
     2019.70431         6.51835         5.16014
     2019.70705         4.23923         5.12413
     2019.70978         1.10510         5.13970
     2019.71252         1.06598         5.07935
     2019.71526         2.48885         5.10174
     2019.71800         2.72072         5.24970
     2019.72073         6.80060         5.29545
     2019.72347         4.33347         5.08714
     2019.72621         0.06135         5.14359
     2019.72895         1.32922         5.15820
     2019.73169         5.19910         5.14749
     2019.73442         4.91297         5.13191
     2019.73716         8.91184         5.10368
     2019.73990         6.26372         5.27598
     2019.74264         8.60359         5.18935
     2019.74538         5.28847         5.09103
     2019.74811         8.49434         5.22147
     2019.75085         5.20122         5.26819
     2019.75359         5.01809         5.34704
     2019.75633         9.90996         5.15236
     2019.75906         5.93984         5.08032
     2019.76180         6.12971         5.12705
     2019.76454         8.53659         5.16793
     2019.76728         2.53246         5.21660
     2019.77002         4.81533         5.15917
     2019.77275         4.40621         5.26527
     2019.77549         6.94508         5.19616
     2019.77823         6.97796         5.20589
     2019.78097         9.23483         5.18643
     2019.78371         5.66571         5.17474
     2019.78644         5.86558         5.21465
     2019.78918         4.80645         5.28085
     2019.79192        12.70433         5.29740
     2019.79466         4.69920         5.24288
     2019.79739         6.39608         5.16501
     2019.80013         4.82095         5.18935
     2019.80287         4.93282         5.17961
     2019.80561         2.39670         5.33828
     2019.80835         4.60057         5.17669
     2019.81108         4.37645         5.20200
     2019.81382         5.26132         5.26235
     2019.81656         5.60520         5.20395
     2019.81930         6.66707         5.19519
     2019.82203         4.58694         5.22147
     2019.82477         1.19982         5.19519
     2019.82751         2.68769         5.20784
     2019.83025         4.42057         5.28085
     2019.83299         4.27344         5.32270
     2019.83572         5.21831         5.23704
     2019.83846        11.55219         5.21855
     2019.84120         4.28306         5.18643
     2019.84394         4.55694         5.31686
     2019.84668         0.63281         5.18740
     2019.84941         9.58069         5.20395
     2019.85215        10.63156         5.19129
     2019.85489         6.99843         5.22439
     2019.85763         5.91331         5.18058
     2019.86036         2.32418         5.17961
     2019.86310         5.15806         5.19616
     2019.86584        12.28693         5.26625
     2019.86858         8.31380         5.19032
     2019.87132        10.08068         5.34704
     2019.87405        10.96855         5.17474
     2019.87679        12.43743         5.34607
     2019.87953        16.28230         5.28085
     2019.88227        11.48118         5.18253
     2019.88501        20.62605         5.22536
     2019.88774        13.65192         5.28182
     2019.89048        15.03880         5.16209
     2019.89322        19.00067         5.20005
     2019.89596         4.44755         5.27598
     2019.89869         7.15542         5.15820
     2019.90143         8.87029         5.15138
     2019.90417        11.86717         5.15333
     2019.90691        11.93504         5.13094
     2019.90965         7.05492         5.14749
     2019.91238        12.34479         5.13581
     2019.91512        15.10267         5.15041
     2019.91786        11.62154         5.18350
     2019.92060        14.92441         5.16209
     2019.92334        16.02129         5.18740
     2019.92607        11.38516         5.17085
     2019.92881        10.19204         5.19032
     2019.93155         9.16691         5.20492
     2019.93429         9.23978         5.20297
     2019.93702         6.74766         5.13289
     2019.93976         6.40153         5.15333
     2019.94250        -1.95959         5.17572
     2019.94524        -5.74472         5.19713
     2019.94798        -7.01684         5.23023
     2019.95071         0.08103         5.42005
     2019.95345         5.71690         5.12413
     2019.95619         8.09778         5.15041
     2019.95893         3.89365         5.22828
     2019.96167         5.06053         5.21855
     2019.96440         2.74440         5.29058
     2019.96714        13.90027         5.68871
     2019.96988        -0.01085         5.19227
     2019.97262         4.40602         5.17572
     2019.97535         2.92890         5.14067
     2019.97809         4.58277         5.13386
     2019.98083         3.66065         5.12218
     2019.98357         1.93152         5.11829
     2019.98631         0.71339         5.14554
     2019.98904         1.07727         5.16306
     2019.99178         5.20414         5.11731
     2019.99452         5.86402         5.21368
     2019.99726         4.84989         5.24191
     2020.00000        10.63876         5.27501
     2020.00273         5.00264         5.21465
     2020.00547         7.52651         5.34801
     2020.00821         0.89139         5.26819
     2020.01095         3.54626         5.28961
     2020.01368        -8.78486         5.30421
     2020.01916        -7.26712         5.23412
     2020.02190        -2.15124         5.36651
     2020.02464        -3.74137         5.24191
     2020.02737        -7.69349         5.20395
     2020.03011        -4.07062         5.17864
     2020.03285        -9.40075         5.19421
     2020.03559        -4.45687         5.10076
     2020.03833       -17.83100         5.07156
     2020.04106       -15.43812         5.27111
     2020.04380        -2.65525         5.22634
     2020.04654        -3.67637         5.08324
     2020.04928        -7.19450         5.08714
     2020.05201        -3.17163         5.12218
     2020.05475         1.62425         5.07351
     2020.05749        -3.37888         5.08032
     2020.06023        -7.74900         5.09006
     2020.06297        -1.38713         5.13970
     2020.06570        -5.59326         5.13775
     2020.06844        -2.59638         5.15333
     2020.07118        -0.60851         5.07059
     2020.07392         2.79337         5.13289
     2020.07666        -3.41276         5.12802
     2020.07939        -2.66088         5.10758
     2020.08213        -5.41301         5.15722
     2020.08487        -3.25014         5.13970
     2020.08761        -1.69326         5.05793
     2020.09034        -3.22439         5.05599
     2020.09308        -2.53051         5.09103
     2020.09582       -17.88764         5.12121
     2020.09856        -5.77577         5.16404
     2020.10130        -9.36989         5.12510
     2020.10403       -19.26402         5.07643
     2020.10677        -8.23714         5.09979
     2020.10951        -9.95027         5.10466
     2020.11225        -3.32039         5.14943
     2020.11498        -4.98452         5.09006
     2020.11772        -4.57165         5.21855
     2020.12046        -9.70677         5.23899
     2020.12320        -5.04290         5.08811
     2020.12594       -19.88102         5.17766
     2020.12867       -25.36715         5.11244
     2020.13141        -9.40528         5.12315
     2020.13415        -0.70340         5.10174
     2020.13689        -8.47653         5.18350
     2020.13963        -1.91465         5.18935
     2020.14236        -5.34678         5.07253
     2020.14510       -12.94790         5.11050
     2020.14784         1.10897         5.10368
     2020.15058        10.93584         5.10271
     2020.15605       -14.80941         5.19811
     2020.15879        -2.77253         5.14067
     2020.16153        -9.93566         5.12023
     2020.16427        -2.79679         5.14262
     2020.16674        -2.19790         5.63128
     2020.21457       -14.72710        11.47282
     2020.21629       -21.88018         5.47553
     2020.21902       -15.04230         5.27209
     2020.22176        -9.16343         5.09298
     2020.22450       -10.45455         5.14749
     2020.22724        -1.91268         5.12997
     2020.22997        -0.01581         5.16014
     2020.23271        -4.35893         5.12607
     2020.23545        -9.47806         5.13191
     2020.23819        -9.03618         5.10368
     2020.24093       -13.16731         5.16209
     2020.24366        -7.56843         5.19227
     2020.24640        -9.68156         5.17085
     2020.24914       -10.00169         5.12218
     2020.25188        -6.03081         5.10660
     2020.25462       -13.46594         5.13970
     2020.25735        -0.06506         5.19032
     2020.26009         7.24881         5.17377
     2020.26283        -4.55831         5.13970
     2020.26557        -8.77044         5.15820
     2020.26830       -11.32957         5.11634
     2020.27104        -5.80769         5.17474
     2020.27378        -1.55582         5.18448
     2020.27652        -4.55194         5.27111
     2020.27926        -9.31707         5.23704
     2020.28199        -5.54020         5.25164
     2020.28473       -11.04732         5.17085
     2020.28747       -11.24445         5.17961
     2020.29021        -7.11857         5.22147
     2020.29295        -8.55170         5.14846
     2020.29568        -1.03482         5.12218
     2020.29842        -4.78495         5.15722
     2020.30116        -3.91908         5.19908
     2020.30390        -3.96620         5.18643
     2020.30663        -2.63133         5.14846
     2020.30937        -7.76845         5.27890
     2020.31211        -8.54858         5.29934
     2020.31485        -7.06671         5.21076
     2020.31759        -6.93183         5.14457
     2020.32032        -6.02496         5.16112
     2020.32306        -4.54008         5.12705
     2020.32580        -3.44821         5.10758
     2020.32854        -2.30733         5.12315
     2020.33128        -4.44346         5.12607
     2020.33401        -4.14459         5.11634
     2020.33675        -1.13071         5.15722
     2020.33949        -2.68684         5.16598
     2020.34223        -4.29196         5.21271
     2020.34496        -9.15109         5.21952
     2020.34770        -7.14522         5.07253
     2020.35044        -2.84034         5.22342
     2020.35318        -4.66547         5.21076
     2020.35592        -5.74959         5.22926
     2020.35865         1.64128         5.09200
     2020.36139        -0.67684         5.09687
     2020.36413        -0.49297         5.11926
     2020.36687         2.22190         5.17280
     2020.36961        -1.31922         5.16793
     2020.37234        -2.61235         5.13191
     2020.37508        -2.03547         5.12997
     2020.37782        -1.39860         5.12315
     2020.38056        -6.67373         5.10368
     2020.38329        -0.46885         5.12705
     2020.38603        -5.00198         5.13970
     2020.38877        -3.61810         5.21076
     2020.39151        -1.91323         5.15041
     2020.39425        -1.85235         5.15138
     2020.39698        -2.94648         5.10563
     2020.39972        -4.14561         5.10758
     2020.40246        -8.29973         5.10952
     2020.40520        -5.81886         5.14846
     2020.40794        -2.34498         5.09882
     2020.41067        -1.39111         5.10855
     2020.41341         0.25376         5.14262
     2020.41615        -2.95336         5.06183
     2020.41889        -2.33349         5.13191
     2020.42162        -4.65461         5.13289
     2020.42436        -4.73974         5.39669
     2020.42710        -2.27886         5.30032
     2020.42984        -1.86699         5.20297
     2020.43258        -1.74512         5.19908
     2020.43531        -7.70924         5.24094
     2020.43805        -0.80237         5.23996
     2020.44079        -5.24749         5.20589
     2020.44353        -3.27962         5.27501
     2020.44626        -5.93575         5.17961
     2020.44900        -1.57287         5.14651
     2020.45174         2.17200         5.11342
     2020.45448         0.89988         5.09979
     2020.45722        -0.51325         5.10660
     2020.45995         2.55563         5.11731
     2020.46269       -11.62450         5.10952
     2020.46543        -7.72263         5.13386
     2020.46817         2.21525         5.07643
     2020.47091         4.65912         5.13873
     2020.47364        -1.54600         5.13289
     2020.47638         4.47587         5.09103
     2020.47912        -1.51226         5.24483
     2020.48186        -2.81338         5.12510
     2020.48459        -4.78851         5.25554
     2020.48733         1.63837         5.34120
     2020.49007         3.17724         5.20395
     2020.49281         7.08712         5.26625
     2020.49555         3.02499         5.25456
     2020.49828         1.30886         5.13483
     2020.50102        -3.66526         5.16988
     2020.50376        -3.94139         5.13191
     2020.50650        -3.09551         5.10855
     2020.50924        -8.56464         5.13386
     2020.51197        -0.28777         5.09103
     2020.51471        -1.95289         5.07837
     2020.51745         1.36498         5.09979
     2020.52019         4.82786         5.28669
     2020.52292         2.41873         5.23315
     2020.52566        -1.39239         5.32368
     2020.52840         9.09048         5.20881
     2020.53114        -3.93265         5.22926
     2020.53388         1.37123         5.24191
     2020.53661        -6.47990         5.20200
     2020.53935        -6.66502         5.36067
     2020.54209         1.93785         5.23704
     2020.54483         0.87072         5.24580
     2020.54757         2.97860         5.26527
     2020.55030        -2.61253         5.27403
     2020.55304         2.70435         5.30129
     2020.55578         3.64822         5.27306
     2020.55852         4.27210         5.27111
     2020.56125        -3.31903         5.24483
     2020.56399         1.60484         5.20200
     2020.56673         1.86272         5.19811
     2020.56947         8.85059         5.20395
     2020.57221         9.43047         5.36651
     2020.57494         2.69734         5.25456
     2020.57768         7.94221         5.25554
     2020.58042         6.75809         5.31492
     2020.58316        -0.27304         5.26819
     2020.58590        -1.09216         5.29058
     2020.58863         2.51471         5.27987
     2020.59137         7.03059         5.24483
     2020.59411         8.23346         5.22634
     2020.59685         9.92233         5.40739
     2020.59958         3.70421         5.31102
     2020.60232         1.48508         5.17280
     2020.60506        -0.46404         5.27014
     2020.60780         0.92883         5.33633
     2020.61054         3.04370         5.33244
     2020.61327         7.61258         5.23899
     2020.61601         3.66445         5.18643
     2020.61875        -1.71367         5.29642
     2020.62149         1.40220         5.28377
     2020.62423         5.64308         5.34509
     2020.62696         0.89495         5.31492
     2020.62970        -0.11218         5.29642
     2020.63244         0.76970         5.24775
     2020.63518         9.33957         5.30518
     2020.63791         8.01345         5.45898
     2020.64065         6.72232         5.34607
     2020.64339         2.96919         5.20881
     2020.64613         7.62607         5.24483
     2020.64887         4.43894         5.25456
     2020.65160         1.42182         5.27890
     2020.65434         1.83869         5.26235
     2020.65708         8.50357         5.24580
     2020.65982        -0.25656         5.29740
     2020.66256         5.75431         5.19908
     2020.66529         9.31719         5.24775
     2020.66803         8.29906         5.22634
     2020.67077         4.67794         5.27598
     2020.67351        12.71881         5.20784
     2020.67624         8.51468         5.24191
     2020.67898         3.33656         5.24483
     2020.68172         0.30143         5.31102
     2020.68446         0.74631         5.32563
     2020.68720         2.86518         5.27501
     2020.68993         4.32006         5.25651
     2020.69267         7.72093         5.32757
     2020.69541        10.79280         5.50376
     2020.69815         8.51668         5.34509
     2020.70089        10.81455         5.26722
     2020.70362         8.95943         5.29156
     2020.70636         9.55630         5.61765
     2020.70910        -0.38283         5.65464
     2020.71184         6.67805         5.34996
     2020.71457         7.53892         5.34412
     2020.71731         1.44280         5.40545
     2020.72005         1.50067         5.45022
     2020.72279         3.62855         5.26625
     2020.72553         8.40742         5.35775
     2020.72826         1.30729         5.43173
     2020.73100        10.52917         5.36164
     2020.73374         9.97504         5.33244
     2020.73648         7.26992         5.29448
     2020.73921         3.32879         5.31102
     2020.74195         6.26567         5.23607
     2020.74469         6.93654         5.27501
     2020.74743         4.51841         5.23996
     2020.75017         7.50429         5.28961
     2020.75290         5.49616         5.28863
     2020.75564         6.25704         5.14457
     2020.75838         7.56291         5.27501
     2020.76112         9.65178         5.23218
     2020.76386         6.50166         5.21952
     2020.76659         8.55353         5.18643
     2020.76933        11.99041         5.31102
     2020.77207        12.39628         5.20687
     2020.77481        12.88116         5.22439
     2020.77754         9.31803         5.20297
     2020.78028        16.46990         5.32270
     2020.78302         0.41178         5.34217
     2020.78576         6.46465         5.27598
     2020.78850         3.76453         5.23899
     2020.79123         6.31540         5.25456
     2020.79397         4.43727         5.27598
     2020.79671         5.14215         5.23120
     2020.79945         8.45902         5.27209
     2020.80219         8.05390         5.35677
     2020.80492         4.26677         5.29253
     2020.80766         3.37565         5.22828
     2020.81040        -0.76548         5.30908
     2020.81314       -10.15561         5.20492
     2020.81587         2.44127         5.26041
     2020.81861         8.36214         5.25262
     2020.82135         6.32102         5.18350
     2020.82409         7.60189         5.22147
     2020.82683         7.81676         5.25846
     2020.82956         7.69364         5.31686
     2020.83230         9.67251         5.29740
     2020.83504         7.44839         5.27695
     2020.83778         9.17426         5.15528
     2020.84052        13.81714         5.22634
     2020.84325         2.86701         5.42589
     2020.84599        -7.75312         5.46385
     2020.84873        11.78076         5.18448
     2020.85147         7.17663         5.11536
     2020.85420        13.53151         5.10855
     2020.85694        12.93238         5.23996
     2020.85968         8.43325         5.14457
     2020.86242        15.18313         5.23704
     2020.86516        14.13200         5.33536
     2020.86789         2.19288         5.41323
     2020.87063        19.15675         5.23510
     2020.87337         8.91863         5.28474
     2020.87611         8.66450         5.52615
     2020.87885         9.44537         5.46483
     2020.88158         3.89225         5.38695
     2020.88432         2.74812         5.29253
     2020.88706         2.83300         5.48721
     2020.88980         1.95787         5.36359
     2020.89253         8.62474         5.24580
     2020.89527        12.77262         5.40642
     2020.89801        12.20449         5.43952
     2020.90075         6.43337         5.29448
     2020.90349         7.79224         5.29642
     2020.90622         9.69012         5.28474
     2020.90896         2.88099         5.43465
     2020.91170         5.99186         5.46191
     2020.91444         2.23074         5.38695
     2020.91718         0.32061         5.28669
     2020.91991        -1.10251         5.26527
     2020.92265         0.92136         5.30032
     2020.92539         1.26723         5.25846
     2020.92813        -1.69689         5.24775
     2020.93086         1.52798         5.27793
     2020.93360         2.76586         5.25164
     2020.93634         3.97073         5.26917
     2020.93908        -2.55439         5.32368
     2020.94182        -1.14852         5.23996
     2020.94455        -1.42565         5.21952
     2020.94729        -0.32377         5.20784
     2020.95003        -1.23790         5.24580
     2020.95277       -13.74802         5.28669
     2020.95551        -2.46015         5.23510
     2020.95824        -0.10528         5.32076
     2020.96098        -5.92040         5.29058
     2020.96372        -1.23553         5.26430
     2020.96641        -1.75665         5.46677
     2020.97582        -4.69608        13.45667
     2020.97741        -3.44516         5.30616
     2020.98015        -1.18628         5.46288
     2020.98288         1.00459         5.35580
     2020.98562         2.28447         5.25456
     2020.98836         3.63634         5.20784
     2020.99110         5.43421         5.18935
     2020.99384         2.28509         5.17864
     2020.99657         0.88696         5.20979
     2020.99931         4.52884         5.22244
     2021.00205        -0.74029         5.18058
     2021.00479         2.70459         5.19519
     2021.03872        -1.74897        11.55459
     2021.04038        -6.15505         5.30810
     2021.54414        -0.83120         5.38598
     2021.54688        -3.80633         5.30421
     2021.54962        -5.67545         5.25359
     2021.55236        -1.58158         5.28669
     2021.55509         1.31329         5.36262
     2021.55783        -1.18583         5.34607
     2021.56057         2.68404         5.27793
     2021.56331        -0.18408         5.28474
     2021.56605         2.35779         5.26819
     2021.56878         4.58866         5.25846
     2021.57152        -2.44746         5.27890
     2021.57426        -4.58759         5.30810
     2021.57700        10.72329         5.43368
     2021.57974         2.57716         5.28182
     2021.58247        -1.59696         5.31881
     2021.58521         0.21791         5.40350
     2021.58795        -4.01622         5.27890
     2021.59069        -1.55634         5.46677
     2021.59342        -0.81447         5.30616
     2021.59616         1.50441         5.45606
     2021.59890         7.33228         5.36943
     2021.60164         1.74115         5.39474
     2021.60438         5.35303         5.27501
     2021.60711         8.03090         5.26625
     2021.60985         5.97178         5.27403
     2021.61259         6.56765         5.29740
     2021.61533         1.39753         5.31005
     2021.61807         4.93240         5.32368
     2021.62080         3.80527         5.33049
     2021.62354         7.40415         5.28961
     2021.62628         2.75802         5.34509
     2021.62902         6.51590         5.26333
     2021.63175         7.03377         5.29253
     2021.63449         2.57364         5.26333
     2021.63723         7.34452         5.53881
     2021.63997         7.73139         5.37332
     2021.64271         4.12627         5.34023
     2021.64544         3.67714         5.27209
     2021.64818         6.44902         5.22244
     2021.65092         7.73889         5.26527
     2021.65366         4.42276         5.30226
     2021.65639         8.02464         5.22828
     2021.65913         3.34551         5.24775
     2021.66187        10.56439         5.26917
     2021.66461         2.76926         5.24191
     2021.66735        10.87513         5.23023
     2021.67008         5.94401         5.37235
     2021.67282        10.92888         5.46775
     2021.67556        13.74076         5.53881
     2021.67830        14.31263         5.45606
     2021.68104         6.93351         5.28085
     2021.68377         9.38238         5.30032
     2021.68651         9.86425         5.28669
     2021.68925         8.81313         5.28863
     2021.69199         8.61400         5.27598
     2021.69472         8.77088         5.37430
     2021.69746         8.67875         5.33731
     2021.70020         8.93162         5.31200
     2021.70294        -0.46450         5.30226
     2021.70568        13.42837         5.31200
     2021.70841         4.28725         5.26235
     2021.71115        13.20912         5.29156
     2021.71389        17.18600         5.39571
     2021.71663         9.39387         5.30616
     2021.71937         7.24174         5.33731
     2021.72210         4.06262         5.28085
     2021.72484         3.09749         5.28279
     2021.72758         4.55237         5.31881
     2021.73032         0.92324         5.52226
     2021.73305        11.22611         5.26138
     2021.73579        17.45899         5.31102
     2021.73853        11.18686         5.48721
     2021.74127        10.15974         5.28377
     2021.77412        14.00023         5.41810
     2021.77686         6.35710         5.31005
     2021.77960        11.39298         5.30421
     2021.78234         8.49885         5.25164
     2021.78507        10.25472         5.31784
     2021.78781         9.38060         5.28669
     2021.79055        11.03647         5.26235
     2021.79329         7.51835         5.34023
     2021.79603        10.63322         5.25164
     2021.79876        13.10710         5.26430
     2021.80150         8.24197         5.35385
     2021.80424         9.34584         5.47164
     2021.80698        10.54072         5.26041
     2021.80971         5.30059         5.31005
     2021.81245        16.19547         5.45314
     2021.81519        14.05134         5.26527
     2021.81793        12.78421         5.33731
     2021.82067         7.75209         5.34315
     2021.82340         8.95996         5.38208
     2021.82614         3.92084         5.37332
     2021.82888         9.69671         5.33536
     2021.83162        11.58059         5.32757
     2021.83436        11.39446         5.36554
     2021.83709         8.49033         5.38792
     2021.83983         2.01121         5.56217
     2021.84257         5.89608         5.36359
     2021.84531         1.24096         5.34217
     2021.84804         8.48183         5.33147
     2021.85078        -0.27930         5.31881
     2021.85352         3.33758         5.35677
     2021.85626         4.81845         5.27306
     2021.85900         5.22233         5.28474
     2021.86173         1.05220         5.32076
     2021.86447         4.05408         5.44828
     2021.86721         0.59695         5.60597
     2021.86995        -3.01518         5.65659
     2021.87269        -1.28430         5.40155
     2021.87542         3.88457         5.39766
     2021.87816        -0.93255         5.27014
     2021.88090         1.59732         5.25262
     2021.88364        -2.48481         5.33731
     2021.88637         0.79707         5.24775
     2021.88911        -2.99006         5.28085
     2021.89185        -1.95718         5.31297
     2021.89459        -0.73231         5.25943
     2021.89733        -2.28643         5.26917
     2021.90006        -9.44556         5.33633
     2021.90280        -8.21869         5.25359
     2021.90554         3.35119         5.31394
     2021.90828        -5.05994         5.45606
     2021.91102         5.21094         5.37916
     2021.91375         5.06981         5.31005
     2021.91649         3.07468         5.32757
     2021.91923         1.47056         5.30713
     2021.92197        -1.70057         5.57190
     2021.92470       -17.23769         5.36067
     2021.92744       -22.26182         6.76435
     2021.93018        -3.20794         5.33925
     2021.93292         7.22393         5.53102
     2021.93520        13.41582         6.56285
     2021.96697        10.33636        15.09203
     2021.96851        -8.43371         9.50942
     2021.97051        -3.06780         7.87017
     2022.03808        -6.14590        12.39661
     2022.03969        -7.80098         5.88924
     2022.04243        -4.15410         5.35580
     2022.04517        -4.32423         5.39279
     2022.04704        -9.34432         9.36827
     2022.05166        -3.00953        10.03507
     2022.05338        -8.98361         5.48624
     2022.05612       -11.88473         5.43757
     2022.05886       -15.90486         5.33439
     2022.06160       -11.24298         5.36067
     2022.06433        -7.37411         5.39669
     2022.06707       -12.08224         5.37819
     2022.06981        -3.36636         5.40253
     2022.07255       -11.54349         5.28571
     2022.07529        -3.55861         5.27209
     2022.07802        -4.10374         5.29350
     2022.08076         2.44013         5.29740
     2022.08350        -5.23199         5.30421
     2022.08624        -5.07912         5.31978
     2022.08898        -1.84324         5.25164
     2022.09171       -13.93637         5.31297
     2022.09445        -9.34749         5.36846
     2022.09719        -9.09262         5.26722
     2022.09993        -9.54275         5.46191
     2022.10266       -12.47887         5.45022
     2022.10540        -3.65500         5.36651
     2022.10814         0.04288         5.42199
     2022.11088        -3.47925         5.30616
     2022.11362        -2.41838         5.29058
     2022.11635        -2.09550         5.28279
     2022.11909        -1.79863         5.26430
     2022.12183        -3.02275         5.27501
     2022.12457        -3.18088         5.40934
     2022.12731        -3.16600         5.31394
     2022.13004        -5.69613         5.32757
     2022.13278        -8.71726         5.28863
     2022.13552        -0.03138         5.25456
     2022.13826        -5.06051         5.26430
     2022.14099        -2.54363         5.22926
     2022.14373       -10.99076         5.23607
     2022.14647        -3.01789         5.24483
     2022.14921        -4.87901         5.44244
     2022.15195        -5.78614         5.44536
     2022.15468        -4.19926         5.27209
     2022.15742        -9.46839         5.39766
     2022.16016       -23.25951         5.44633
     2022.16290        -8.41964         5.39279
     2022.16564       -10.16577         5.29545
     2022.16837        -1.49589         5.27793
     2022.17111        -5.50202         5.31102
     2022.17385        -1.13814         5.31784
     2022.17659        -4.64727         5.29934
     2022.17932        -9.04640         5.27598
     2022.18206       -10.29452         5.23120
     2022.18480        -9.74465         5.26333
     2022.18754        -4.88377         5.33633
     2022.19028        -7.41390         5.38306
     2022.19301         0.04498         5.31102
     2022.19575         1.39285         5.21855
     2022.19849        -3.05828         5.27014
     2022.20123        -6.48740         5.35385
     2022.20397        -7.26353         5.32173
     2022.20670        -3.76165         5.41518
     2022.20944        -4.23678         5.40253
     2022.21218        -5.83091         5.27793
     2022.21492       -14.30403         5.25846
     2022.21765       -10.14016         5.29934
     2022.22039        -7.75428         5.36164
     2022.22313       -17.22141         5.30421
     2022.22587        -9.58453         5.37040
     2022.22861        -2.91266         5.37235
     2022.23134        -2.10879         5.30421
     2022.23408        -0.10891         5.35288
     2022.23682        -3.88304         5.47359
     2022.23956        -8.18716         5.27501
     2022.24230       -10.27829         5.32368
     2022.24503        -6.13642         5.31005
     2022.24777        -4.36554         5.35580
     2022.25051       -12.02267         5.30908
     2022.25325        -7.51879         5.26138
     2022.25598       -26.92792         5.32173
     2022.25872       -11.17104         5.35288
     2022.26146       -12.59917         5.34217
     2022.26420        -6.61430         5.34509
     2022.26694       -13.68142         5.46288
     2022.26967       -15.83155         5.27501
     2022.27241        -8.57967         5.28279
     2022.27515         0.15120         5.37040
     2022.27789        -9.74692         5.30616
     2022.28062        -5.05605         5.25359
     2022.28336        -1.98618         5.28377
     2022.28610        -1.36230         5.36262
     2022.28884        -5.68243         5.37138
     2022.29158       -13.29055         5.30226
     2022.29431        -7.01168         5.28571
     2022.29705       -12.70681         5.30324
     2022.29979        -0.18593         5.26235
     2022.30253        -6.39306         5.35385
     2022.30527        -8.93218         5.38014
     2022.30800       -11.97931         5.31686
     2022.31074       -11.64543         5.29545
     2022.31348        -6.40456         5.31589
     2022.31622       -11.39969         5.25164
     2022.31895       -24.90781         5.42199
     2022.32169        -5.36294         5.43562
     2022.32443        -5.23106         5.30324
     2022.32717       -11.27419         5.30713
     2022.32991        -7.95332         5.22926
     2022.33264        -6.15944         5.37916
     2022.33538       -14.72357         5.43660
     2022.33812        -6.87269         5.50571
     2022.34086        -3.66482         5.26625
     2022.34360        -8.61794         5.29448
     2022.34633        -7.38507         5.25554
     2022.34907        -6.22220         5.25359
     2022.35181        -1.39632         5.30226
     2022.35455        -8.01145         5.27014
     2022.35728        -9.63257         5.27209
     2022.36002        -6.30770         5.27209
     2022.36276       -15.82983         5.30226
     2022.36550        -8.29395         5.32660
     2022.36824        -5.09208         5.33244
     2022.37097        -9.88220         5.26430
     2022.37371       -11.49533         5.24288
     2022.37645       -16.85945         5.32076
     2022.37919       -10.21758         5.45314
     2022.38193       -15.66171         5.39084
     2022.38466       -13.54383         5.21757
     2022.38740       -23.98496         5.21173
     2022.39014       -11.83808         5.20492
     2022.39288        -4.34521         5.25846
     2022.39561        -8.58934         5.31589
     2022.39835        -8.09446         5.30518
     2022.40109        -6.99159         5.33731
     2022.40383        -4.82771         5.19324
     2022.40657        -2.20284         5.23412
     2022.40930       -14.81496         5.37235
     2022.41204        -7.25309         5.32270
     2022.41478        -8.39722         5.22147
     2022.41752        -8.16934         5.28961
     2022.42026        -5.51847         5.36943
     2022.42299        -2.96059         5.24970
     2022.42573        -8.74172         5.27306
     2022.42847        -2.64985         5.25359
     2022.43121        -8.04297         5.25846
     2022.43394         2.27590         5.32855
     2022.43668        -8.32722         5.23315
     2022.43942        -7.63835         5.36846
     2022.44216        -1.88147         5.24191
     2022.44490         4.55340         5.35288
     2022.44763        -0.47473         5.20589
     2022.45037        -5.89085         5.23218
     2022.45311        -9.17298         5.18448
     2022.45585         2.42890         5.22147
     2022.45859       -18.94423         5.21076
     2022.46132        -7.21036         5.15333
     2022.46406        -9.33348         5.20103
     2022.46680        -6.07961         5.22049
     2022.46954        -7.60173         5.18837
     2022.47227       -15.78686         5.26430
     2022.47501        -0.65498         5.20005
     2022.47775       -12.09311         5.34315
     2022.48049        -4.93624         5.15722
     2022.48323         1.80464         5.19421
     2022.48596         0.48351         5.21855
     2022.48870         3.61339         5.32855
     2022.49144        -2.67574         5.22634
     2022.49418        -4.13787         5.32076
     2022.49692        -4.19799         5.20005
     2022.49965        -6.74912         5.19519
     2022.50239       -19.91724         5.31394
     2022.50513        -0.46337         5.49111
     2022.50787         7.37551         5.51544
     2022.51060        -4.10462         5.32270
     2022.51334        -5.73975         5.22439
     2022.51608        -7.21787         5.24191
     2022.51882       -15.17200         5.23607
     2022.52156       -10.76012         5.28863
     2022.52429        -5.28525         5.22634
     2022.52703         1.78162         5.29058
     2022.52977         4.86950         5.22536
     2022.53251        -6.79263         5.22439
     2022.53525        -2.15275         5.41323
     2022.53798        -3.86888         5.19908
     2022.54072        -2.61800         5.19227
     2022.54346         1.17387         5.24288
     2022.54620        -6.48526         5.25554
     2022.54893        -6.01038         5.26333
     2022.55167         0.54149         5.22926
     2022.55441        -3.64863         5.26722
     2022.55715         4.79424         5.26625
     2022.55989        -0.27389         5.25554
     2022.56262        -4.84401         5.20784
     2022.56536       -10.75114         5.18253
     2022.56810        -1.99626         5.20687
     2022.57084        -2.13239         5.22731
     2022.57357         0.55049         5.39766
     2022.57631        -6.15264         5.18350
     2022.57905         0.64023         5.24872
     2022.58179         2.21411         5.30810
     2022.58453         1.84898         5.48332
     2022.58726        -2.26414         5.32563
     2022.59000         9.25373         5.35970
     2022.59274        -4.66840         5.14749
     2022.59548        -3.84852         5.16306
     2022.59822        -4.63965         5.16501
     2022.60095        -4.06677         5.16306
     2022.60369        -1.63290         5.36456
     2022.60643         2.22698         5.20784
     2022.60917         9.89585         5.33925
     2022.61190         7.08672         5.31394
     2022.61464        11.75660         5.17280
     2022.61738         5.89247         5.15528
     2022.62012         4.75835         5.13386
     2022.62286         1.06722         5.24288
     2022.62559         9.95909         5.16112
     2022.62833         6.40397         5.17474
     2022.63107         7.64284         5.13483
     2022.63381        11.85672         5.15722
     2022.63655        11.94759         5.17085
     2022.63928         5.36747         5.22244
     2022.64202         4.92034         5.56801
     2022.64476         5.07821         5.52226
     2022.64750         7.71909         5.24386
     2022.65023         8.83996         5.31978
     2022.65297         6.71384         5.38792
     2022.65571        16.83871         5.33147
     2022.65845        12.01258         5.25262
     2022.66119        13.98146         5.11634
     2022.66392        16.60533         5.15041
     2022.66666        13.09821         5.16890
     2022.66940        12.46908         5.14262
     2022.67214        12.09696         5.09590
     2022.67488         8.02583         5.16209
     2022.67761        12.21070         5.21076
     2022.68035        13.32658         5.09979
     2022.68309        15.51345         5.22634
     2022.68583        14.62633         5.35580
     2022.68856        12.40920         5.21563
     2022.69130        14.75007         5.16209
     2022.69404        15.56795         5.34412
     2022.69678        16.63782         5.31978
     2022.69952         6.76870         5.29156
     2022.70225        17.68057         5.34899
     2022.70499        11.81645         5.32563
     2022.70773        12.67132         5.20297
     2022.71047        11.67819         5.14262
     2022.71321        20.62407         5.19811
     2022.71594        16.94294         5.14943
     2022.71868        13.69282         5.11829
     2022.72142        17.50369         5.16112
     2022.72416        12.44156         5.19129
     2022.72689        13.69544         5.24678
     2022.72963        16.50031         5.15528
     2022.73237        14.95919         5.12315
     2022.73511        11.66406         5.14846
     2022.73785        12.76194         5.12607
     2022.74058        19.21981         5.29253
     2022.74332        20.45968         5.43854
     2022.74606        14.25156         5.22731
     2022.74880        13.45743         5.13483
