# ================= DQRFIT RESULTS ================
# INPUT FILE: series/P665.rad
# OUTPUT: LDETRENDED
# FILTER FUNCTION: f(t)
# f(t)=+line(t)+annual(t)
# line(t)=+P 1+P 2*t
# annual(t)=+P 3*sin(2*pi*t+P 4)
# heav(t)=(t<0?0:1)
# TOTAL OBSERVATIONS MTOT= 3827
# INITIAL TIME INTERVAL= 2022.7488 - 2007.7563 = 14.9925
# TOTAL OBSERVATIONS AFTER PREFILTER M= 3432
# TIME-SPAN= 2022.7488 - 2007.7563 = 14.9925
# OBSERVATIONS: USED M=  3432 REJECTED MTOT-M=   395 %USED=   89.6786
# N=  4 PARAMETERS
# MAXSIG= 175.00000
# MAXRES= 172.52984
# SCALE FACTOR FOR LENGTHS: SCL=  10.00000
# SCALE FACTOR FOR SIGMAS: SCLSIG=   1.00000
# CHI^2=  20586.364 DOF=  3428 CHI^2/DOF=   6.00536
# RMS=     14.584 SDEV=     14.585 MEAN=    0.10194
#  P #       PARAMETER +-    SIGMA %error PARAMETER NAME
# P 1 =     13752.43636 +-  133.715   0.97 YZERO                              
# P 2 =        -6.83270 +-    0.066   0.97 SLOPE                              
# P 3 =         1.51422 +-    0.343  22.67 ANNUAL AMPLITUDE                   
# P 4 =         2.10676 +-    0.177   8.39 ANNUAL PHASE                       
#       T            LDETRENDED       SIG_OBS
     2007.75633         4.71843        14.29425
     2007.75906         1.52514        14.32366
     2007.76180        -1.40915        14.31140
     2007.76454         4.49755        14.22318
     2007.76728         0.63326        15.05393
     2007.77002         0.87097        15.42642
     2007.77275        -1.14233        14.83828
     2007.77549         4.50038        14.64468
     2007.77823        -8.17391        14.38982
     2007.78097        -2.70220        14.41188
     2007.78371         3.97150        14.09575
     2007.78644         6.17821        14.15702
     2007.78918         3.54192        14.38247
     2007.79192        -0.52238        14.63488
     2007.79466         4.61433        14.67409
     2007.79739        11.50804        14.54176
     2007.80013         9.95774        14.30650
     2007.80287        -0.40055        14.37022
     2007.80561        -9.23884        14.27220
     2007.80835         0.79786        14.53196
     2007.81108         0.58557        14.66919
     2007.81382        -0.50272        14.36532
     2007.81656         1.43999        14.70840
     2007.81930         1.23569        14.48540
     2007.82203        -4.85860        14.38982
     2007.82477        -6.94989        14.67409
     2007.82751        -6.30319        14.56381
     2007.83025        -7.06848        14.41188
     2007.83299        -4.36577        14.36042
     2007.83572        -1.76507        14.25994
     2007.83846        -0.54136        14.17662
     2007.84120        -2.88765        14.17907
     2007.84394        -7.99295        14.07125
     2007.84668        -1.88424        14.11046
     2007.84941        -3.46853        13.95117
     2007.85215         0.19318        14.24034
     2007.85489        -9.08812        14.47069
     2007.85763        -5.90241        14.18888
     2007.86036        -7.70370        14.10556
     2007.86310         3.75800        14.25014
     2007.86584       -11.38929        14.32121
     2007.86858        -3.50458        14.19133
     2007.87132        -4.80788        14.08595
     2007.87405       -11.16917        14.13006
     2007.87679       -11.03646        14.17417
     2007.87953       -10.54176        14.26729
     2007.88227        -6.11605        14.35306
     2007.88501        -6.54734        14.16192
     2007.88774        -5.44063        14.22073
     2007.89048        -7.94393        14.09330
     2007.89322        -4.32722        14.54421
     2007.89596        -1.19051        14.27220
     2007.89869        -3.88481        14.20848
     2007.90143        -4.68110        14.19623
     2007.90417        -2.71939        14.73291
     2007.90691        -5.37169        14.44864
     2007.90965        -9.27198        14.35061
     2007.91238        -4.46427        14.23299
     2007.91512        -2.54057        14.32856
     2007.91786        -5.12086        14.26484
     2007.92060       -10.18915        14.76231
     2007.92334       -32.01944        14.72065
     2007.92607        -0.46574        14.50745
     2007.92881        -5.78503        14.90935
     2007.93155       -13.78332        14.63243
     2007.93429        -7.29662        14.38002
     2007.93702        -7.61091        14.50990
     2007.93976        -5.00920        14.51480
     2007.94250        -9.20850        14.52461
     2007.94524        -4.43679        14.76966
     2007.94798        -7.72208        14.67654
     2007.95071        -5.05338        14.80152
     2007.95345        -1.94067        14.67164
     2007.95619        -2.02096        14.75251
     2007.95893        -1.73225        14.68389
     2007.96167        -0.38455        14.88239
     2007.96440        -4.14384        14.75251
     2007.96714         0.56887        14.83828
     2007.96988       -10.50643        14.57607
     2007.97262       -14.48572        14.67164
     2007.97535       -14.09901        14.61038
     2007.97809        -2.51431        14.63488
     2007.98083        -4.25760        14.52461
     2007.98357        -1.61389        14.35552
     2007.98631        -2.74219        14.73781
     2007.98904       -14.80848        14.60302
     2007.99178       -19.22077        14.55156
     2007.99452       -21.73506        14.59322
     2007.99726        -8.16436        14.34081
     2008.00000       -11.09165        14.32121
     2008.00273       -12.05994        14.22318
     2008.00547         1.32876        14.02224
     2008.00821        -7.48853        14.15457
     2008.01095        -0.17082        14.13251
     2008.01368        -4.28812        14.17907
     2008.01642        -4.29841        14.21338
     2008.01916        -9.08270        14.56627
     2008.02190       -11.59700        14.48540
     2008.02464       -16.35329        14.47314
     2008.02737       -26.80458        14.18152
     2008.03011       -26.90387        14.38982
     2008.03285       -15.87617        14.05164
     2008.03559       -11.35446        14.13251
     2008.03833       -14.56075        14.13006
     2008.04106       -20.07705        14.39963
     2008.04380       -22.77134        14.23789
     2008.04654       -16.78963        14.32121
     2008.04928       -11.31393        13.94627
     2008.05201       -14.47922        14.07370
     2008.05475       -19.68251        14.16192
     2008.05749       -23.74181        14.03939
     2008.06023        -9.26210        13.98793
     2008.06297        -5.82239        13.82374
     2008.06570       -16.87768        13.99773
     2008.06844        -7.62898        14.13741
     2008.07118         0.65573        14.30405
     2008.07392        24.72144        14.34571
     2008.07666        24.72814        14.83093
     2008.07939        23.70085        14.65204
     2008.08213        26.07956        14.25994
     2008.08487        36.30026        14.19868
     2008.08761        36.20597        14.15702
     2008.09582        42.62609        14.92650
     2008.09856        42.91380        14.97306
     2008.10130        37.96051        14.60057
     2008.10403        38.20521        14.15947
     2008.10677        38.19792        14.08840
     2008.10951        32.04563        14.13006
     2008.11225       -20.38867        14.09575
     2008.11498       -15.33296        14.00018
     2008.11772       -15.39125        14.00753
     2008.12046       -10.85755        13.95852
     2008.12320        -7.70884        14.30650
     2008.12594        -8.65813        13.96587
     2008.12867        -7.92843        13.95117
     2008.13141        -8.84872        13.93892
     2008.13415        -7.86701        13.99283
     2008.13689        -9.07331        14.07615
     2008.13963        -2.26860        13.98548
     2008.14236       -13.68689        14.13741
     2008.14510         5.83482        14.08595
     2008.14784        51.51052        14.09820
     2008.16427        43.53176        14.44374
     2008.16700        37.47047        14.28445
     2008.16974        40.37318        14.29425
     2008.17248        32.35988        14.16927
     2008.17522        30.26059        14.76231
     2008.17796        42.06830        14.23054
     2008.18069        30.33601        14.24279
     2008.18343        30.49671        14.19378
     2008.18617        34.53342        14.16927
     2008.19438         5.41454        14.52951
     2008.19712       -17.97175        14.60547
     2008.19986         1.99895        14.15947
     2008.20260         7.36466        14.46824
     2008.20533        10.99437        14.46579
     2008.20807         6.40707        15.21077
     2008.21081       -22.05222        14.60302
     2008.21355       -15.07951        14.43638
     2008.21629        -6.47080        14.81868
     2008.21902       -17.81110        14.77947
     2008.22176       -19.05439        14.75496
     2008.22450       -12.40068        14.73536
     2008.22724       -14.34698        14.41678
     2008.22997        -7.03427        14.89464
     2008.23271        -2.96856        14.95101
     2008.23545        -9.94386        14.94120
     2008.23819       -16.58015        14.61283
     2008.24005        -9.38442        25.46891
     2008.29685         2.62465        53.34919
     2008.29842        -9.94960        14.53931
     2008.30116       -11.83189        14.59077
     2008.30390        -7.83318        14.63243
     2008.30663        -3.74548        14.56627
     2008.30937       -16.98477        14.79907
     2008.31211       -10.95706        14.77211
     2008.31485       -14.23336        14.74516
     2008.31759       -12.28965        15.10539
     2008.32032        -5.30794        15.02207
     2008.32306       -10.09323        15.00002
     2008.32580       -13.21253        15.17401
     2008.32854       -14.99782        14.74026
     2008.33128       -18.72011        14.74516
     2008.33401       -13.84941        14.76476
     2008.33675       -13.74670        14.71575
     2008.33949        -4.24799        14.67409
     2008.34223       -15.31029        14.66429
     2008.34496       -16.27758        14.71330
     2008.34770        -9.60587        14.85788
     2008.35044        -8.11317        14.63733
     2008.35318       -10.65146        14.58587
     2008.35592       -11.61075        14.63243
     2008.35865       -10.81504        14.61283
     2008.36139        -4.89434        14.72065
     2008.36413       -10.79363        14.64959
     2008.36687        -8.64592        14.55646
     2008.36961       -23.73022        14.85543
     2008.37234       -10.56951        14.58342
     2008.37508       -12.53880        14.53931
     2008.37782        -9.68210        14.51970
     2008.38056        -7.08739        14.34816
     2008.38329        -4.96568        14.52461
     2008.38603        -6.95398        14.57362
     2008.38877       -11.56827        14.89464
     2008.39151        -9.08556        14.88239
     2008.39425       -23.29785        14.60302
     2008.39698       -11.89815        14.60793
     2008.39972        -2.52044        14.50500
     2008.40246        -5.60473        14.58097
     2008.40520       -11.37403        14.65939
     2008.40794        -8.87532        14.60793
     2008.41067        -5.55761        14.49275
     2008.41341        -5.08591        14.67409
     2008.41615        -9.93220        14.54176
     2008.41889        -7.43549        14.62263
     2008.42162        -6.69179        14.76231
     2008.42436        -6.50308        14.46089
     2008.42710        -8.47037        14.46089
     2008.42984        -8.22566        14.71085
     2008.43258        -3.68496        14.76966
     2008.43531        -9.04725        14.75006
     2008.43805        -4.85454        14.67164
     2008.44079       -12.08884        14.55891
     2008.44353        -8.03413        14.42903
     2008.44626        -6.26242        14.64959
     2008.44900        -8.19272        14.44864
     2008.45174        -6.95001        14.64713
     2008.45448        -3.31830        14.61283
     2008.45722        -6.55560        14.47069
     2008.45995        -4.03989        14.40208
     2008.46269        -9.33718        14.38492
     2008.46543        -6.02447        14.48295
     2008.46817        -5.93977        14.31631
     2008.47091       -11.98606        14.58097
     2008.47364        -2.51235        14.51480
     2008.47638        -3.05965        14.43148
     2008.47912        -5.22594        14.35552
     2008.48186        -6.83123        14.38737
     2008.48459        -7.24553        14.63978
     2008.48733        -4.42882        14.46089
     2008.49007        -3.32411        14.80887
     2008.49281        -9.39441        14.44864
     2008.49555       -12.51570        14.31876
     2008.49828       -10.07499        14.42658
     2008.50102        -5.62528        14.32121
     2008.50376        -4.79658        14.36287
     2008.50650        -5.59787        14.47804
     2008.50924        -4.69016        14.39718
     2008.51197         1.55054        14.52461
     2008.51471        -3.32775        14.63733
     2008.51745        -1.48604        14.34081
     2008.52019         0.77166        14.61283
     2008.52292        -4.94863        14.67654
     2008.52566         2.10008        14.77456
     2008.52840         8.78078        14.85543
     2008.53114         2.25249        14.80152
     2008.53388         4.23620        14.90200
     2008.53661        -2.32809        15.05393
     2008.53935         1.59561        14.56381
     2008.54209        -3.45868        14.45354
     2008.54483         1.66103        15.03433
     2008.54757         3.48373        14.87749
     2008.55030         4.18644        14.32121
     2008.55304         1.36715        14.61038
     2008.55578         1.76585        14.37757
     2008.55852         3.30856        14.62508
     2008.56125         0.26127        14.39718
     2008.56399         0.37997        14.38002
     2008.56673         4.92968        14.42658
     2008.56947         3.25739        14.42168
     2008.57221         5.67010        14.71085
     2008.57494         0.41880        14.96326
     2008.57768         3.60151        14.81622
     2008.58042        10.02322        14.34816
     2008.58316         6.53192        14.33101
     2008.58590         5.89163        14.47559
     2008.58863         3.46134        14.74026
     2008.59137        -1.92496        14.24034
     2008.59411         2.09375        14.27710
     2008.59685         4.88946        14.76966
     2008.59958         9.06816        15.07599
     2008.60232         7.36287        15.16421
     2008.60506         0.45858        14.55156
     2008.60780         0.84028        14.49765
     2008.61054         1.38999        14.56872
     2008.61327         1.59070        14.60302
     2008.61601         9.27941        14.76476
     2008.61875         2.09111        14.78192
     2008.62149        10.75382        14.98286
     2008.62423         2.76553        14.93630
     2008.62696         2.35223        14.68879
     2008.62970         9.15194        14.80887
     2008.63244         8.28165        14.75006
     2008.63518         8.53835        14.55401
     2008.63791         3.77206        14.69615
     2008.64065         5.47877        14.66674
     2008.64339         2.91147        14.60793
     2008.64613        13.70518        15.00737
     2008.64887         8.83989        14.82358
     2008.65160         2.73660        14.63978
     2008.65434         5.18130        15.07354
     2008.65708         6.53601        14.97061
     2008.65982         1.05372        14.80152
     2008.66256        13.05542        14.86524
     2008.66529         6.66313        14.86279
     2008.66803        -0.04916        14.92160
     2008.67077         0.85754        14.80642
     2008.67351         1.52925        14.82603
     2008.67624         2.25296        15.78666
     2008.67898         8.56966        14.78437
     2008.68172         4.13937        14.78927
     2008.68446         8.38808        14.88974
     2008.68720         3.59979        14.79907
     2008.68993         5.95949        14.94366
     2008.69267        -1.10180        15.13480
     2008.69541        11.85991        14.70840
     2008.69815        12.70161        14.82358
     2008.70089         5.55432        14.74271
     2008.70362        -0.22197        14.84808
     2008.70636         3.38473        14.71820
     2008.70910         9.64244        14.88974
     2008.71184         1.81315        15.18626
     2008.71457         8.81385        14.65449
     2008.71731         5.73556        14.64223
     2008.72005         6.13027        14.62018
     2008.72279         4.24198        14.47804
     2008.72553        -1.78932        14.70595
     2008.72826         3.44139        14.79417
     2008.73100         5.42110        14.63733
     2008.73374        -0.99820        14.71085
     2008.73648         3.64951        14.56627
     2008.73921         4.10222        14.46089
     2008.74469         3.72563        14.75496
     2008.74743         3.28134        14.85298
     2008.75017         6.15904        14.61038
     2008.75290         9.63875        14.52706
     2008.75564         7.32746        14.66184
     2008.75838         5.14017        14.69860
     2008.76112         6.03287        14.70350
     2008.76386         3.06258        14.64468
     2008.76659        -0.60171        14.65449
     2008.76933         1.83699        14.64223
     2008.77207         3.92670        14.32121
     2008.77481        -2.05059        14.34081
     2008.77754        -6.59089        14.34571
     2008.78028        -7.51818        14.29670
     2008.78302        -5.51847        14.38737
     2008.78576        -2.47377        14.27465
     2008.78850        -0.69606        14.45109
     2008.79123         6.39465        14.71085
     2008.79397        -5.97964        14.30650
     2008.79671        -1.75094        14.32856
     2008.79945         3.59977        14.28445
     2008.80219         7.91948        14.20358
     2008.80492        -2.00182        14.30405
     2008.80766         0.50889        14.31876
     2008.81040         2.16360        14.32121
     2008.81314         1.89930        14.25749
     2008.81587         1.36201        14.13251
     2008.81861        -1.88128        14.20848
     2008.82135        -1.85958        14.24769
     2008.82409         0.16713        14.60547
     2008.82683         2.40984        14.66919
     2008.82956         2.50755        14.27710
     2008.83230        -5.35175        14.46579
     2008.83504        -0.08404        14.71085
     2008.83778         3.33167        14.67899
     2008.84052        -7.24763        14.78682
     2008.84325        -0.04992        14.51970
     2008.84599        -1.06921        14.57607
     2008.84873        -9.10551        14.60057
     2008.85147        -4.52380        14.46579
     2008.85420        -5.32809        14.55646
     2008.85694         2.45161        14.61038
     2008.85968        -0.03068        14.25994
     2008.86242        -4.04197        14.24279
     2008.86516        -3.13726        14.51480
     2008.86789        -1.11856        14.50745
     2008.87063        -6.93085        14.87749
     2008.87337        -6.01414        14.46334
     2008.87611        -1.73444        14.34571
     2008.87885        -4.49673        14.29915
     2008.88158        -6.04802        14.64223
     2008.88432        -5.28632        14.65939
     2008.88706        -2.66161        14.57852
     2008.88980        -5.74090        14.78437
     2008.89253         1.59180        14.62508
     2008.89527        -4.81049        14.78437
     2008.89801        -1.56778        14.95101
     2008.90075        -2.36507        14.72800
     2008.90349        -3.95637        14.56136
     2008.90622        -6.01766        14.59567
     2008.90896        -1.18495        14.56627
     2008.91170       -25.82725        14.65204
     2008.91444         1.56546        14.65694
     2008.91718         0.98617        14.44374
     2008.91991         3.54987        14.79417
     2008.92265         2.04758        14.53196
     2008.92539        -1.60071        14.57362
     2008.92813         2.46799        14.64959
     2008.93086        -3.57330        14.49765
     2008.93360        -3.64359        14.53196
     2008.93634        -1.37388        14.56381
     2008.93908        -7.51018        14.49765
     2008.94182        -8.80147        14.33591
     2008.94455        -4.52476        14.61773
     2008.94729        -2.18206        14.37512
     2008.95003        -1.56135        14.33591
     2008.95277        -2.63664        14.19133
     2008.95551         3.55206        14.10556
     2008.95824        -7.24923        14.30895
     2008.96098        -3.00052        14.57852
     2008.96372        -2.67082        14.17417
     2008.96646         0.70889        14.73536
     2008.96919        -5.69440        14.25014
     2008.97193         2.71531        14.38492
     2008.97467         1.91301        14.35797
     2008.97741        -0.13728        14.50745
     2008.98015         2.58843        14.34326
     2008.98288         6.50613        14.62508
     2008.98562        -1.83616        14.37512
     2008.98836        -2.05145        14.38737
     2008.99110       -11.06875        14.50010
     2008.99384        -7.15104        14.50745
     2008.99657        -2.09333        14.37267
     2008.99931        -5.44663        14.41433
     2009.00479        -3.97121        14.36532
     2009.00752        -2.81850        14.19133
     2009.01026        -4.79980        14.15702
     2009.01300         0.59191        14.33101
     2009.01574        -3.50138        14.50990
     2009.01848        -7.00068        14.32121
     2009.02121        -6.77097        14.88974
     2009.02395        -5.24326        14.63488
     2009.02669       -17.96456        14.28935
     2009.02943       -15.62885        14.35797
     2009.03216       -18.61714        14.24769
     2009.03490       -15.04444        14.26974
     2009.03764       -12.48673        14.30650
     2009.04038       -12.87402        14.32856
     2009.04312       -10.50231        14.30650
     2009.04585       -10.57061        14.31631
     2009.04859        -8.49690        14.16437
     2009.05133        -7.92819        14.20358
     2009.05407        -9.88049        14.19133
     2009.05681        -7.87778        14.24034
     2009.05954       -15.94307        14.32121
     2009.06228       -12.28137        14.41923
     2009.06502       -10.15166        14.35797
     2009.06776       -10.78695        14.28935
     2009.07049       -10.28425        14.41188
     2009.07323        -9.87954        14.28445
     2009.07597       -11.99583        14.27465
     2009.07871       -12.68612        14.16437
     2009.08145        -9.60942        14.15702
     2009.08418        -5.40471        14.05409
     2009.08692        -8.13800        14.07860
     2009.08966       -11.33230        14.28935
     2009.09240        -7.65659        14.20113
     2009.09514        -3.30988        14.16927
     2009.09787        -0.39618        14.12026
     2009.10061        -0.62047        14.10311
     2009.10335        -9.16376        14.22073
     2009.10609        -2.44006        14.36042
     2009.10882        -4.79535        14.22318
     2009.11156         1.12036        14.09820
     2009.11430        -1.43494        14.37757
     2009.11704        -6.36023        14.48050
     2009.11978         1.18148        14.28690
     2009.12251        -0.35981        14.26974
     2009.14715        85.04755        14.93385
     2009.14989        85.41125        15.17156
     2009.15263        64.73096        14.63488
     2009.15537        76.22667        14.77211
     2009.15811        79.96038        14.76476
     2009.16084        78.98308        14.36287
     2009.16358        95.43379        14.31386
     2009.19370       107.98057        14.83338
     2009.19644        95.38227        14.29425
     2009.20191        97.28869        14.34326
     2009.20739       107.84310        14.81868
     2009.21013       105.08981        14.49275
     2009.21286        93.20151        14.42903
     2009.21560        79.56222        14.41678
     2009.21834        57.51493        14.17172
     2009.22108        96.95763        14.27710
     2009.22381        92.41534        14.15702
     2009.22655        82.90105        14.40453
     2009.22929        92.51076        14.37022
     2009.25393        73.93412        14.80397
     2009.25667        57.38282        14.50010
     2009.27857        66.86048        14.82113
     2009.28952       -26.60769        14.46579
     2009.29226       -18.51499        14.46824
     2009.29500       -10.08528        14.44864
     2009.29774       -11.40757        14.38247
     2009.30047       -14.57186        14.44129
     2009.30321       -11.84816        14.74761
     2009.30595        -6.26645        14.72310
     2009.30869        -6.65974        14.58097
     2009.31143       -13.46204        14.56872
     2009.31416       -14.19433        14.53441
     2009.31690       -14.92262        14.60302
     2009.31964       -10.32092        14.55891
     2009.32238       -12.02421        14.58097
     2009.32512       -12.12150        14.69615
     2009.32785       -13.03380        14.76966
     2009.33059       -20.73709        14.59567
     2009.33333       -10.26238        14.57852
     2009.33607       -13.05667        14.66184
     2009.33880        -9.10497        14.42168
     2009.34154       -12.73026        14.37757
     2009.34428        -2.65755        15.22302
     2009.34702       -10.14585        14.72310
     2009.34976       -11.39714        14.47559
     2009.35249       -15.34143        14.70595
     2009.35523       -13.99773        14.42168
     2009.35797       -15.54002        14.61528
     2009.36071       -18.15031        14.91915
     2009.36344       -15.43161        14.61773
     2009.36618       -12.07690        14.64713
     2009.36892       -14.88219        14.75741
     2009.37166       -12.28848        14.66919
     2009.37440       -18.95578        14.66919
     2009.37713       -20.35507        14.59322
     2009.37987       -12.92036        15.00002
     2009.38261        -9.10866        14.51480
     2009.38535        -7.53795        14.59077
     2009.38809       -12.26924        14.52706
     2009.39082        -6.72054        14.71575
     2009.39356       -12.85283        14.67409
     2009.39630        -8.29012        14.72800
     2009.39904       -13.69542        14.60302
     2009.40177       -10.10071        14.63243
     2009.40451        -7.80500        14.80642
     2009.40725        -6.69129        14.82358
     2009.40999        -7.09759        14.71575
     2009.41273       -11.27288        14.75741
     2009.41546        -3.83717        14.66429
     2009.41820        -7.80347        14.85543
     2009.42094       -15.25576        15.09804
     2009.42368       -21.13705        14.75251
     2009.42642       -11.53135        14.68389
     2009.42915       -14.91764        14.91180
     2009.43189       -12.46593        14.63733
     2009.43463        -7.05223        14.73781
     2009.43737        -5.44052        14.82113
     2009.44010       -13.60781        14.71330
     2009.44284       -11.30910        14.57362
     2009.44558       -16.24640        14.62753
     2009.44832        -5.76669        14.55891
     2009.45106        -6.88798        14.76721
     2009.45379        -8.51928        14.75986
     2009.45653        -7.95657        14.66429
     2009.45927        -8.76786        14.58587
     2009.46201       -15.07416        14.78437
     2009.46475        -2.42345        14.78682
     2009.46748        -4.58974        14.93630
     2009.47022        -9.26504        14.83338
     2009.47296        -7.09433        14.45109
     2009.47570        -2.73462        14.57852
     2009.47843        -5.54991        14.53931
     2009.48117        -8.78221        14.68879
     2009.48391        -6.93850        15.04658
     2009.48665        -9.51079        14.88729
     2009.48939        -4.79609        14.73045
     2009.49212         0.77862        14.78437
     2009.49486        -3.97367        14.98777
     2009.49760         2.09603        14.91180
     2009.50034        -6.43826        14.69370
     2009.50308        -4.53555        14.72800
     2009.50581        -7.02785        14.64223
     2009.50855        -7.33814        14.62263
     2009.51129        -4.01143        14.70595
     2009.51403        -0.42772        14.57607
     2009.51676        -0.78002        14.63243
     2009.51950        -2.20031        14.57362
     2009.52224        -6.12460        14.49030
     2009.52498        -7.23490        14.68879
     2009.52772        -7.36819        14.59077
     2009.53045        -8.64248        14.58587
     2009.53319        -2.20778        14.50745
     2009.53593        -8.67007        14.44619
     2009.53867        -9.66936        14.53686
     2009.54141        -2.76866        14.60547
     2009.54414        -0.89895        14.57607
     2009.54688        -6.32324        14.66184
     2009.54962        -3.22954        14.44619
     2009.55236        -1.26283        14.58097
     2009.55509        -0.67212        14.64959
     2009.55783        -0.44141        14.60547
     2009.56057        -2.84871        14.78192
     2009.56331        -5.98100        14.94856
     2009.56605        -6.47229        14.95591
     2009.56878         2.68041        14.69860
     2009.57152        -3.62188        14.92650
     2009.57426        -6.36917        15.00492
     2009.57700         0.73853        15.50974
     2009.57974        -1.16776        14.65939
     2009.58247        -1.24005        14.77456
     2009.58521        -3.24935        14.95346
     2009.58795        -1.39864        14.87749
     2009.59069        -4.55593        14.74026
     2009.59342        -2.17622        15.08579
     2009.59616         1.96848        14.70105
     2009.59890        -2.05381        14.82113
     2009.60164        -5.39110        14.83583
     2009.60438        -6.37040        14.70350
     2009.60711        -8.28869        14.84318
     2009.60985         2.51002        14.69125
     2009.61259        -0.41128        14.66674
     2009.61533        -6.93857        14.87994
     2009.61807        -1.30286        14.83093
     2009.62080         2.54684        14.76721
     2009.62354         0.85255        14.66674
     2009.62628         0.39726        14.66674
     2009.62902        -0.80303        14.81868
     2009.63175        -3.03433        14.81132
     2009.63449        -5.76262        14.83093
     2009.63723        -4.77391        15.00002
     2009.63997        -1.28421        14.80642
     2009.64271        -5.01750        14.87504
     2009.64544         0.95421        14.77456
     2009.64818        -3.34109        14.94366
     2009.65092        -2.45938        14.74516
     2009.65366        -6.81467        14.81622
     2009.65639        -2.27697        14.61038
     2009.65913        -1.96326        14.52461
     2009.66187         4.91445        14.68634
     2009.66461        -0.69084        14.63733
     2009.66735         1.11286        14.65449
     2009.67008         1.05157        14.81377
     2009.67282         4.22928        14.48785
     2009.67556        -0.04102        14.53931
     2009.67830         1.47669        15.00982
     2009.68104        -4.48860        15.17156
     2009.68377        -8.07990        14.56381
     2009.68651        10.08781        14.61773
     2009.68925         0.61252        14.57362
     2009.69199         0.87722        14.67899
     2009.69472        -2.25407        14.61038
     2009.69746        -2.93136        14.62998
     2009.70020         4.08835        14.76966
     2009.70294         6.60905        14.83338
     2009.70568        -3.65424        14.64468
     2009.70841        -0.40153        14.70105
     2009.71115        -2.87783        14.74271
     2009.71389         6.38588        15.10294
     2009.71663         0.10559        14.65694
     2009.71937         1.99429        14.66919
     2009.72210        -7.28300        14.72310
     2009.72484        -2.27929        14.98532
     2009.72758        -5.27159        14.79417
     2009.73032         0.97712        14.59077
     2009.73305         4.77283        14.97796
     2009.73579         2.91654        14.56381
     2009.73853        -1.87676        14.68879
     2009.74127        -3.27305        14.89709
     2009.74401         8.85266        15.01227
     2009.74674         2.78736        14.59567
     2009.74948        -1.10693        14.56381
     2009.75222        -8.02922        14.51970
     2009.75496         0.18548        14.75496
     2009.75770        -0.17681        14.77947
     2009.76043        -5.57910        14.51725
     2009.76317        -5.84840        14.57117
     2009.76591        -2.59469        14.63978
     2009.76865        -5.24198        14.80887
     2009.77138        -0.67627        14.66429
     2009.77412         4.78043        14.51480
     2009.77686         0.06114        14.36287
     2009.77960         6.10185        14.39963
     2009.78234         8.39655        14.90200
     2009.78507         9.37126        14.90690
     2009.78781        -2.01303        15.04168
     2009.79055        -1.15233        14.87994
     2009.79329        -3.51262        14.93385
     2009.79603        -1.96491        14.94120
     2009.79876        -6.88821        15.06863
     2009.80150        -1.64250        15.09804
     2009.80424         1.94521        14.99267
     2009.80698        -1.25108        14.84318
     2009.80971        -1.54438        14.79907
     2009.81245         5.40433        14.94856
     2009.81519         1.79704        15.10539
     2009.81793        -0.52026        15.05883
     2009.82067         3.53745        14.80397
     2009.82340        -0.21684        14.76966
     2009.82614         2.05486        14.85298
     2009.82888        -5.11743        15.11765
     2009.83162        -1.10972        14.93140
     2009.83436        -4.42702        15.05148
     2009.83709        -3.14331        15.14950
     2009.83983         0.09140        15.09314
     2009.84257         3.82211        15.14215
     2009.84531         2.71081        15.41907
     2009.84804         5.79252        15.54650
     2009.85078        -0.97077        15.45093
     2009.85352         5.01893        15.38231
     2009.85626        -3.11736        15.16421
     2009.85900       -10.93365        15.48278
     2009.86173        -7.98395        15.52689
     2009.86447        -3.12624        15.94594
     2009.86721        -0.91053        15.69353
     2009.86995         4.11117        15.23773
     2009.87269         0.14188        15.16176
     2009.87542        -0.65941        15.13480
     2009.87816         6.27730        15.53915
     2009.88090       -19.71200        15.61021
     2009.88364         2.90871        15.05148
     2009.88637         5.75542        15.20832
     2009.88911         9.42712        15.06863
     2009.89185         2.36183        15.20342
     2009.89459        -0.99446        15.01717
     2009.89733        -9.36476        14.97061
     2009.90006        -3.10205        14.87504
     2009.90280         0.88066        14.71085
     2009.90554        -2.41164        14.91180
     2009.90828        -5.83193        14.90200
     2009.91102        -9.47422        14.60793
     2009.91375        -1.86851        14.67164
     2009.91649         1.15719        14.72065
     2009.91923        -1.06410        14.49275
     2009.92197        -6.35239        14.62508
     2009.92470        -5.79769        14.54421
     2009.92744        -7.71698        14.59567
     2009.93018        -4.68427        14.58342
     2009.93292        -3.78957        14.63488
     2009.93566        -8.82186        14.70840
     2009.93839        -4.24715        15.06863
     2009.94113         0.56855        14.69370
     2009.94387        -8.26974        15.00737
     2009.94661       -25.70203        15.33330
     2009.94935       -26.81732        15.20342
     2009.95208        -8.25662        14.86279
     2009.95482       -10.19391        14.65939
     2009.95756       -20.78720        14.95836
     2009.96030        -6.07750        15.00002
     2009.96303       -12.98979        14.93630
     2009.96577       -10.60708        14.77702
     2009.96851        -2.91038        14.91915
     2009.97125         3.09433        14.81377
     2009.97399        -1.11296        14.89954
     2009.97672       -15.72726        14.57607
     2009.97946       -14.02655        14.52461
     2009.98220       -10.55384        14.40453
     2009.98494        -5.01713        14.30650
     2009.98767       -12.77143        14.52461
     2009.99041        -0.94272        14.43638
     2009.99315        -4.11001        14.52215
     2009.99589        -9.87331        14.64223
     2009.99863       -18.53060        14.61528
     2010.00410       -34.36319        14.78192
     2010.00684       -11.48148        14.69125
     2010.00958        -9.43477        14.70350
     2010.01232       -13.17007        14.61528
     2010.01505       -13.61036        14.62018
     2010.01779        -3.75465        14.75006
     2010.02053        -9.00194        14.84318
     2010.02327        -7.77724        14.75986
     2010.02600        -4.87553        14.46089
     2010.02874        -5.90882        14.47314
     2010.03148        -2.13712        14.59077
     2010.03422        -7.64241        14.90935
     2010.03696       -11.09970        15.34555
     2010.03969        -8.06400        14.81132
     2010.04243        -6.38329        14.44619
     2010.04517       -13.32758        14.50990
     2010.04791         8.86812        14.78682
     2010.22214       171.99461        30.48035
     2010.51334        -1.28270        14.29670
     2010.51608        -0.10999        14.26729
     2010.51882         0.70171        14.39472
     2010.52156         1.95042        14.41923
     2010.52429         3.81913        14.22563
     2010.52703        -1.26617        14.32611
     2010.52977         3.62354        14.23789
     2010.53251        -6.14575        14.30160
     2010.53525         0.49496        14.83093
     2010.53798        -5.95034        13.97567
     2010.54072       -18.14063        14.44619
     2010.54346       -11.91592        14.10556
     2010.54620        -6.26522        14.04919
     2010.54893        -7.52551        13.88990
     2010.55167        -6.99880        14.07370
     2010.55441        -9.34710        14.11291
     2010.55715       -13.43139        14.15947
     2010.55989       -10.18468        14.15702
     2010.56262       -10.58098        14.28200
     2010.56536       -11.29027        14.26974
     2010.56810        -1.61056        14.29425
     2010.57084         2.58615        14.44129
     2010.57357        -5.37415        14.30650
     2010.57631        -9.81844        14.37267
     2010.57905        -6.82373        13.95117
     2010.58179        -9.13503        13.95852
     2010.58453        -6.20632        14.04184
     2010.58726       -11.45161        14.26239
     2010.59000        -6.67991        14.31876
     2010.59274        -5.33920        13.94872
     2010.59548        -8.70549        14.24034
     2010.59822        -2.39079        14.21338
     2010.60095         0.45492        14.15702
     2010.60369        -7.52337        13.95362
     2010.60643        -3.99666        14.06635
     2010.60917        -1.38796        14.07370
     2010.61190        -4.56625        14.05164
     2010.61464        -4.65554        13.95852
     2010.61738        -1.51984        14.02714
     2010.62012        -4.14713        14.11291
     2010.62286        -2.72742        13.95362
     2010.62559        -1.54572        13.98303
     2010.62833        -6.05601        14.08350
     2010.63107        -2.11130        14.33836
     2010.63381         0.55740        13.92911
     2010.63655         2.61911        14.02959
     2010.63928         2.35682        14.12026
     2010.64202        -2.69947        14.04674
     2010.64476        -6.45677        14.29180
     2010.64750        -1.07206        14.01488
     2010.65023        -5.05635        14.32366
     2010.65297         0.75835        14.61283
     2010.65571        -5.65394        14.07370
     2010.65845        -7.06723        13.91196
     2010.66119        -1.32953        14.14722
     2010.66392        -0.21182        14.10311
     2010.66666        -0.76211        13.85070
     2010.66940         0.56959        13.88990
     2010.67214         0.75430        13.86785
     2010.67488         1.62201        13.83844
     2010.67761         4.90672        13.79433
     2010.68035        -0.61658        13.77718
     2010.68309         6.76313        13.87275
     2010.68583         5.44884        13.94382
     2010.68856       -10.03446        13.87765
     2010.69130        -0.63475        13.92176
     2010.69404        -5.74604        14.13251
     2010.69678        -4.52334        13.83599
     2010.69952        -0.88563        13.91196
     2010.70225        -1.82392        13.82374
     2010.70499         2.97678        13.85560
     2010.70773        -0.01251        13.92176
     2010.71047         2.02520        13.79188
     2010.71321        -2.74709        13.83844
     2010.71594         7.07361        13.99773
     2010.71868         0.35432        13.81884
     2010.72142         5.44103        14.18643
     2010.72416        -1.40427        14.15457
     2010.72689        -2.04656        14.01488
     2010.72963         1.59615        13.67180
     2010.73237         1.19585        13.71101
     2010.73511        -1.78344        13.75267
     2010.73785        -1.62273        14.15457
     2010.74058         4.70397        14.03694
     2010.74332         4.12968        13.73062
     2010.74606         5.21439        13.89726
     2010.74880        -1.72290        14.07615
     2010.75154         0.46080        13.83109
     2010.75427         0.80751        14.30650
     2010.75701         0.77022        14.06880
     2010.75975       -12.25608        13.92911
     2010.76249         1.16863        14.13251
     2010.76522        -3.66266        13.90216
     2010.76796        -5.05896        14.00018
     2010.77070         1.03675        13.79678
     2010.77344         0.99246        13.91931
     2010.77618        -3.57684        13.98548
     2010.77891        -4.91713        13.84089
     2010.78165        -0.96542        13.81639
     2010.78439        -0.10471        13.90951
     2010.78713         5.14599        14.01488
     2010.78987         4.56770        13.88990
     2010.79260        -0.04159        13.76492
     2010.79534        -7.61989        13.83109
     2010.79808        -8.05218        13.72326
     2010.80082         2.92553        13.57133
     2010.80355        -3.55977        13.76002
     2010.80629         1.76694        13.82374
     2010.80903        -6.40735        13.79678
     2010.81177        -5.02765        13.80904
     2010.81451         3.58906        13.76738
     2010.81724         1.29577        13.81639
     2010.81998        -1.67352        13.80904
     2010.82272        -0.68482        14.19378
     2010.82546        -3.82011        13.94627
     2010.82820        -5.46940        13.88255
     2010.83105         2.83608        15.15686
     2010.83367        -5.41299        14.29180
     2010.83641        -8.23528        13.91196
     2010.83915        -3.79558        13.89481
     2010.84188        -5.74787        13.84824
     2010.84462         4.37684        13.83354
     2010.84736        -1.15146        13.85070
     2010.85010         6.71625        13.96587
     2010.85284        -2.45904        14.00508
     2010.85557        -2.04333        13.97077
     2010.85831        -0.86263        13.81149
     2010.86105       -12.61192        13.69386
     2010.86379       -12.07221        13.75267
     2010.86653       -15.73251        13.89236
     2010.86926       -18.31380        13.88745
     2010.87200       -25.91909        13.87275
     2010.87474        -5.56939        14.01243
     2010.87748        -8.84968        13.95117
     2010.88021        -0.21997        13.73062
     2010.88295        -0.97427        13.89726
     2010.88569        -4.75256        13.82619
     2010.88843        -9.85385        14.38247
     2010.89117        -1.33014        14.32856
     2010.89390         2.78456        13.86785
     2010.89664        -5.51173        13.81884
     2010.89938        -7.42702        13.85560
     2010.90212        -9.50732        13.85070
     2010.90485        -6.75061        13.80904
     2010.90759         1.80810        13.77228
     2010.91033        -1.90820        13.85070
     2010.91307        -8.06349        13.82129
     2010.91581        -3.84378        13.79923
     2010.91854        -1.46908        13.81884
     2010.92128       -17.91837        13.78698
     2010.92402       -10.70866        13.95362
     2010.92676        -3.89395        13.91686
     2010.92950        -5.37525        14.00753
     2010.93223        -6.43054        14.09085
     2010.93497        -0.80383        14.17172
     2010.93771        -4.92113        14.02224
     2010.94045        -3.07042        14.30160
     2010.94318        -5.00371        13.88255
     2010.94592        -9.77601        13.98058
     2010.94866        -4.20530        14.01733
     2010.95140        -5.26759        14.38492
     2010.95414        -9.66389        14.04674
     2010.95687        -7.98718        13.71101
     2010.95961       -12.93447        13.99283
     2010.96235        -6.39776        13.83844
     2010.96509         4.75194        13.97322
     2010.96783        -1.56235        13.95362
     2010.97056       -12.20864        13.83844
     2010.97330         4.69006        13.93156
     2010.97604        17.17877        13.96832
     2010.97878         9.08148        14.04429
     2010.98151        10.53018        13.93892
     2010.98425        32.60089        14.16927
     2010.98699        27.90260        13.96587
     2010.98973        28.89430        14.06635
     2011.01984        29.13308        13.98793
     2011.02258        17.01979        13.82619
     2011.02532        16.50249        14.12516
     2011.02806        15.74820        14.53931
     2011.03080        27.17891        13.86785
     2011.03353        32.56861        14.50255
     2011.04449        33.56644        14.04184
     2011.04722       -18.75385        14.18643
     2011.04996       -21.74114        13.98548
     2011.05270       -19.10344        13.77473
     2011.05544       -11.59073        13.85805
     2011.05817       -14.13202        13.88255
     2011.06091        -7.32932        13.72572
     2011.06365        -9.31361        13.70856
     2011.06639       -10.51890        13.74777
     2011.06913       -11.80020        14.59077
     2011.07186       -14.73149        13.81884
     2011.07460       -16.78378        14.11046
     2011.07734       -13.32907        14.05899
     2011.08008       -12.46437        14.03939
     2011.08282       -19.98966        14.12516
     2011.08555       -20.33095        14.24769
     2011.08829       -18.51325        14.30895
     2011.09103       -24.57254        14.25259
     2011.09377       -17.90783        14.20848
     2011.09650       -11.84913        14.12516
     2011.09924       -18.13442        14.22318
     2011.10198       -12.05971        14.37267
     2011.10472       -17.69301        14.19378
     2011.10742       -13.77053        14.26484
     2011.47809         4.14312        29.84810
     2011.47980        -7.17816        32.92603
     2011.48130         1.80907        55.54491
     2011.49181       -15.54312        30.11521
     2011.49349       -18.53862        14.71330
     2011.49623        -7.64092        14.69370
     2011.49897        -4.84021        14.76966
     2011.50171       -11.08350        14.81132
     2011.50444       -12.21280        14.57852
     2011.50718        -7.82909        14.64713
     2011.50992        -8.27638        14.62263
     2011.51266       -10.68167        14.70840
     2011.51540       -11.02597        14.71330
     2011.51813        -6.09126        14.64959
     2011.52087        -3.25255        14.51235
     2011.52361        -8.89785        14.50745
     2011.52635       -10.83814        14.45354
     2011.52908         0.93957        14.55891
     2011.53182        -7.88973        14.49275
     2011.53456        -8.02102        14.54666
     2011.53730       -10.91231        14.51970
     2011.54004        -9.99961        14.39472
     2011.54277       -16.85990        14.41678
     2011.54551        -3.05919        14.61283
     2011.54825        -8.68848        14.53931
     2011.55099        -5.31178        14.56381
     2011.55373       -14.53807        14.55156
     2011.55646        -5.47336        14.54176
     2011.55920        -9.07266        14.60302
     2011.56194        -5.45095        14.44374
     2011.56468        -0.11924        14.52706
     2011.56741         0.59446        14.57607
     2011.57015        -0.57983        14.59567
     2011.57289        -5.64112        14.45599
     2011.57563        -0.74042        14.48295
     2011.57837        -6.24371        14.74271
     2011.58110        -7.43500        14.51725
     2011.58384       -10.66729        14.43148
     2011.58658        -5.33959        14.69615
     2011.58932        -8.07088        14.46824
     2011.59206        -6.32917        14.48785
     2011.59479        -6.24847        14.51970
     2011.59753         4.07624        14.60793
     2011.60027         0.66895        14.44864
     2011.60301        -4.55335        14.48295
     2011.60574        -7.54764        14.75251
     2011.60848         0.53507        15.37741
     2011.61122         2.56377        15.41417
     2011.61396        -6.94152        14.86279
     2011.61670        -5.85381        14.90445
     2011.61943        -0.59610        14.70350
     2011.62217        -2.65440        14.65939
     2011.62491        -1.84069        14.58342
     2011.62765        -2.70698        14.51480
     2011.63039         5.27572        14.54666
     2011.63312         3.40743        14.53931
     2011.63586        -1.08986        14.55156
     2011.63860         2.43784        14.52215
     2011.64134         0.53155        14.91915
     2011.64407        -2.85574        14.64713
     2011.64681         1.20096        14.52951
     2011.64955         4.13767        14.97061
     2011.65229         0.98838        14.68879
     2011.65503        -2.97591        14.67164
     2011.65776         1.23579        14.81622
     2011.66050         0.56750        14.94856
     2011.66324         5.16421        14.90935
     2011.66598         1.61291        14.89709
     2011.66872         5.11162        14.71330
     2011.67145         8.08333        14.44864
     2011.67419         3.45903        14.32856
     2011.67693         7.22174        14.39227
     2011.67967         2.66745        14.43393
     2011.68240         1.01315        14.59077
     2011.68514         7.01986        14.81377
     2011.68788         2.70657        14.78437
     2011.69062        -0.32972        14.62018
     2011.69336        -0.94302        14.70105
     2011.69609         3.00769        14.76966
     2011.69883         4.95640        14.64468
     2011.70157         2.57510        14.55891
     2011.70431         2.06681        14.54421
     2011.70705         1.44352        14.93140
     2011.70978         3.22922        14.58587
     2011.71252         3.78393        14.59567
     2011.71526        -1.58236        14.76231
     2011.71800        -3.05066        14.85788
     2011.72073         4.00005        14.44129
     2011.72347         3.80376        14.62508
     2011.72621         5.76747        14.49030
     2011.72895         6.50417        14.39963
     2011.73169         0.72688        14.61773
     2011.73442        -1.22241        14.47559
     2011.73716         4.25829        14.49765
     2011.73990         0.94100        14.60057
     2011.74264         3.14071        14.42413
     2011.74538         4.43241        14.78682
     2011.74811         3.08212        14.87504
     2011.75085         6.85083        14.97551
     2011.75359         3.38753        14.84318
     2011.75633         2.44424        14.71820
     2011.75906         4.75295        14.77702
     2011.76180        -5.02134        14.69370
     2011.76454        -0.49864        14.84318
     2011.76728        -4.70993        14.91180
     2011.77002        -6.80722        14.76721
     2011.77275        -0.31852        14.84073
     2011.77549        -9.57281        14.83828
     2011.77823        -7.62810        14.84808
     2011.78097        -3.19540        14.98777
     2011.78371        -8.58569        14.87504
     2011.78644        -3.11098        14.60793
     2011.78918        -7.82728        14.65694
     2011.79192       -11.68357        14.68144
     2011.79466        -3.37886        14.62753
     2011.79739        -8.70015        14.58587
     2011.80013         0.54555        14.52461
     2011.80287        -2.80874        14.50990
     2011.80561        -4.91703        14.45844
     2011.80835        -3.36533        14.48785
     2011.81108        -4.00062        14.58342
     2011.81382       -10.45291        14.55401
     2011.81656        -6.44321        14.54911
     2011.81930        -1.85950        14.41188
     2011.82203        -6.04279        14.47804
     2011.82477         0.89491        14.42413
     2011.82751        -7.39338        14.43638
     2011.83025         0.79833        14.63243
     2011.83299        -9.39596        14.34326
     2011.83572        -6.88926        14.32121
     2011.83846        -6.01055        14.45354
     2011.84120        -3.85084        14.29180
     2011.84394        -1.42114        14.25749
     2011.84668        -7.88243        14.28445
     2011.84941       -10.54672        14.39227
     2011.85215       -11.55602        14.36287
     2011.85489        -8.97131        14.52706
     2011.85763        -5.31960        14.43884
     2011.86036         0.62810        14.38002
     2011.86310         1.71181        14.27955
     2011.86584        -1.31348        14.47069
     2011.86858        -1.59977        14.31876
     2011.87132        -2.37407        14.31386
     2011.87405        -8.59036        14.22563
     2011.87679        -6.31965        14.41433
     2011.87953         3.30505        14.27710
     2011.88227         1.54176        14.39718
     2011.88501        -6.39953        14.33591
     2011.88774       -12.55983        14.32611
     2011.89048        -5.46912        14.44374
     2011.89322        -4.21341        14.69615
     2011.89596       -10.70071        14.46579
     2011.89869        -4.59500        14.63488
     2011.90143        -9.67229        14.49030
     2011.90417        -8.59258        14.25749
     2011.90691        -7.94188        14.33591
     2011.90965        -4.02117        14.34816
     2011.91238        -6.82346        14.84563
     2011.91512        -5.36876        14.38002
     2011.91786        -9.38605        14.99757
     2011.92060       -11.02234        15.11275
     2011.92334       -18.30664        14.56627
     2011.92607        -7.87593        14.63488
     2011.92881       -10.16722        14.65204
     2011.93155        -5.60552        14.67409
     2011.93429        -8.21681        14.52951
     2011.93702        -6.26110        14.56872
     2011.93976        -5.57039        14.51970
     2011.94250        -0.66369        14.62753
     2011.94524        -4.67598        14.60793
     2011.94798        -1.55627        14.61038
     2011.95071        -0.07657        14.25749
     2011.95345        -3.33286        14.58097
     2011.95619        -5.59415        14.67409
     2011.95893        -5.72445        14.25014
     2011.96167        -0.56374        14.21338
     2011.96440        -5.22903        14.45354
     2011.96714       -11.42933        14.20603
     2011.96988         0.35338        13.95117
     2011.97262        -3.28491        14.14231
     2011.97535        -7.68621        14.30650
     2011.97809        -7.68250        14.24034
     2011.98083        -4.41179        14.14231
     2011.98357        -0.64508        14.06145
     2011.98631        -5.03638        14.01488
     2011.98904        -2.94767        14.20113
     2011.99178        -0.96496        14.35306
     2011.99452        -1.29726        14.32121
     2011.99726        -3.63355        14.02469
     2012.00273         2.68086        14.05164
     2012.00547         1.93457        14.34081
     2012.00821        -3.08472        14.20113
     2012.01095        -2.48802        14.21583
     2012.01368         2.36869        13.99528
     2012.01642         4.01740        14.09085
     2012.01916        -8.44489        14.04674
     2012.02190         0.07381        14.13496
     2012.02464         2.11752        14.13986
     2012.02737        -1.09477        14.11781
     2012.03011         0.03393        14.00753
     2012.03285        -3.53736        14.00263
     2012.03559         0.02235        14.07370
     2012.03833        -1.40995        14.12026
     2012.04106         1.89776        14.06635
     2012.04380        -0.53053        14.34571
     2012.04654        -0.80183        14.10311
     2012.04928         5.08388        14.03449
     2012.05201        -0.66441        14.17907
     2012.05475         6.14630        14.39718
     2012.05749        -3.83400        14.55891
     2012.06023        -7.18929        14.59567
     2012.06297         0.11342        14.04919
     2012.06570        -9.29588        13.99528
     2012.06844        -8.35317        14.11781
     2012.07118        -5.56946        13.91196
     2012.07392        -4.55776        13.92176
     2012.07666        -6.47805        13.83599
     2012.07939        -0.28734        13.79678
     2012.08213        -1.97264        13.84579
     2012.08487        -0.95293        14.00018
     2012.08761       -11.77022        13.84334
     2012.09034        -5.27051        13.88500
     2012.09308        -5.36981        13.77473
     2012.09582        -3.33910        13.88990
     2012.09856        -1.65239        14.10801
     2012.10130        -6.97269        14.25994
     2012.10403        -9.62898        13.84089
     2012.10677        -8.73227        14.09330
     2012.10951        -0.09957        14.20358
     2012.11225        -1.85486        14.22563
     2012.11498        -5.43815        14.12271
     2012.11772       -13.27745        13.98058
     2012.12046        -0.28774        13.87030
     2012.12320        -5.18303        14.07860
     2012.12594        -6.57332        14.06635
     2012.12867        -8.82862        14.04429
     2012.13141       -12.08791        14.15702
     2012.13415        -0.23720        14.04674
     2012.13689        -5.24250        14.10065
     2012.13963        -1.58679        14.47314
     2012.14236        -4.73608        14.35797
     2012.14510        -2.83838        14.23054
     2012.14784       -13.17867        13.80658
     2012.15058        -2.87196        13.85805
     2012.15331        -8.58426        13.94872
     2012.15605        -1.34555        14.19133
     2012.15879       -14.71784        14.04674
     2012.16153        -1.32313        13.85560
     2012.16427        -7.23843        13.96587
     2012.16700        -8.00172        14.09820
     2012.16974       -14.17201        13.84334
     2012.17248       -11.18031        13.74777
     2012.17522        -7.77260        13.73062
     2012.17796        -2.70189        13.96342
     2012.18069        -9.26619        13.83599
     2012.18343        -8.08348        13.91196
     2012.18617        -6.28177        13.94382
     2012.18891        -6.34507        13.91196
     2012.19164         2.10764        13.93892
     2012.19438        -6.46065        13.92176
     2012.19712        -0.83694        13.94872
     2012.19986        -3.51924        14.14231
     2012.20260       -20.03553        14.04429
     2012.20533         5.74718        14.19133
     2012.20807        36.24488        14.34081
     2012.21081        50.81559        14.09330
     2012.21355        50.23030        14.32366
     2012.21629        70.02100        14.35797
     2012.21902        67.02171        14.09820
     2012.22176        34.89342        14.03449
     2012.22450        37.20212        14.10065
     2012.22724        30.43583        14.18152
     2012.22997        27.80754        14.13006
     2012.23271        25.39625        14.12026
     2012.23545        30.98995        14.07860
     2012.23819        71.91566        14.52215
     2012.24093        68.26937        14.44864
     2012.26283        89.16202        14.53441
     2012.26557        78.54173        14.54666
     2012.26830        71.98544        14.43393
     2012.27104        71.65114        14.83583
     2012.27378        51.73785        14.31140
     2012.27652        69.51556        14.01488
     2012.27926        98.49026        14.60057
     2012.31485        69.35645        14.33591
     2012.31759        52.31316        14.23299
     2012.32032        49.74587        14.35797
     2012.36961       -16.70041        14.05164
     2012.37234       -13.60070        13.82619
     2012.37508       -17.52499        14.09330
     2012.37782       -15.24029        14.49520
     2012.38056       -14.61358        14.27710
     2012.38329       -10.92487        14.26974
     2012.38603       -12.73517        14.24524
     2012.38877       -24.55346        14.20848
     2012.39151        -9.80275        14.20603
     2012.39425       -10.21305        14.22318
     2012.39698       -11.44434        14.20848
     2012.39972       -11.89463        13.91931
     2012.40246       -22.66593        13.96832
     2012.40520       -13.11522        13.88255
     2012.40794       -15.31451        13.85315
     2012.41067        -5.74180        13.92176
     2012.41341       -14.84310        13.91931
     2012.41615        -8.26539        14.07370
     2012.41889        -9.80468        14.28935
     2012.42162       -14.66598        13.92911
     2012.42436        -5.23627        13.97322
     2012.42710       -13.22756        14.02224
     2012.42984        -8.15686        13.88255
     2012.43258       -11.02415        13.89971
     2012.43531       -13.43544        13.90216
     2012.43805       -11.55474        13.87275
     2012.44079       -19.60703        13.79433
     2012.44353       -19.22432        13.86540
     2012.44626        -8.35561        13.96342
     2012.44900        -9.04891        14.03204
     2012.45174       -10.01420        14.02224
     2012.45448        -6.72649        13.94382
     2012.45722        -9.42579        13.81394
     2012.45995        -9.12908        14.07860
     2012.46269        -3.63937        14.01733
     2012.46543       -10.11267        14.10065
     2012.46817        -5.39696        13.81639
     2012.47091       -13.01125        13.85315
     2012.47364       -10.27155        13.94137
     2012.47638        -8.32884        14.14477
     2012.47912        -4.61513        14.04184
     2012.48186        -6.84743        13.86295
     2012.48459        -6.09072        14.07615
     2012.48733       -13.07901        13.81394
     2012.49007        -8.73830        13.90216
     2012.49281        -6.48160        13.93647
     2012.49555        -4.68989        13.91686
     2012.49828       -11.44718        13.92176
     2012.50102        -4.68148        13.96342
     2012.50376        -1.52877        14.06635
     2012.50650        -5.77906        13.87275
     2012.50924        -3.76936        14.27955
     2012.51197        -8.33165        14.02714
     2012.51471       -10.25894        13.76983
     2012.51745        -2.05224        13.85805
     2012.52019        -9.40453        13.73552
     2012.52292        -5.09082        13.86050
     2012.52566        -2.48311        13.83844
     2012.52840        -1.88641        13.73307
     2012.53114        -1.68470        13.75267
     2012.53388        -4.61199        13.79678
     2012.53661        -9.25529        14.00018
     2012.53935        -5.57458        13.87520
     2012.54209        -3.28287        13.93156
     2012.54483        -7.86517        13.75267
     2012.54757        -3.53146        13.89971
     2012.55030        -2.55775        13.76738
     2012.55304         1.20295        13.84824
     2012.55578         3.73566        14.06635
     2012.55852        -4.91163        14.00753
     2012.56125        -1.16292        13.98793
     2012.56399        -1.82922        13.79678
     2012.56673        -5.22051        13.84334
     2012.56947        -1.94580        13.89971
     2012.57221        -2.73710        13.87765
     2012.57494        -2.88039        13.79923
     2012.57768        -5.66468        13.80168
     2012.58042         1.77402        13.81884
     2012.58316        -7.26027        13.92666
     2012.58590         0.48144        14.00753
     2012.58863         4.38014        13.90706
     2012.59137         4.38185        13.95852
     2012.59411         6.86956        14.18888
     2012.59685         0.29727        13.84334
     2012.59958        -4.15503        14.05164
     2012.60232         0.84068        14.27955
     2012.60506         1.47439        13.82374
     2012.60780         1.22909        13.82619
     2012.61054         5.11680        13.82864
     2012.61327         1.23451        13.85560
     2012.61601         8.58421        13.84824
     2012.61875        10.39092        13.91686
     2012.62149        -1.23137        13.94382
     2012.62423         3.92733        14.25749
     2012.62696        -1.05796        13.83844
     2012.62970        -7.15725        13.88500
     2012.63244         4.23246        13.88745
     2012.63518         3.38916        13.93892
     2012.63791         3.95487        13.81639
     2012.64065         3.47158        14.06390
     2012.64339         4.73528        13.80413
     2012.64613         2.08999        13.78698
     2012.64887         5.64170        13.89726
     2012.65160         7.94740        13.94382
     2012.65434        -0.20789        13.80168
     2012.65708         6.39282        14.01243
     2012.65982         5.91252        14.03449
     2012.66256         4.50523        13.84089
     2012.66529         3.32194        13.86050
     2012.66803         5.21165        13.88500
     2012.67077         2.10635        13.90461
     2012.67351         4.16706        13.90706
     2012.67624         5.16377        13.92176
     2012.67898         8.99247        13.96097
     2012.68172         6.25618        13.85315
     2012.68446         0.31689        13.90461
     2012.68720         0.73359        13.97322
     2012.68993         1.04230        13.87520
     2012.69267         6.58501        14.18152
     2012.69541         1.97171        14.21093
     2012.69815         3.70742        14.09085
     2012.70089         1.84813        14.14722
     2012.70362         1.58084        13.94627
     2012.70636         5.38654        13.85315
     2012.70910         2.58825        13.84334
     2012.71184         4.94396        13.89236
     2012.71457         4.55866        13.83109
     2012.71731         6.25637        13.79433
     2012.72005         8.98608        13.93647
     2012.72279         3.42578        13.97077
     2012.72553         5.16449        13.92176
     2012.72826         2.89520        14.24524
     2012.73100         7.08090        14.15212
     2012.73374         6.81361        14.21828
     2012.73648         5.22032        13.95362
     2012.73921         3.69403        14.22563
     2012.74195         3.54573        14.21828
     2012.74469         1.36044        13.93402
     2012.74743         7.36715        13.80413
     2012.75017         6.35385        13.99038
     2012.75290         5.42656        13.92176
     2012.75564         2.77927        13.91931
     2012.75838         2.13097        13.85315
     2012.76112         5.14568        13.84334
     2012.76386         7.29339        14.04919
     2012.76659         7.25009        14.13006
     2012.76933         1.37180        14.03449
     2012.77207         3.12551        13.90461
     2012.77481         0.81822        14.00263
     2012.77754        -0.23608        13.95117
     2012.78028         5.16763        14.08595
     2012.78302        -1.23666        14.14477
     2012.78576        -2.99396        13.96097
     2012.78850         4.04475        14.05899
     2012.79123        -2.00254        13.97813
     2012.79397         1.07916        14.09575
     2012.79671         8.29787        14.05654
     2012.79945         3.23958        13.95117
     2012.80219        -2.07972        14.00018
     2012.80492         3.42999        14.03449
     2012.80766        -0.78930        14.04184
     2012.81040         1.21341        14.13496
     2012.81314        -5.08089        14.13741
     2012.81587       -13.65618        14.13986
     2012.81861        -7.95747        14.42168
     2012.82135        -0.82177        14.13006
     2012.82409        -8.26706        14.13986
     2012.82683        -5.56935        14.02469
     2012.82956        -5.56665        14.13496
     2012.83230         0.95606        14.05654
     2012.83504        -6.24723        14.27220
     2012.83778         0.66547        14.27955
     2012.84052        -0.09282        14.12761
     2012.84325        -0.89711        14.21583
     2012.84599         0.98060        14.26484
     2012.84873        -1.53970        14.16192
     2012.85147         1.53501        14.13496
     2012.85420        -1.86428        14.11781
     2012.85694        -0.67658        14.13741
     2012.85968        -3.87087        14.15947
     2012.86242        -3.97416        14.16927
     2012.86516         4.67354        14.12761
     2012.86789        -7.19275        14.50255
     2012.87063        -2.94004        13.93647
     2012.87337        -1.92734        14.11781
     2012.87611         1.91737        14.07860
     2012.87885       -15.55792        14.21828
     2012.88158         3.95979        14.07615
     2012.88432        -3.73051        14.02959
     2012.88706        -6.55780        14.81622
     2012.88980         7.30791        14.52706
     2012.89253        -4.07939        14.13986
     2012.89527        -4.72268        14.07615
     2012.89801        -3.66997        14.06880
     2012.90075        -0.60827        14.27955
     2012.90349         2.82044        14.08595
     2012.90622        -3.07585        13.97567
     2012.90896         1.40185        14.20358
     2012.91170         3.49056        14.28935
     2012.91444        -7.33873        14.20113
     2012.91718         2.81698        14.10556
     2012.91991        -3.50032        14.10065
     2012.92265        -5.28161        13.87275
     2012.92539         1.20210        13.74532
     2012.92813       -22.87620        13.97322
     2012.93086        -7.35549        14.30895
     2012.93360        -3.96678        14.13741
     2012.93634        -7.87108        13.83354
     2012.93908       -11.46737        14.10311
     2012.94182        -5.38166        14.05899
     2012.94455        -0.00996        13.98303
     2012.94729        -0.62025        14.14722
     2012.95003        -4.49854        14.23544
     2012.95277         1.99516        13.87765
     2012.95551         1.17587        13.84824
     2012.95824       -11.11742        14.02714
     2012.96098       -11.91271        14.39227
     2012.96372       -11.79901        14.51480
     2012.96646       -21.69330        14.17172
     2012.96919       -27.82659        14.23544
     2012.97193        -5.51489        14.36532
     2013.02121        45.16084        14.04429
     2013.02395        38.73454        14.10801
     2013.02669        43.07425        14.32121
     2013.02943        33.97796        14.08840
     2013.03216        36.55667        14.05164
     2013.03490        30.53237        14.07860
     2013.03764        58.05708        13.99773
     2013.04038        50.12379        14.18397
     2013.04312        45.40249        14.24524
     2013.04585        49.32620        14.25259
     2013.04859        45.95191        14.33101
     2013.05133        45.71561        14.14231
     2013.05407        39.12232        14.03449
     2013.05681        40.66203        13.85315
     2013.05954        52.19473        14.10311
     2013.06228        57.95744        14.30405
     2013.06502        78.85015        14.50010
     2013.07597        81.28698        14.15212
     2013.07871        76.59468        14.09575
     2013.08145        67.28639        13.93892
     2013.08418        59.77610        13.94872
     2013.08692        54.98380        13.98058
     2013.08966        50.21651        13.86050
     2013.09240        56.11222        13.87030
     2013.09514        65.31692        13.84089
     2013.09787        75.62363        14.26729
     2013.10061        79.03634        14.87259
     2013.10609        87.14075        13.73062
     2013.10882        81.55546        13.78453
     2013.11156        73.16817        14.00263
     2013.11430        87.03187        13.84824
     2013.11978        84.45029        14.21338
     2013.12251        43.45399        13.92666
     2013.12525         7.63670        14.03694
     2013.13620         0.68553        13.73552
     2013.28515        10.72320        31.32580
     2013.30869       -16.58594        14.13986
     2013.31143       -15.59323        14.18397
     2013.31416       -12.15052        14.07125
     2013.31690       -11.44481        14.24524
     2013.31964       -13.67011        14.08105
     2013.32238       -10.70640        14.30405
     2013.32512        -3.44769        14.23054
     2013.32785       -10.35799        14.14967
     2013.33059       -19.21428        14.06635
     2013.33333       -14.63157        14.04674
     2013.33607       -13.77087        14.02959
     2013.33880       -15.71316        14.05164
     2013.34154        -4.38545        14.18397
     2013.34428       -10.53675        14.07615
     2013.34702       -10.21804        14.16437
     2013.34976       -17.94633        14.16192
     2013.35249       -13.21562        14.08105
     2013.35523       -13.62292        14.52461
     2013.35797       -12.35021        13.99528
     2013.36071       -12.64050        14.14477
     2013.36344        -7.50580        14.03449
     2013.36618        -8.81109        14.15212
     2013.36892       -11.30138        14.03449
     2013.37166       -12.86268        14.02959
     2013.37440       -15.35197        14.15212
     2013.37713       -14.42126        14.20848
     2013.37987        -9.40656        14.04919
     2013.38261       -15.63185        14.12761
     2013.38535       -13.15914        13.96587
     2013.38809       -11.33443        14.20848
     2013.39082        -8.60373        14.01488
     2013.39356        -9.13202        14.09575
     2013.39630        -8.37831        14.04429
     2013.39904        -8.78061        13.91441
     2013.40177       -14.38590        14.11046
     2013.40451       -19.41519        14.21093
     2013.40725        -7.50149        14.06880
     2013.40999        -3.86278        14.11046
     2013.41273        -7.41807        14.03204
     2013.41546        -7.43037        14.31140
     2013.41820        -5.25866        14.16192
     2013.42094         0.37405        14.07125
     2013.42368       -12.64224        14.17662
     2013.42642       -10.27454        14.21828
     2013.42915        -1.80183        14.27465
     2013.43189       -13.45912        14.12026
     2013.43463        -5.59842        14.02469
     2013.43737        -4.81971        14.13251
     2013.44010        -8.49500        14.19133
     2013.44284        -6.88630        14.00018
     2013.44558        -6.21959        14.30895
     2013.44832       -11.03888        14.00753
     2013.45106        -5.78318        13.99283
     2013.45379        -9.04747        14.22073
     2013.45653        -6.91776        13.98303
     2013.45927        -6.32606        14.03694
     2013.46201        -6.09035        14.01979
     2013.46475        -8.21064        14.05899
     2013.46748        -9.12993        14.14477
     2013.47022        -6.35023        14.11536
     2013.47296        -7.38852        13.79678
     2013.47570        -9.18381        13.93156
     2013.47843        -4.52111        13.93647
     2013.48117        -1.92240        13.96832
     2013.48391        -7.99769        13.83599
     2013.48665        -3.09699        13.82619
     2013.48939        -4.55328        13.88500
     2013.49212        -1.67857        14.09085
     2013.49486        -7.05887        13.92176
     2013.49760        -5.87316        13.98303
     2013.50034        -3.04845        13.74042
     2013.50308         4.47326        14.25994
     2013.50581        -1.01204        14.09330
     2013.50855        -7.59333        13.89236
     2013.51129         0.92738        14.15212
     2013.51403        -2.28192        14.00508
     2013.51676         2.04679        13.74532
     2013.51950        -3.99450        13.88010
     2013.52224        -1.41380        13.91441
     2013.52498        -2.38909        14.22318
     2013.52772         0.19062        13.91686
     2013.53045        -1.80468        13.91196
     2013.53319        -3.43497        13.88255
     2013.53593        -0.97326        13.98793
     2013.53867        -4.71055        14.00263
     2013.54141        -6.58885        13.95362
     2013.54414        -3.37714        13.89481
     2013.54688        -4.57843        13.95852
     2013.54962        -0.22673        14.00753
     2013.55236        -2.51202        13.85560
     2013.55509        -2.19231        14.01243
     2013.55783        -1.41061        14.21583
     2013.56057         1.27910        14.07125
     2013.56331        -1.02019        14.26729
     2013.56605        -2.01149        14.20603
     2013.56878         6.65622        14.16437
     2013.57152         5.12993        14.05654
     2013.57426         2.75464        13.94872
     2013.57700         4.82334        13.96097
     2013.57974        -0.03995        14.03694
     2013.58247         0.52376        13.93892
     2013.58521        -0.31154        13.92911
     2013.58795         3.43017        13.93156
     2013.59069         1.98088        13.87275
     2013.59342         2.13758        13.85805
     2013.59616         2.45529        13.88255
     2013.59890        -0.93500        14.01979
     2013.60164         3.90670        14.06635
     2013.60438         0.44241        13.91931
     2013.60711         3.78212        13.92176
     2013.60985         4.55683        13.89971
     2013.61259         2.80253        13.87520
     2013.61533         4.67624        14.20603
     2013.61807         4.60595        14.15212
     2013.62080         9.96665        14.02469
     2013.62354         2.10336        13.92421
     2013.62628         6.79407        14.03939
     2013.62902         2.87877        14.14722
     2013.63175         6.87748        14.22073
     2013.63449         7.78819        14.63978
     2013.63723         5.23389        14.30160
     2013.63997         5.32460        14.13251
     2013.64271         0.61731        13.96342
     2013.64544         4.18102        13.84579
     2013.64818         4.05372        14.02224
     2013.65092         4.99143        13.86785
     2013.65366         3.41014        13.88255
     2013.65639         3.73484        13.92666
     2013.65913        -1.05045        14.35552
     2013.66187         1.26426        13.94137
     2013.66461         2.98496        13.73797
     2013.66735         6.69767        14.02959
     2013.67008         9.18338        14.15702
     2013.67282         3.98708        14.23789
     2013.67556        -0.39721        14.18397
     2013.67830         5.53950        13.88010
     2013.68104         2.32521        13.80413
     2013.68377         8.39891        13.84089
     2013.68651         6.48062        13.98058
     2013.68925         6.02733        13.95362
     2013.69199         9.62203        13.99038
     2013.69472         9.94174        13.80168
     2013.69746         5.11045        13.76002
     2013.70020         7.69515        13.84824
     2013.70294        10.45086        14.03694
     2013.70568         9.13557        13.91196
     2013.70841         5.24027        13.97567
     2013.71115         7.54198        13.96832
     2013.71389         6.24869        13.98058
     2013.71663         8.57940        13.95607
     2013.71937         7.02210        13.93892
     2013.72210        10.45081        14.07860
     2013.72484         2.26552        13.81884
     2013.72758         1.47822        13.89236
     2013.73032         4.87193        14.03939
     2013.73305        13.62864        13.97813
     2013.73579         0.10034        13.97813
     2013.73853         1.41505        13.84824
     2013.74127         6.66076        13.67915
     2013.74401        10.36846        14.16192
     2013.74674         5.64717        14.05409
     2013.74948         6.39488        13.91931
     2013.75222        -0.85241        13.90461
     2013.75496        -4.32871        13.60564
     2013.75770        -4.32900        13.67180
     2013.76043        -1.35629        13.92911
     2013.76317         1.56541        13.83109
     2013.76591         4.23812        13.93892
     2013.76865        -0.12417        13.77963
     2013.77138        -6.59047        13.71101
     2013.77412         6.81524        14.07125
     2013.77686        -1.76905        13.90951
     2013.77960         4.81065        13.98548
     2013.78234        -6.43764        14.05164
     2013.78507         0.75107        13.77963
     2013.78781        -4.18622        13.92421
     2013.79055        -2.27452        14.02224
     2013.79329        -1.44681        13.89726
     2013.79603         1.69790        13.90461
     2013.79876        -0.25040        13.93156
     2013.80150         8.04231        14.04674
     2013.80424         4.23402        14.12271
     2013.80698         3.48172        13.88010
     2013.80971         4.97243        13.87520
     2013.81245         7.71614        13.89236
     2013.81519         7.48684        13.76738
     2013.81793         1.99555        13.88500
     2013.82067         0.78026        13.91686
     2013.82340         4.37797        13.97813
     2013.82614         3.09967        14.10311
     2013.82888         2.14538        13.90216
     2013.83162        -1.32491        13.80658
     2013.83436         3.76979        14.27465
     2013.83709         2.24050        14.02469
     2013.83983         2.74421        14.00998
     2013.84257         0.22291        14.04429
     2013.84531        -4.17838        14.24524
     2013.84804         0.43033        13.95852
     2013.85078        -1.21597        13.87765
     2013.85352         1.80474        13.83109
     2013.85626        -0.20155        13.89726
     2013.85900         4.17616        14.02469
     2013.86173         1.57086        13.91686
     2013.86447        -6.04643        14.12026
     2013.86721         1.84128        13.99283
     2013.86995         4.03898        13.90461
     2013.87269         9.91369        13.95362
     2013.87542        11.07340        13.88745
     2013.87816         9.29610        13.93647
     2013.88090         9.06681        14.15457
     2013.88364         3.85052        14.55891
     2013.88637        -2.17678        14.01979
     2013.88911         1.71293        13.89236
     2013.89185         0.20064        13.93647
     2013.89459        -3.22865        13.89236
     2013.89733         1.99205        13.88255
     2013.90006         2.14576        14.09330
     2013.90280        -1.12053        13.96587
     2013.90554         2.21517        13.88745
     2013.90828         4.91288        13.94872
     2013.91102        -1.37741        13.96587
     2013.91375        -0.05771        13.87520
     2013.91649         1.15700        13.92421
     2013.91923        -5.65329        14.27710
     2013.92197         3.78041        14.26729
     2013.92470         4.77112        13.90706
     2013.92744         4.01683        14.27465
     2013.93018         8.06753        13.81394
     2013.93292         3.51424        13.83599
     2013.93566         3.79895        13.76247
     2013.93839        -3.08834        13.79433
     2013.94113        -0.09064        13.81394
     2013.94387         3.31407        13.73062
     2013.94661         2.37178        13.99773
     2013.94935         4.91848        13.80413
     2013.95208         2.96119        13.79188
     2013.95482        -0.14310        13.71346
     2013.95756         1.98760        13.80658
     2013.96030         4.11531        13.83354
     2013.96303         1.19602        13.78698
     2013.96577         2.95272        13.81394
     2013.96851         6.43443        13.99283
     2013.97125        13.37014        13.80658
     2013.97399        -9.32515        13.96832
     2013.97672        -3.25445        13.92421
     2013.97946         0.00326        13.93647
     2013.98220         0.09897        13.91931
     2013.98494         3.37367        13.82374
     2013.98767        -2.35962        13.85560
     2013.99041        -0.53291        13.97322
     2013.99315        -5.20121        13.88745
     2013.99589         0.85750        13.91441
     2013.99863         0.48921        13.91441
     2014.00410         1.41862        13.84089
     2014.00684         0.97933        13.93156
     2014.00958         2.94304        13.88500
     2014.01232        -4.93426        14.11781
     2014.01505        -1.98755        14.12026
     2014.01779         3.66416        14.09575
     2014.02053         6.93986        13.85070
     2014.02327         3.69957        14.28690
     2014.02600         2.17628        14.19378
     2014.02874         6.81198        13.94627
     2014.03148         6.22169        13.91441
     2014.03422        -3.88660        13.93156
     2014.03696        -0.18390        13.80413
     2014.03969        -1.92119        13.76002
     2014.04243         0.71252        14.14722
     2014.04517         7.23223        14.15947
     2014.04791         2.53193        13.81394
     2014.05065         7.78264        13.74777
     2014.05338         2.29735        13.81394
     2014.05612        -2.22495        13.81394
     2014.05886         0.30176        13.89236
     2014.06160         4.58547        13.89481
     2014.06433         2.71017        14.44374
     2014.06707         2.61188        14.24524
     2014.06981         6.45859        14.00018
     2014.07255         4.90329        13.89726
     2014.07529         2.70400        13.91441
     2014.07802         4.30271        13.92666
     2014.08076        11.80342        13.91931
     2014.08350         4.92112        13.87030
     2014.08624         0.54783        13.91441
     2014.08898         4.17254        14.32856
     2014.09171         3.12924        14.27710
     2014.09445         3.89495        13.86785
     2014.09719         0.94166        14.07370
     2014.09993         5.70736        13.78698
     2014.10266        -6.44393        14.11536
     2014.10540         2.91578        13.85805
     2014.10814         5.60348        14.08595
     2014.11088        -0.92881        14.49765
     2014.11362         3.25690        14.01243
     2014.11635        -1.07639        13.90461
     2014.11909         1.37331        13.97322
     2014.12183         6.91102        14.07125
     2014.12457         3.03373        13.94872
     2014.12731         6.63643        13.94137
     2014.13004         2.04714        13.83844
     2014.13278        -1.46915        14.32856
     2014.13552         3.40255        14.20603
     2014.13826        -0.61474        13.92666
     2014.14099         5.61097        13.96832
     2014.14373         4.02867        14.06635
     2014.14647         1.79538        14.03449
     2014.14921         2.76309        13.99038
     2014.15195         2.05480        14.12516
     2014.15468         2.34350        14.16682
     2014.15742        -2.18979        14.31140
     2014.16016         9.62092        14.66919
     2014.16290        -7.45238        14.44864
     2014.16564       -13.65267        14.35306
     2014.16837        -4.54696        14.74516
     2014.17111       -16.76726        14.82603
     2014.17385         1.27645        14.82358
     2014.17659        -3.53984        14.60793
     2014.17932         6.99786        14.99512
     2014.18206         5.43557        14.37512
     2014.18480        -1.80872        14.22318
     2014.18754       -12.09401        14.41188
     2014.19028        -7.33231        14.09575
     2014.19301        -0.65860        14.16437
     2014.19575         1.95811        14.11536
     2014.19849         5.25981        14.29915
     2014.20123        -2.49948        14.23544
     2014.20397        -1.73277        14.15702
     2014.20670         1.11193        14.20603
     2014.20944        -0.96136        14.08105
     2014.21218         4.41535        14.17907
     2014.21492        -0.20895        14.48295
     2014.21765         2.12076        14.25014
     2014.22039         0.01547        14.25994
     2014.22313         2.11618        14.25749
     2014.22587        -0.00812        14.19868
     2014.22861         0.35659        14.17662
     2014.23134        -4.82870        14.20358
     2014.23408        -2.78500        14.21338
     2014.23682        -3.44429        14.15702
     2014.23956        -3.65258        14.40453
     2014.24230       -12.64688        14.56872
     2014.24503        -6.71317        14.33836
     2014.24777        29.25854        14.94856
     2014.25051        41.61724        14.36532
     2014.25325        32.39195        14.38002
     2014.25598        16.10666        14.56627
     2014.26146         3.02707        14.69125
     2014.26420        -6.81522        14.08840
     2014.26694        -6.29151        14.04919
     2014.26967        -7.17581        13.95362
     2014.27241        -7.67810        14.40943
     2014.27515        -5.41639        14.56872
     2014.27789         1.02531        14.30650
     2014.28062        -1.16798        14.24769
     2014.28336        -0.91127        14.28690
     2014.28610        -0.96357        14.28200
     2014.28884        -4.50486        14.52461
     2014.29158        -5.16715        14.13986
     2014.29431        -3.22444        14.32856
     2014.29705        -3.21974        14.30650
     2014.29979       -10.91503        14.12761
     2014.30253        -0.91532        14.01243
     2014.30527        -5.99962        14.10065
     2014.30800        -4.12991        14.27220
     2014.31074         2.55680        14.20113
     2014.31348       -15.61450        14.10065
     2014.31622        -2.35579        14.17662
     2014.31895        -2.06608        14.09575
     2014.32169        -9.81938        14.50255
     2014.32443       -16.96667        14.46824
     2014.32717        -9.69796        14.42658
     2014.32991        -3.95625        14.13251
     2014.33264        -1.77455        14.07615
     2014.33538        -6.81684        14.07615
     2014.33812        -6.71413        14.27465
     2014.34086        -3.11243        14.16682
     2014.34360       -12.95572        14.05409
     2014.34633        -4.66001        14.06880
     2014.34907        -7.52731        14.35306
     2014.35181        -6.55460        14.47069
     2014.35455        -5.99889        14.05899
     2014.35728       -16.89219        14.04429
     2014.36002        -8.90948        14.17662
     2014.36276       -13.39277        14.11536
     2014.36550        -8.59106        14.00263
     2014.36824       -11.01536        14.20113
     2014.37097        -6.29065        14.08595
     2014.37371        -5.52694        13.99528
     2014.37645        -1.59824        14.18643
     2014.37919        -8.34153        14.30160
     2014.38193        -9.23882        14.33836
     2014.38466       -15.00912        14.29670
     2014.38740        -8.93741        14.36532
     2014.39014        -7.59570        14.40453
     2014.39288        -3.93600        14.51480
     2014.39561        -0.75929        14.33101
     2014.39835        -5.83258        14.30160
     2014.40109        -9.44888        14.25259
     2014.40383        -9.97217        14.25504
     2014.40657        -5.78046        14.27710
     2014.40930        -7.31375        14.27955
     2014.41204        -3.84305        14.03204
     2014.41478        -5.40134        14.09820
     2014.41752         1.50237        14.09085
     2014.42026        -0.83693        14.11046
     2014.42299         0.78578        14.16927
     2014.42573        -1.53051        14.13251
     2014.42847         1.56819        14.33836
     2014.43121         1.73790        14.17417
     2014.43394         1.82861        14.02714
     2014.43668        -3.70769        14.19623
     2014.43942         4.46502        14.18152
     2014.44216        -2.85427        13.98058
     2014.44490         1.74544        14.39963
     2014.44763        -4.47586        14.26729
     2014.45037        -4.21015        13.97077
     2014.45311        -0.28144        14.01243
     2014.45585        -2.20574        13.90216
     2014.45859         2.05797        14.16682
     2014.46132        -1.58832        14.06145
     2014.46406        -4.53162        13.94627
     2014.46680        -5.07691        13.85560
     2014.46954        -1.24820        13.79433
     2014.47227         6.10850        13.84824
     2014.47501         2.61221        13.91686
     2014.47775         0.64092        13.91196
     2014.48049        -0.96537        14.10801
     2014.48323         3.38533        14.00998
     2014.48596        -0.57696        14.07125
     2014.48870        -0.95825        14.12516
     2014.49144         0.78945        13.98548
     2014.49418         6.58916        13.90216
     2014.49692         0.65487        13.95852
     2014.49965        -0.47743        13.86540
     2014.50239         3.16428        14.02959
     2014.50513         3.82399        14.03449
     2014.50787         2.98569        13.84579
     2014.51060        -4.03360        13.95362
     2014.51334         1.33811        13.91686
     2014.51608         7.96782        13.76002
     2014.51882         2.62752        13.93892
     2014.52156         5.20123        14.14477
     2014.52429         0.32294        14.13496
     2014.52703         5.87064        14.03449
     2014.52977        -2.35065        13.84824
     2014.53251         5.07706        13.80904
     2014.53525        -0.31524        13.90951
     2014.53798         6.45247        14.03449
     2014.54072         1.77018        14.17417
     2014.54346         2.72288        14.07125
     2014.54620         5.92059        14.05164
     2014.54893         1.69130        14.08105
     2014.55167        -0.73399        14.09330
     2014.55441         3.29471        14.10556
     2014.55715         2.63142        14.02714
     2014.55989         4.54813        13.86050
     2014.56262         4.39283        13.83354
     2014.56536         0.72454        13.83109
     2014.56810         2.62525        14.01243
     2014.57084         1.53395        14.01243
     2014.57357         6.40866        14.01243
     2014.57631        -0.64463        14.02959
     2014.57905         2.44207        14.00753
     2014.58179         5.77778        14.17662
     2014.58453         4.33249        14.20113
     2014.58726         4.07820        14.80397
     2014.59000         3.93290        14.22073
     2014.59274         0.51461        14.34816
     2014.59548         4.45932        14.66674
     2014.59822         6.68402        14.83828
     2014.60095         9.83673        14.56627
     2014.60369         6.79244        14.18643
     2014.60643        -0.67286        14.39718
     2014.60917         4.58085        14.40698
     2014.61190         6.43956        14.64468
     2014.61464         6.63826        14.21828
     2014.61738         4.65097        14.49030
     2014.62012         7.25168        14.55891
     2014.62286         5.48339        14.31140
     2014.62559         6.13609        14.17172
     2014.62833        10.46980        14.07615
     2014.63107        12.33351        14.15947
     2014.63381         5.29121        14.55646
     2014.63655         7.00892        14.26239
     2014.63928        -0.48437        14.14722
     2014.64202         9.98833        14.06635
     2014.64476         2.63804        14.07125
     2014.64750         8.39575        14.15947
     2014.65023        -0.58855        14.23544
     2014.65297        10.43916        14.08105
     2014.65571         5.91887        14.14967
     2014.65845         7.04858        14.15457
     2014.66119         7.31128        14.19133
     2014.66392        12.12099        14.25259
     2014.66666        13.00570        14.22563
     2014.66940         6.56440        14.13741
     2014.67214         6.75511        14.22318
     2014.67488         9.25082        14.22563
     2014.67761         6.47352        14.17417
     2014.68035         2.25223        14.22318
     2014.68309         1.58994        14.26729
     2014.68583         3.66964        14.24279
     2014.68856         9.87335        14.13496
     2014.69130         3.78406        14.06145
     2014.69404         4.81777        14.09085
     2014.69678         3.01447        14.04674
     2014.69952         9.73318        14.21093
     2014.70225         6.42489        14.02224
     2014.70499        12.63859        14.18397
     2014.70773         8.17830        14.21093
     2014.71047        11.94201        14.24524
     2014.71321        12.12371        13.94382
     2014.71594         5.53442        14.25504
     2014.71868        15.63813        14.00508
     2014.72142        11.67683        13.90461
     2014.72416         6.35154        13.95117
     2014.72689         8.60525        14.00753
     2014.72963         2.27796        13.96097
     2014.73237         4.64966        14.47804
     2014.73511         4.54637        14.16437
     2014.73785         0.73008        14.15212
     2014.74058         6.48178        14.09575
     2014.74332         8.85049        14.11046
     2014.74606        12.36520        14.30160
     2014.74880         9.64490        13.93892
     2014.75154         7.31561        14.28690
     2014.75427         4.75432        13.88990
     2014.75701         4.13202        13.87275
     2014.75975         9.95473        13.91196
     2014.76249         9.85944        14.00998
     2014.76522         9.55815        13.96097
     2014.76796         6.46685        13.95117
     2014.77070         6.23556        13.97567
     2014.77344         3.80527        13.96342
     2014.77618         5.91797        13.95117
     2014.77891         8.55968        13.95362
     2014.78165        10.61539        13.92176
     2014.78439         7.87709        13.92421
     2014.78713        19.01180        13.95117
     2014.78987         5.91351        13.93892
     2014.79260         3.73321        13.98793
     2014.79534         8.42292        13.96587
     2014.79808        13.15663        14.22073
     2014.80082        10.56034        13.94382
     2014.80355         7.96304        14.11781
     2014.80629         7.58775        13.98303
     2014.80903         8.39346        14.05654
     2014.81177        16.46716        14.04429
     2014.81451        13.24187        14.10065
     2014.81724        13.61458        14.05409
     2014.81998         7.02628        14.01979
     2014.82272        14.24599        14.35061
     2014.82546        11.66870        14.03939
     2014.82820         6.69740        13.85805
     2014.83093        12.38711        14.10065
     2014.83367         5.83882        14.23054
     2014.83641         6.50553        13.96587
     2014.83915         9.83223        14.00753
     2014.84188         5.87994        14.02469
     2014.84462         1.82265        14.23054
     2014.84736         6.53335        14.33101
     2014.85010         5.40206        14.35306
     2014.85284        12.83277        14.01979
     2014.85557        11.79947        14.20848
     2014.85831        11.39218        14.23789
     2014.86105         8.46789        14.21338
     2014.86379         3.51959        14.22563
     2014.86653         6.89330        14.22318
     2014.86926         0.18101        14.12271
     2014.87200         6.68371        14.25014
     2014.87474         4.11142        14.25504
     2014.87748         3.94013        14.24034
     2014.88021         6.02484        14.17662
     2014.88295         6.51354        14.19133
     2014.88569       -20.28875        14.73536
     2014.88843        -4.95604        14.93385
     2014.89117        -9.85034        15.14215
     2014.89390         5.28837        14.71820
     2014.89664        11.54708        14.48295
     2014.89938         1.13578        14.57852
     2014.90212         4.67549        14.53441
     2014.90485         4.20220        14.18152
     2014.90759         2.41790        14.28200
     2014.91033        -1.00239        14.24279
     2014.91307        -9.94368        14.21093
     2014.91581        -6.42197        14.57117
     2014.91854        12.50273        14.38002
     2014.92128       -13.36456        14.56872
     2014.92402         4.53315        14.49520
     2014.92676         1.29185        14.13006
     2014.92950         0.03256        14.36532
     2014.93223        -1.69173        14.15212
     2014.93497         3.00497        14.36532
     2014.93771        -6.30232        14.46334
     2014.94045        -0.69161        14.27710
     2014.94318        -8.50891        14.86769
     2014.94592       -14.60220        14.44129
     2014.94866        -9.04849        14.12516
     2014.95140        -4.05478        13.96587
     2014.95414        -7.10408        13.86050
     2014.95687       -17.82637        13.87520
     2014.95961        12.29834        14.07370
     2014.96235        17.48004        14.07370
     2014.96509        30.17075        14.36777
     2014.96783        34.50446        14.00263
     2014.97878        41.86928        13.90706
     2014.98152        33.09502        13.98058
     2014.98425        21.34570        13.67915
     2014.98699        21.89641        13.87520
     2014.98973         7.77211        13.86295
     2014.99247        -7.09818        13.70856
     2014.99520        -5.39647        13.78208
     2014.99794         5.24623        13.61054
     2015.00068        -6.66206        13.76002
     2015.00342        -4.80735        13.77963
     2015.00616        -9.14565        13.81394
     2015.00889       -10.42494        14.11781
     2015.01163        -3.02323        13.91931
     2015.01437        -6.96453        13.92911
     2015.01711        -2.56182        14.05654
     2015.01984         3.61789        14.05409
     2015.02258         4.79760        14.43393
     2015.02532         3.95930        13.99038
     2015.02806         1.02301        14.03449
     2015.03080         3.03672        13.95607
     2015.03353        -7.19558        14.12026
     2015.03627         3.46613        14.03449
     2015.03901        -0.67016        14.04919
     2015.04175         8.28254        14.20358
     2015.04449        -6.97875        14.15947
     2015.04722         1.91896        14.19378
     2015.04996        -1.93434        14.14722
     2015.05270        -3.40063        14.07125
     2015.05544        -4.84492        14.04184
     2015.05817         0.84579        14.04184
     2015.06091        -2.68651        14.08840
     2015.06365        -6.98180        14.33836
     2015.06639         4.30591        14.02224
     2015.06913        -0.82739        14.00998
     2015.07186        -4.84168        13.91931
     2015.07460        -1.74797        13.91441
     2015.07734        -4.64527        13.94382
     2015.08008       -11.39456        13.88010
     2015.08282        -4.04685        13.75757
     2015.08555        -3.62015        13.94627
     2015.08829        -3.06544        14.13251
     2015.09103        -0.63373        14.15212
     2015.09377        -0.22302        13.94382
     2015.09650        -3.07032        13.95607
     2015.09924         6.90339        14.14722
     2015.10198        -4.00790        14.01979
     2015.10472         3.39780        14.16437
     2015.10746        -0.19349        14.42413
     2015.11019        -9.17878        14.38002
     2015.11293        -7.61508        14.13496
     2015.11567        -6.05237        13.96587
     2015.11841       -11.91666        14.17662
     2015.12115        -1.98896        14.00508
     2015.12388        -6.00925        13.93892
     2015.12662        -8.35354        14.00018
     2015.12936        -4.49083        13.89726
     2015.13210        -5.68313        14.02714
     2015.13483        -3.34842        14.20603
     2015.13757        -1.43171        14.26239
     2015.14031        -2.08601        14.11781
     2015.14305        -5.73430        13.77228
     2015.14579        -0.97059        14.17172
     2015.14852        -7.43889        14.07370
     2015.15126        -3.69118        14.05654
     2015.15400        -4.92447        14.09330
     2015.15674        -0.95677        14.18152
     2015.15948         6.63494        13.97813
     2015.16221        -7.02435        14.09820
     2015.16495         0.97136        14.14231
     2015.16769         0.91306        14.05164
     2015.17043         0.11377        13.99773
     2015.17316        -0.27652        14.58587
     2015.17590        -0.37982        14.58587
     2015.17864        -1.29511        13.99038
     2015.18138         1.32260        14.17907
     2015.18412         1.46530        14.03939
     2015.18685         1.70201        14.17417
     2015.18959        -9.24028        14.20848
     2015.19233        -4.44258        14.40208
     2015.19507         1.72613        13.99528
     2015.19780        -1.24916        14.30405
     2015.20054        -0.59745        14.13496
     2015.20328        -1.85375        14.27220
     2015.20602        -0.42704        14.16682
     2015.20876        -2.58233        14.03449
     2015.21149        -6.89463        13.89481
     2015.21423       -10.04992        14.38737
     2015.21697        -5.02021        14.17172
     2015.21971        -2.74951        14.08105
     2015.22245        -4.64080        13.93647
     2015.22518        -5.46209        13.89236
     2015.22792        -2.70739        13.88500
     2015.23066        -2.59968        14.08595
     2015.23340         1.53303        14.33346
     2015.23613        -1.94826        14.37757
     2015.23887        -3.43156        14.64223
     2015.24161        -0.57785        14.65449
     2015.24435        -6.64914        14.81132
     2015.24709        -3.70344        14.42658
     2015.24982        -6.91973        14.03694
     2015.25256        -2.70702        13.93402
     2015.25530        -3.52932        14.03449
     2015.25804        -9.10661        14.03694
     2015.26078         3.98910        13.99773
     2015.26351        -0.36720        13.92176
     2015.26625        -4.25549        13.88010
     2015.26899        -5.38378        13.93156
     2015.27173         5.64493        14.38982
     2015.27446         3.93363        14.44864
     2015.27720         2.29134        13.98793
     2015.27994        -1.08095        13.86050
     2015.28268        -7.96425        13.91196
     2015.28542        -1.64954        14.37267
     2015.28815       -10.87983        14.26729
     2015.29089        -1.60113        13.99773
     2015.29363        -0.63942        14.00998
     2015.29637        -0.27371        13.86540
     2015.29911         2.82699        14.01979
     2015.30184         2.14170        14.02469
     2015.30458        -2.02959        14.16927
     2015.30732         1.77212        13.82374
     2015.31006        -7.99918        13.69141
     2015.31279        -7.72147        13.61544
     2015.31553        -4.99176        13.68406
     2015.31827       -10.60806        13.62769
     2015.32101        -7.63935        13.80168
     2015.32375        -5.65464        13.73797
     2015.32648        -9.44994        13.93892
     2015.32922        -2.93523        14.08350
     2015.33196        -0.05552        13.63749
     2015.33470         1.76418        13.76247
     2015.33744        -1.13911        13.62279
     2015.34017        -4.89340        13.62769
     2015.34291        -0.27469        13.72817
     2015.34565        -2.30499        13.72817
     2015.34839       -10.34128        13.80904
     2015.35112        -3.03357        13.78453
     2015.35386         0.71213        13.60809
     2015.35660        -1.52116        13.68406
     2015.35934        -8.28645        13.96832
     2015.36208        -3.69975        14.07615
     2015.36481        -2.52704        13.81884
     2015.36755        -0.25233        13.74287
     2015.37029        -8.02663        13.68406
     2015.37303        -6.83392        13.72326
     2015.37577        -7.94421        13.80168
     2015.37850        -6.82151        14.26484
     2015.38124        -6.77980        13.67670
     2015.38398        -8.78109        13.83354
     2015.38672        -7.47138        13.59583
     2015.38945       -11.24268        14.01979
     2015.39219        -7.70397        13.91441
     2015.39493         0.38474        13.90216
     2015.39767        -7.81756        13.78208
     2015.40041        -2.59685        13.68160
     2015.40314         1.01786        14.30895
     2015.40588        -5.58944        13.91441
     2015.40862        -2.96173        13.83109
     2015.41136         1.96498        13.92666
     2015.41410        -2.80232        13.65710
     2015.41683        -3.82061        13.66200
     2015.41957        -2.31690        13.87520
     2015.42231         1.44481        13.85070
     2015.42505        -3.75949        14.30895
     2015.42778        -1.24478        13.87275
     2015.43052         1.75693        13.76738
     2015.43326         3.34063        13.78208
     2015.43600         6.95234        14.01733
     2015.43874        -0.85995        13.85315
     2015.44147         3.05775        14.32856
     2015.44421        -2.40554        13.76983
     2015.44695        -1.83983        13.81149
     2015.44969         1.91187        13.92176
     2015.45243         2.51958        14.14722
     2015.45516        -2.62471        13.88010
     2015.45790        -0.81900        14.13251
     2015.46064         3.59470        14.17662
     2015.46338         2.22341        14.13741
     2015.46611         5.28712        13.95607
     2015.46885         5.29082        13.76492
     2015.47159         2.20153        13.71101
     2015.47433        -2.42876        13.86295
     2015.47707         1.00894        13.98303
     2015.47980         6.92665        14.08105
     2015.48254         4.35636        14.01488
     2015.48528         2.80406        13.83109
     2015.48802        -1.54723        13.74042
     2015.49076        -0.45152        14.49030
     2015.49349         3.45419        14.21338
     2015.49623         2.62389        14.35552
     2015.49897         0.95160        14.25014
     2015.50171        10.61731        14.01979
     2015.50444        11.17101        13.98058
     2015.50718         8.48672        13.97077
     2015.50992         5.87743        13.98058
     2015.51266         6.55713        13.84334
     2015.51540         5.98484        14.14967
     2015.51813         6.73255        13.79188
     2015.52087        10.43025        13.72326
     2015.52361         6.51096        14.22073
     2015.52635         3.10867        13.91196
     2015.52908         3.40038        13.91441
     2015.53182         6.98208        13.70366
     2015.53456         7.29279        13.61054
     2015.53730         4.45850        13.88255
     2015.54004         3.64020        14.13496
     2015.54277         4.00591        14.14477
     2015.54551         9.74062        14.21338
     2015.54825        15.21832        13.97813
     2015.55099         4.49203        14.03449
     2015.55373         9.14174        14.03449
     2015.55646        10.23644        13.99773
     2015.55920         6.78115        14.06880
     2015.56194        11.38586        14.12271
     2015.56468        11.00957        14.06880
     2015.56741         8.46427        14.08595
     2015.57015        11.85598        14.48050
     2015.57289         8.59469        14.57852
     2015.57563         6.35739        14.01979
     2015.57837        12.20310        14.18643
     2015.58110        11.68981        14.14231
     2015.58384        10.98851        14.33836
     2015.58658        11.76022        14.32121
     2015.58932         8.38593        14.23299
     2015.59206         8.76863        14.47559
     2015.59479        11.52434        14.17907
     2015.59753        16.46005        14.09330
     2015.60027         8.88876        14.29670
     2015.60301        14.13946        14.28690
     2015.60574        11.84917        14.03939
     2015.60848        14.67888        14.07370
     2015.61122        12.61458        13.96342
     2015.61396        13.95229        13.92911
     2015.61670         7.24200        13.59583
     2015.61943         6.03470        13.72817
     2015.62217        14.75641        13.75512
     2015.62491        15.47412        13.66200
     2015.62765        15.02982        13.61789
     2015.63039        10.37953        13.57623
     2015.63312         9.38224        13.79678
     2015.63586         9.96795        13.79188
     2015.63860        10.80465        13.74777
     2015.64134        12.37036        13.88745
     2015.64407         5.24107        13.67180
     2015.64681         8.73977        13.88745
     2015.64955         5.75748        13.71346
     2015.65229        10.87319        13.67425
     2015.65503        13.26289        13.61054
     2015.65776        22.01360        13.90216
     2015.66050         9.62031        13.53212
     2015.66324        14.93201        13.67915
     2015.66598        19.41272        13.88745
     2015.66872        15.37943        13.86540
     2015.67145        18.09514        13.82619
     2015.67419        12.41584        13.64485
     2015.67693        13.56455        13.64730
     2015.67967        11.71226        13.67180
     2015.68240        14.25796        13.66200
     2015.68514        11.22267        13.59093
     2015.68788        15.02338        13.57868
     2015.69062        17.69508        13.69876
     2015.69336        10.72579        14.15212
     2015.69609        11.18550        13.80413
     2015.69883        12.02620        13.70121
     2015.70157        11.26191        13.72326
     2015.70431        11.14362        13.80658
     2015.70705         4.22833        13.81394
     2015.70978        12.28303        13.77963
     2015.71252        11.50474        13.72326
     2015.71526        13.34345        13.66690
     2015.71800        14.49215        13.60564
     2015.72073        17.46886        13.77963
     2015.72347        15.80157        13.74287
     2015.72621        12.23327        13.84089
     2015.72895         5.12798        13.68160
     2015.73169        11.77069        13.65220
     2015.73442        14.48939        13.64730
     2015.73716        14.36610        13.79678
     2015.73990        13.29781        13.95117
     2015.74264        10.50152        14.01733
     2015.74538        12.03922        14.28200
     2015.74811         6.60593        14.50990
     2015.75085        -4.83836        13.94627
     2015.75359        11.99634        13.62034
     2015.75633        13.94405        13.78208
     2015.75906        13.54676        13.83844
     2015.76180        12.22246        13.75757
     2015.76454        10.35917        13.74042
     2015.76728        10.40588        13.77963
     2015.77002        11.55458        13.65465
     2015.77275        12.31029        13.72817
     2015.77549        14.30100        13.79433
     2015.77823        14.81571        13.71591
     2015.78097        11.16441        13.63995
     2015.78371        13.41912        13.83599
     2015.78644        16.91283        13.82374
     2015.78918         9.67653        13.89481
     2015.79192        12.57224        14.28200
     2015.79466        10.08395        13.92911
     2015.79739         9.90265        13.85315
     2015.80013         7.18936        14.18643
     2015.80287         9.50407        13.80658
     2015.80561        12.92777        13.82864
     2015.80835        12.68548        13.70611
     2015.81108         7.90519        13.77473
     2015.81382         9.74190        13.80168
     2015.81656         9.71860        13.77473
     2015.81930         9.11231        13.80168
     2015.82203        10.58802        13.83354
     2015.82477        14.63072        13.77473
     2015.82751        12.22943        13.82374
     2015.83025        11.60714        13.81639
     2015.83299        11.93384        13.96587
     2015.83572         8.87755        14.00508
     2015.83846         0.00126        14.08105
     2015.84120         2.21896        13.95117
     2015.84394         8.45467        14.16682
     2015.84668         6.73138        14.04429
     2015.84941         8.47108        14.04919
     2015.85215        14.05479        14.19133
     2015.85489         5.78750        13.98548
     2015.85763       -11.24679        14.38492
     2015.86036         5.87791        14.13741
     2015.86310         6.24862        14.07370
     2015.86584        10.84433        14.08595
     2015.86858        10.56603        14.06145
     2015.87132        13.33074        14.00018
     2015.87405         7.19645        14.00018
     2015.87679         5.91815        14.02959
     2015.87953        13.64586        14.04674
     2015.88227        10.70257        14.10311
     2015.88501         9.12527        14.06390
     2015.88774        11.17198        13.82619
     2015.89048        16.17169        14.09330
     2015.89322        16.23040        14.03449
     2015.89596        14.83310        14.03939
     2015.89869        10.07281        14.06390
     2015.90143         5.01952        13.96832
     2015.90417         6.89322        13.80168
     2015.90691        11.19893        13.95117
     2015.90965        11.42564        14.00753
     2015.91238        11.98434        14.11536
     2015.91512         3.02605        14.12271
     2015.91786         4.92776        13.99773
     2015.92060        12.74146        14.03204
     2015.92334        10.80717        14.06390
     2015.92607        -4.02312        13.99528
     2015.92881        -3.90041        14.26484
     2015.93155         0.59029        14.60057
     2015.93429         5.33500        14.42903
     2015.93702         8.66071        14.33346
     2015.93976        16.68241        14.52951
     2015.94250         9.17212        14.47314
     2015.94524         8.21083        14.29425
     2015.94798         5.37053        14.44619
     2015.95071         9.68424        13.83599
     2015.95345         2.01895        13.90461
     2015.95619         3.77365        13.99773
     2015.95893         4.76836        14.50500
     2015.96167         3.68407        14.40698
     2015.96440        -0.11122        13.94382
     2015.96714         6.68448        13.88990
     2015.96988         5.73819        14.01488
     2015.97262        14.14890        13.91441
     2015.97535        14.98060        13.90951
     2015.97809         6.91831        13.95362
     2015.98083         2.49602        14.38002
     2015.98357        -5.39528        13.96342
     2015.98631        -4.38757        14.20358
     2015.98904        -6.13286        13.87275
     2015.99178         1.96384        13.77718
     2015.99452         1.28255        13.78698
     2015.99726         6.19926        13.75022
     2016.00000         7.21897        13.78453
     2016.00273         1.75367        13.75512
     2016.00547         2.44538        13.72817
     2016.00821         1.18109        13.64975
     2016.01095        -2.21121        13.66200
     2016.01368        -0.50850        13.95852
     2016.01642         3.52921        14.23054
     2016.01916        -0.86609        14.40208
     2016.02190         2.89762        14.06145
     2016.02464        17.39733        13.91441
     2016.02737         8.76403        13.82864
     2016.03011        -2.65626        13.90461
     2016.03285        19.09745        14.20603
     2016.03559        27.72416        13.94872
     2016.44183       -14.53814        28.19641
     2016.44353        -2.23951        13.58113
     2016.44626        -4.70481        13.53702
     2016.44900        -0.50310        13.23315
     2016.45174         0.63861        13.44880
     2016.45448         2.23731        13.63504
     2016.45722         3.09502        13.53947
     2016.45995         3.50273        13.62524
     2016.46269        -7.66557        13.52477
     2016.46543        -0.59586        13.47331
     2016.46817         1.91585        13.43900
     2016.47091         4.20856        13.44390
     2016.47364        -0.84374        13.47331
     2016.47638        -0.84503        13.36303
     2016.47912         0.43568        13.52477
     2016.48186         3.25138        13.39734
     2016.48459         0.56709        13.47821
     2016.48733         0.01180        13.46840
     2016.49007         5.26150        13.41939
     2016.49281         9.08021        13.48801
     2016.49555         2.67892        13.64240
     2016.49828         4.25262        13.77718
     2016.50102         1.60633        13.73062
     2016.50376         0.47204        13.76247
     2016.50650         2.16375        13.74777
     2016.50924         3.02245        13.37038
     2016.51197         1.46816        13.36058
     2016.51471        -0.59913        13.42919
     2016.51745         0.09557        13.83109
     2016.52019        -6.11672        13.64485
     2016.52292         0.05799        13.48066
     2016.52566         2.65269        13.50026
     2016.52840        -2.14660        13.34342
     2016.53114         3.15311        13.60319
     2016.53388         5.63081        13.54437
     2016.53661         3.18752        13.68406
     2016.53935         4.47223        13.47821
     2016.54209         7.34194        13.43900
     2016.54483         1.97764        13.34342
     2016.54757        -3.22165        13.39489
     2016.55030         1.98906        13.73307
     2016.55304         5.03576        13.44145
     2016.55578         4.80447        13.65465
     2016.55852         3.54318        13.34342
     2016.56125        11.21188        13.45615
     2016.56399         7.15959        13.60074
     2016.56673         2.26230        13.91931
     2016.56947         7.27700        13.94872
     2016.57221         6.67571        13.53457
     2016.57494         5.19142        13.68651
     2016.57768        11.33013        13.50271
     2016.58042         7.45783        13.47331
     2016.58316         4.69554        13.38999
     2016.58590         1.55925        13.51497
     2016.58863         3.53795        13.39979
     2016.59137         4.15666        13.37038
     2016.59411        10.36237        13.50761
     2016.59685        12.59107        13.41449
     2016.59958         7.08578        13.59093
     2016.60232         7.26549        13.36058
     2016.60506         5.30719        13.44635
     2016.60780         5.93190        13.46595
     2016.61054         4.62561        13.46350
     2016.61327         3.40032        13.52232
     2016.61601         0.39802        13.46595
     2016.61875        -2.02327        13.33607
     2016.62149         4.10044        13.37773
     2016.62423        11.63614        13.84334
     2016.62696         2.32485        13.47085
     2016.62970         5.75956        13.61544
     2016.63244         2.45626        13.75512
     2016.63518         4.66497        13.42674
     2016.63791         8.48368        13.59829
     2016.64065         9.15338        13.29931
     2016.64339         6.25109        13.26256
     2016.64613         6.79380        13.42184
     2016.64887        -1.20049        13.41204
     2016.65160         6.71121        13.75022
     2016.65434         3.04692        13.38999
     2016.65708         1.02763        13.46595
     2016.65982         1.73733        13.52477
     2016.66256        -1.17796        13.61544
     2016.66529         5.03675        13.55908
     2016.66803         7.14745        13.36793
     2016.67077         9.33516        13.59093
     2016.67351         9.42187        13.48556
     2016.67624         6.24157        13.47821
     2016.67898        10.00728        13.38263
     2016.68172         9.78699        13.36303
     2016.68446         4.67770        13.96587
     2016.68720         1.05340        14.22073
     2016.68993         7.00211        13.55417
     2016.69267         5.35582        13.47331
     2016.69541         1.27452        13.35568
     2016.69815        10.71823        13.27971
     2016.70089         5.81694        13.35813
     2016.70362         8.57164        13.68651
     2016.70636         6.38635        13.97567
     2016.70910         9.44406        14.01243
     2016.71184         9.86776        13.34342
     2016.71457        10.02147        13.37773
     2016.71731        11.72418        13.40224
     2016.72005         7.54789        13.45370
     2016.72279        13.44159        13.43165
     2016.72553        13.83330        13.68651
     2016.72826         8.01501        13.82129
     2016.73100         3.96171        13.42919
     2016.73374        -2.12058        13.38018
     2016.73648         8.04513        13.45125
     2016.73921         6.23483        13.39244
     2016.74195         8.66854        13.48066
     2016.74469         5.74525        13.47821
     2016.74743         9.09995        13.43655
     2016.75017        10.72766        13.35568
     2016.75290         4.23037        13.47821
     2016.75564        -2.14692        13.40714
     2016.75838         6.75878        13.51006
     2016.76112         5.67549        13.40959
     2016.76386         4.25420        13.37283
     2016.76659         9.02490        13.39979
     2016.76933        10.82761        13.45370
     2016.77207         6.95432        13.41449
     2016.77481         8.17302        13.46105
     2016.77754        10.36273        13.37528
     2016.78028         3.41644        13.30667
     2016.78302         3.21214        13.35568
     2016.78576         8.85785        13.57623
     2016.78850         8.10156        13.56153
     2016.79123        10.46426        13.59829
     2016.79397        11.43797        13.48556
     2016.79671         1.68168        13.45125
     2016.79945         1.13139        13.44880
     2016.80219         4.63709        13.51742
     2016.80492         5.57380        13.43165
     2016.80766         6.26851        13.45615
     2016.81040         3.34121        13.46105
     2016.81314         6.97492        13.48801
     2016.81587        -4.62537        13.75512
     2016.81861         6.22833        13.61054
     2016.82135         3.93304        13.72326
     2016.82409        -9.15425        13.50761
     2016.82683         0.98245        13.59093
     2016.82956         5.58616        13.34588
     2016.83230         4.90887        13.37773
     2016.83504       -12.21842        13.48311
     2016.83778         5.01728        13.45615
     2016.84052        -3.45101        13.37773
     2016.84325         0.88470        13.38999
     2016.84599         1.22340        13.36548
     2016.84873         3.02711        13.48801
     2016.85147        -0.37418        13.48556
     2016.85420         6.56052        13.44880
     2016.85694         6.71523        13.46105
     2016.85968         6.40294        13.67425
     2016.86242         6.11564        13.43165
     2016.86516         8.46235        13.49781
     2016.86789         3.83606        13.41694
     2016.87063         3.25577        13.35323
     2016.87337         8.36047        13.75267
     2016.87611         5.21518        13.49291
     2016.87885         2.78489        13.41694
     2016.88158        -1.74641        13.45615
     2016.88432        -3.41570        13.32872
     2016.88706       -34.17499        13.68406
     2016.88980        -0.55129        13.62279
     2016.89253        -2.14158        13.54437
     2016.89527        -2.99687        13.50026
     2016.89801         1.71083        13.49291
     2016.90075        -0.07346        13.44390
     2016.90349        -1.37875        13.74532
     2016.90622         1.44996        13.74287
     2016.90896         3.01066        13.34833
     2016.91170         2.35037        13.36058
     2016.91444         2.20908        13.40469
     2016.91718         1.22478        13.82864
     2016.91991       -12.92651        13.74777
     2016.92265        -6.41580        13.51987
     2016.92539        -4.06610        13.41939
     2016.92813        -6.69139        13.33117
     2016.93086        -4.05368        13.25520
     2016.93360         0.40002        13.46595
     2016.93634        -8.29827        13.59338
     2016.93908       -15.84556        13.90461
     2016.94182        -0.71985        13.62524
     2016.94455        -3.87815        13.50516
     2016.94729         0.61256        13.71346
     2016.95003        -1.85873        13.69631
     2016.95277        -2.90003        13.94872
     2016.95551       -10.19032        13.62279
     2016.95824       -17.29061        13.71346
     2016.96098       -10.92891        13.59829
     2016.96372        -9.49020        13.56888
     2016.96646        -6.85549        13.65465
     2016.96919        -8.66479        13.44145
     2016.97193        -2.95108        13.54927
     2016.97467         0.20363        13.39244
     2016.97741        -4.24766        13.42429
     2016.98015         7.22504        13.44390
     2016.98288        15.79875        13.48311
     2016.98562         5.87046        13.42919
     2016.98836        -5.90684        13.41939
     2016.99110        -3.67313        13.39979
     2016.99384        -5.30842        13.41449
     2016.99657        -5.22572        13.42674
     2016.99931        -4.56401        13.48066
     2017.00205        -4.66530        13.43900
     2017.00479        -2.56660        13.37773
     2017.00752        -4.72889        13.43410
     2017.01026        33.30582        13.71101
     2017.01300        39.31053        13.59338
     2017.01574        27.61023        13.34833
     2017.01848        42.74394        13.62034
     2017.71663        -2.57480        13.59338
     2017.71937       -11.49009        13.63749
     2017.72210        -0.54338        13.65465
     2017.72484        -4.46468        13.50271
     2017.72758        -5.94297        13.44145
     2017.73032        -4.90526        13.52232
     2017.73305         4.79545        13.64485
     2017.73579       -17.96685        13.56643
     2017.73853        -2.24314        13.51006
     2017.74127        -1.78643        13.47576
     2017.74401         1.93527        13.55908
     2017.74674         2.12298        13.69386
     2017.74948         0.71369        13.59829
     2017.75222        -6.61461        13.39489
     2017.75496        -2.22990        13.42429
     2017.75770        -4.24519        13.86785
     2017.76043        -3.19049        13.55908
     2017.76317         0.19622        13.63014
     2017.76591        -0.90107        13.62034
     2017.76865        -4.29836        13.46350
     2017.77138        -6.87066        13.47331
     2017.77412        -1.31695        13.60074
     2017.77686        -2.21924        13.63749
     2017.77960         0.37046        13.73062
     2017.78234        -3.48783        13.42674
     2017.78507        -1.70412        13.33117
     2017.78781        -2.37142        13.43655
     2017.79055        -3.37871        13.49536
     2017.79329         0.24600        13.44145
     2017.79603        -0.34730        13.47576
     2017.79876         4.95141        13.68160
     2017.80150        -2.23688        13.74532
     2017.80424         2.75882        13.65955
     2017.80698        -4.75847        13.63014
     2017.80971        -2.57776        13.40224
     2017.81245        -3.70005        13.41449
     2017.81519        -2.69635        13.52722
     2017.81793        -3.76164        13.58603
     2017.82067        -2.52193        13.73307
     2017.82340        -2.78023        13.45125
     2017.82614        -0.13352        13.33362
     2017.82888        -3.54781        13.45860
     2017.83162         1.47089        13.47821
     2017.83436        -1.14040        13.49781
     2017.83709        -0.78369        13.71346
     2017.83983         0.20401        13.45125
     2017.84257        -4.06028        13.46595
     2017.84531        -5.08257        13.64730
     2017.84804       -15.48286        13.59093
     2017.85078        -4.82016        13.66445
     2017.85352        -9.31445        13.79923
     2017.85626        -8.02874        13.84579
     2017.85900        -1.27904        13.89971
     2017.86173        -6.27133        13.83844
     2017.86447        -4.84562        13.55417
     2017.86721        -2.14192        13.58603
     2017.86995        -9.46521        13.67425
     2017.87269       -11.29250        13.43655
     2017.87542        -2.30580        13.46595
     2017.87816        -7.21109        13.48311
     2017.88090        -3.76538        13.58358
     2017.88364        -6.68267        13.57868
     2017.88637        -6.69097        13.56153
     2017.88911        -9.27826        13.45125
     2017.89185        -3.90655        13.52232
     2017.89459        -5.52085        13.70856
     2017.89733        -2.92814        13.71836
     2017.90006        -0.25943        13.61299
     2017.90280        -7.96073        13.74777
     2017.90554        -4.54902        13.60074
     2017.90828        -4.34331        13.48801
     2017.91102        -3.97561        13.82374
     2017.91375        -6.32190        13.82129
     2017.91649        -4.39619        13.50271
     2017.91923         1.69852        13.44145
     2017.92197        -1.27778        13.38263
     2017.92470        -6.41807        13.31647
     2017.92744       -13.14036        13.45615
     2017.93018       -12.44066        13.46840
     2017.93292        -7.66795        13.43655
     2017.93566        -6.58724        13.39244
     2017.93839        -2.78754        13.36793
     2017.94113        -7.00483        13.41204
     2017.94387        -4.80412        13.43900
     2017.94661        -6.56642        13.37283
     2017.94935        -7.16871        13.56398
     2017.95208        -0.11300        13.67915
     2017.95482        -5.12129        13.49046
     2017.95756        -6.65159        13.47576
     2017.96030       -12.07988        13.43655
     2017.96303        -3.96917        13.45370
     2017.96577        -1.07747        13.65220
     2017.96851         1.26324        13.31157
     2017.97125        -9.84305        13.46595
     2017.97399        -6.86635        13.45370
     2017.97672        -6.41064        13.48311
     2017.97946        -6.02993        13.45615
     2017.98220       -11.86523        13.40959
     2017.98494        -7.65052        13.44635
     2017.98767       -16.60481        13.55663
     2017.99041        -7.86310        13.47331
     2017.99315        -7.24640        13.33607
     2017.99589       -11.18369        13.49781
     2017.99863        -9.50798        13.40224
     2018.00136       -16.07828        13.55417
     2018.00410       -13.18757        13.57133
     2018.00684        -9.84086        13.34342
     2018.00958       -16.06616        13.57623
     2018.01232       -13.11445        13.45125
     2018.01505        -7.67374        13.52967
     2018.01779        -6.06804        13.46595
     2018.02053       -17.63533        13.58603
     2018.02327       -15.46962        13.61789
     2018.02600       -14.25191        13.58113
     2018.02874        -9.14021        13.58113
     2018.03148       -15.05050        13.50516
     2018.03422       -14.00779        13.36548
     2018.03696       -12.09009        13.43165
     2018.03969       -10.42638        13.63995
     2018.04243       -19.06367        13.58848
     2018.04517       -15.14897        13.47085
     2018.04791       -11.69326        13.50271
     2018.05065        -7.61755        13.31647
     2018.05338        -8.37785        13.42674
     2018.05612       -14.11814        13.50761
     2018.05886       -17.71443        13.43410
     2018.06160        -8.62572        13.46595
     2018.06433        -8.49902        13.71346
     2018.06707        -7.68531        13.85805
     2018.06981       -20.54960        13.88990
     2018.07255       -13.63590        14.01979
     2018.07529       -18.25619        13.85070
     2018.07802       -17.61948        13.86785
     2018.08076       -19.33878        13.89726
     2018.08350       -13.29507        13.92421
     2018.08624        -8.54936        13.92421
     2018.08898       -10.57966        13.86050
     2018.09171       -22.44595        13.73307
     2018.09445       -14.77924        13.73797
     2018.09719       -11.55053        14.20603
     2018.09993       -14.04783        13.86050
     2018.10266       -16.23812        13.76983
     2018.10540       -13.98641        13.98303
     2018.10814        -7.44171        13.72326
     2018.11088       -10.78700        13.82374
     2018.11362        -8.65129        13.88500
     2018.11635       -17.96059        13.81149
     2018.11909       -13.75988        13.96342
     2018.12183       -10.57817        14.01488
     2018.12457        -6.67347        13.78698
     2018.12731       -12.61876        13.88255
     2018.13004        -8.10005        13.85560
     2018.13278        -0.30034        13.74287
     2018.13552        -2.84664        13.72326
     2018.13826        -5.12793        13.78453
     2018.14099       -10.78522        13.69876
     2018.14373       -12.42152        13.74042
     2018.14647       -10.29681        14.33101
     2018.14921        -9.66110        13.85560
     2018.15195        -7.52340        13.77473
     2018.15468        -7.90269        13.76002
     2018.15742       -13.11598        13.83599
     2018.16016       -11.94428        13.74532
     2018.16290       -11.73457        13.90461
     2018.16564       -12.21586        14.03449
     2018.16837       -28.53815        13.76002
     2018.17111       -18.35945        13.83599
     2018.17385       -15.20574        13.89726
     2018.17659       -10.53403        13.79678
     2018.17932        -8.17833        13.82619
     2018.18206        -3.94062        14.19868
     2018.18480        -6.54291        14.23544
     2018.18754       -12.34721        13.97077
     2018.19028       -11.96250        13.88010
     2018.19301        -6.21079        13.89236
     2018.19575       -27.38009        14.39963
     2018.20123        -0.48767        14.15212
     2018.20397        16.92604        14.04919
     2018.20670         9.70974        13.74042
     2018.20944        18.00245        13.79923
     2018.21218        21.60316        13.86295
     2018.21492       -25.54714        13.80168
     2018.21765         9.16857        13.92421
     2018.23956       -18.78677        13.74042
     2018.24230       -18.06307        13.48801
     2018.24503        -9.84036        13.46840
     2018.24777       -13.16965        13.50761
     2018.25051       -10.60195        13.68651
     2018.25325       -15.64524        13.55663
     2018.25598       -13.21953        13.58603
     2018.25872       -13.70883        13.74287
     2018.26146       -18.64412        13.90706
     2018.26420       -22.19341        14.00263
     2018.26694       -18.73571        13.66200
     2018.26967       -19.70500        13.62769
     2018.27241       -16.35129        13.87765
     2018.27515       -10.40559        13.47821
     2018.27789        -8.36588        13.81149
     2018.28062       -18.46417        14.00263
     2018.28336       -17.04246        13.56643
     2018.28610        -8.16576        13.52722
     2018.28884       -10.25105        13.38018
     2018.29158       -14.09834        13.68896
     2018.29431       -17.95864        13.69631
     2018.29705       -20.51193        13.41939
     2018.29979       -20.09222        13.53702
     2018.30253       -18.08452        13.48066
     2018.30527       -10.36281        13.48311
     2018.30800       -11.22510        13.44145
     2018.31074        -8.21040        13.47821
     2018.31348        -9.21769        13.54437
     2018.31622        -9.03698        13.54192
     2018.31895        -6.70827        14.09575
     2018.32169       -15.10457        13.42429
     2018.32443       -18.30586        13.57378
     2018.32717       -13.69415        13.58358
     2018.32991       -13.39045        14.14477
     2018.33264       -12.06574        13.71101
     2018.33538       -16.35903        14.01488
     2018.33812       -12.87833        13.77718
     2018.34086       -11.90762        13.53947
     2018.34360       -14.38791        13.62524
     2018.34633       -14.90621        13.54192
     2018.34907       -10.22050        13.37528
     2018.35181        -8.58779        13.36793
     2018.35455        -9.73408        13.25030
     2018.35728        -7.33538        13.49046
     2018.36002       -18.31567        13.46105
     2018.36276        -8.75196        13.58848
     2018.36550       -11.67626        13.43655
     2018.36824        -9.37355        13.32137
     2018.37097       -12.52184        13.43900
     2018.37371       -12.74314        13.51006
     2018.37645       -12.36743        14.05409
     2018.37919       -10.23172        13.65220
     2018.38193        -8.53202        13.47576
     2018.38466        -3.32731        13.37773
     2018.38740       -10.49860        13.43410
     2018.39014        -2.57489        13.57623
     2018.39288        -6.44519        13.66200
     2018.39561        -6.02248        13.44390
     2018.39835       -11.45977        13.40469
     2018.40109       -12.94007        13.51006
     2018.40383       -13.85036        13.22335
     2018.40657        -1.10965        13.47576
     2018.40930         0.87505        13.84579
     2018.41204         1.25776        13.34833
     2018.41478        -8.32853        13.33117
     2018.41752        -9.74583        13.32137
     2018.42026        -6.97512        13.36793
     2018.42299        -4.42841        13.36303
     2018.42573        -0.94970        13.39489
     2018.42847        -0.45400        13.35078
     2018.43121        -7.27829        13.43900
     2018.43394        -9.99858        13.35568
     2018.43668        -4.16988        13.42184
     2018.43942        -6.30417        13.25030
     2018.44216        -3.97946        13.50761
     2018.44490        -5.44676        13.46595
     2018.44763        -7.19605        13.39244
     2018.45037        -4.10134        13.31157
     2018.45311         0.56236        13.41694
     2018.45585        -2.11193        13.51006
     2018.45859        -0.09922        13.66200
     2018.46132       -11.66451        13.53702
     2018.46406        -3.22181        13.41449
     2018.46680        -3.81110        13.44390
     2018.46954        -7.86939        13.49536
     2018.47227        -5.99969        13.71836
     2018.47501        -3.40298        13.59829
     2018.47775        -2.28827        13.34588
     2018.48049        -5.45057        13.44880
     2018.48323        -6.31986        13.39734
     2018.48596        -8.91215        13.32137
     2018.48870        -7.50645        13.56888
     2018.49144       -13.82074        13.40224
     2018.49418       -17.85603        13.51251
     2018.49692        -4.11232        13.62524
     2018.49965        -4.70662        13.49046
     2018.50239        -6.07491        13.50271
     2018.50513        -9.09020        13.31402
     2018.50787        -7.94550        13.43410
     2018.51060        -6.99379        13.46595
     2018.51334        -4.64908        13.34833
     2018.51608        -8.93838        13.45125
     2018.51882        -6.28467        13.41204
     2018.52156        -1.72096        13.59093
     2018.52429        -5.10526        13.45125
     2018.52703        -1.21655        13.43655
     2018.52977        -3.67884        13.50761
     2018.53251        -7.27313        13.40959
     2018.53525         1.37957        13.75267
     2018.53798        -4.05072        13.69876
     2018.54072         0.17699        13.62034
     2018.54346         3.48469        13.55172
     2018.54620        -6.10560        13.30422
     2018.54893        -6.20089        13.44390
     2018.55167        -7.24219        13.45370
     2018.55441        -3.74448        13.48311
     2018.55715        -0.63877        13.57378
     2018.55989        -4.70007        13.81394
     2018.56262        -3.77136        13.44390
     2018.56536        -1.72065        13.51497
     2018.56810        -2.12294        13.41204
     2018.57084        -1.49424        13.48311
     2018.57357        -3.04053        13.66935
     2018.57631        -4.12382        14.27465
     2018.57905        -5.70912        13.92666
     2018.58179        -0.68741        13.93402
     2018.58453        -3.35670        13.77473
     2018.58726        -0.04700        13.46105
     2018.59000        -1.12629        13.37038
     2018.59274        -5.94858        13.28951
     2018.59548        -1.97388        13.44635
     2018.59822        -0.29417        13.42674
     2018.60095        -1.22046        13.46350
     2018.60369        -0.44075        13.31647
     2018.60643        -3.05405        13.43410
     2018.60917        -3.86334        13.37038
     2018.61190        -2.23063        13.49046
     2018.61464        -0.34093        13.36303
     2018.61738         1.01078        13.41939
     2018.62012         4.76049        13.37038
     2018.62286         4.10419        13.51006
     2018.62559        -4.21410        13.46595
     2018.62833        -3.68439        13.44390
     2018.63107         2.10931        13.43655
     2018.63381        -2.41798        13.66445
     2018.63655         4.20073        13.44145
     2018.63928         0.95944        13.88500
     2018.64202         2.84214        14.11536
     2018.64476         5.03585        13.32627
     2018.64750        -2.96844        13.45125
     2018.65023         1.45126        13.32872
     2018.65297         5.90397        13.29441
     2018.65571        -2.46732        13.34342
     2018.65845        -1.00962        13.43655
     2018.66119         2.61109        13.58358
     2018.66392        -2.71220        13.72572
     2018.66666         3.65250        13.38018
     2018.66940         3.34921        13.38018
     2018.67214        -1.21508        13.49291
     2018.67488         0.08863        13.45125
     2018.67761        -5.29767        13.59338
     2018.68035        -3.37796        13.59583
     2018.68309        -3.92725        13.65955
     2018.68583         1.54445        13.47085
     2018.68856        -0.10584        13.38999
     2018.69130         0.69187        13.53702
     2018.69404        -1.29843        13.86295
     2018.69678         3.70328        13.37038
     2018.69952        -6.69401        13.36303
     2018.70225        -2.79531        13.64240
     2018.70499        -4.73860        13.65220
     2018.70773        -2.28289        13.51006
     2018.71047        -6.10518        13.48556
     2018.71321        -2.21548        13.29441
     2018.71594         1.38623        13.38018
     2018.71868        -3.11306        13.34342
     2018.72142        -6.10636        13.47331
     2018.72416        -4.14065        13.72817
     2018.72689        -1.64994        13.46350
     2018.72963        -1.82724        13.35813
     2018.73237        -3.56553        13.33607
     2018.73511        -2.48982        13.36548
     2018.73785        -1.27912        13.50516
     2018.74058        -3.80841        13.43655
     2018.74332         1.69130        13.38263
     2018.74606         0.62301        13.30912
     2018.74880        -4.77529        13.30667
     2018.75154        -7.50958        13.52477
     2018.75427         4.57213        13.62279
     2018.75701         2.73383        13.74287
     2018.75975        -7.20146        13.32872
     2018.76249        -1.85175        13.30176
     2018.76522        -7.72805        13.68160
     2018.76796       -11.90534        13.72817
     2018.77070         7.37337        13.72817
     2018.77344         2.80907        13.33362
     2018.77618        -2.03522        13.27236
     2018.77891         0.14849        13.33607
     2018.78165        -1.47681        13.82374
     2018.78439         1.07890        13.56888
     2018.78713        -1.83539        13.31157
     2018.78987        -5.86368        13.46840
     2018.79260        -2.59498        13.21599
     2018.79534         5.66373        13.41204
     2018.79808        -6.54856        13.54927
     2018.80082         3.50514        13.48801
     2018.80355         2.02385        13.27971
     2018.80629         1.63156        13.65465
     2018.80903         1.08326        13.56888
     2018.81177        -4.55503        14.28445
     2018.81451         0.85268        13.59338
     2018.81724        -4.55662        13.32872
     2018.81998        -2.77591        13.23805
     2018.82272        -0.96520        13.62279
     2018.82546        -0.86949        13.48311
     2018.82820        -1.46979        13.55908
     2018.83093        -3.14708        13.46105
     2018.83367        -8.01637        13.24785
     2018.83641         0.38033        13.62769
     2018.83915        -2.00396        13.54437
     2018.84188        -1.28825        13.62769
     2018.84462         1.78145        13.58113
     2018.84736        -2.73284        13.49781
     2018.85010         0.68287        13.45370
     2018.85284        -6.81943        13.60074
     2018.85557        -4.05172        13.48801
     2018.85831        -3.08601        13.49291
     2018.86105        -2.77630        13.54437
     2018.86379        -1.97260        13.63014
     2018.86653        -0.18889        13.59829
     2018.86926        -9.80118        13.56643
     2018.87200        -1.76648        13.56398
     2018.87474         0.85423        13.48066
     2018.87748         1.33794        13.63749
     2018.88021        -2.04236        13.58358
     2018.88295        -1.12565        13.64730
     2018.88569        -0.25994        13.76738
     2018.88843        -0.91524        13.63259
     2018.89117       -33.83953        13.86540
     2018.89390       -22.54682        13.86785
     2018.89664        -7.41011        14.05409
     2018.89938        -6.08841        13.65220
     2018.90212         1.05730        13.67670
     2018.90485        -3.54299        13.81149
     2018.90759       -10.55529        13.76738
     2018.91033        -5.21058        13.78698
     2018.91307       -18.15187        14.16682
     2018.91581         6.37083        13.66200
     2018.91854         3.68654        13.72326
     2018.92128         2.62825        13.86295
     2018.92402         0.60595        13.68651
     2018.92676         0.53366        13.66935
     2018.92950         5.25337        13.69386
     2018.93223        -2.82992        13.91196
     2018.93497         2.15478        13.74532
     2018.93771        -0.62351        13.80904
     2018.94045        -4.81880        13.58358
     2018.94318         2.92690        13.36548
     2018.94592         3.76361        13.47821
     2018.94866         0.56732        13.55172
     2018.95140         3.16902        13.98303
     2018.95414         7.25173        13.56398
     2018.95687        -3.33756        13.63259
     2018.95961       -36.43486        13.70366
     2018.96235         2.03885        13.69631
     2018.96509        -4.13244        13.78208
     2018.96783         0.08127        13.63259
     2018.97056       -18.29103        13.55172
     2018.97330       -15.10932        13.54437
     2018.97604       -13.35961        13.59093
     2018.97878        -8.17691        13.62279
     2018.98151       -14.73520        13.61789
     2018.98425         0.43751        13.73307
     2018.98699        -9.26679        13.74042
     2018.98973       -12.23408        13.72572
     2018.99247       -10.07837        13.73552
     2018.99520        -5.09067        13.79433
     2018.99794       -15.73896        13.65710
     2019.00068       -14.08125        13.69386
     2019.00342        -9.25454        13.69876
     2019.00616       -11.12484        13.51742
     2019.00889        -6.30813        13.50271
     2019.01163        -2.70942        13.47085
     2019.01437         0.32728        13.49291
     2019.01711        -6.82701        13.51006
     2019.01984       -16.02130        13.58113
     2019.02258       -28.14660        13.66935
     2019.02532        18.42111        13.98793
     2019.02806        17.01782        13.89481
     2019.04449        94.04006        14.05899
     2019.04996       107.66047        17.07566
     2019.05817       107.22159        15.80136
     2019.06091       109.41630        15.23037
     2019.06365        97.41701        15.39456
     2019.06639        89.37071        14.91180
     2019.06913        85.94142        14.86279
     2019.07186        74.05113        14.54176
     2019.07734        66.26354        13.84579
     2019.52635        -9.77752        13.26991
     2019.52908       -11.88282        14.12271
     2019.53182       -11.57411        13.72817
     2019.53456       -15.45040        13.71346
     2019.53730        -5.08570        13.81884
     2019.54004        -0.47799        13.76247
     2019.54277        -2.80728        13.73797
     2019.54551        -5.10057        14.31140
     2019.54825        -3.80487        13.43900
     2019.55099        -7.91916        13.51251
     2019.55373        -4.57545        13.84334
     2019.55646        -7.17675        13.63014
     2019.55920        -8.85904        13.96832
     2019.56194        -3.94733        13.34342
     2019.56468        -8.20763        13.72817
     2019.56741        -3.50692        13.43165
     2019.57015        -5.76321        13.53212
     2019.57289        -3.53751        13.74287
     2019.57563        -7.38880        13.39489
     2019.57837        -4.89109        13.71836
     2019.58110        -2.62938        13.42674
     2019.58384        -6.20768        13.67670
     2019.58658        -4.41097        13.53947
     2019.58932        -5.61726        13.43655
     2019.59206        -0.60756        13.58848
     2019.59479        -1.78285        13.62279
     2019.59753        -3.11514        14.23544
     2019.60027        -1.60844        14.22808
     2019.60301        -6.30973        13.49781
     2019.60574        -4.39502        14.11291
     2019.60848        -4.34532        13.99283
     2019.61122        -9.68161        13.47821
     2019.61396        -3.86790        13.63504
     2019.61670         0.31581        13.43900
     2019.61943        -3.24849        13.44390
     2019.62217         1.77122        13.73307
     2019.62491        -1.64107        13.46105
     2019.62765        -1.80437        13.51987
     2019.63039         0.86434        13.55417
     2019.63312        -6.02895        13.63259
     2019.63586        -0.75625        13.51251
     2019.63860        -1.41154        13.69631
     2019.64134        -1.07583        13.56153
     2019.64407        -2.88913        13.56153
     2019.64681       -11.20442        13.60809
     2019.64955        -6.08571        13.57868
     2019.65229         7.32000        13.61544
     2019.65503        -4.00330        13.68896
     2019.65776        -6.33859        13.54927
     2019.66050        -2.64888        13.84579
     2019.66324        -1.64418        13.53702
     2019.66598        -3.46647        13.49291
     2019.66872        -4.67476        13.49046
     2019.67145        -5.24406        13.33362
     2019.67419        -3.62735        13.63504
     2019.67693        -6.09364        13.95607
     2019.67967        -0.65594        14.10065
     2019.68240        -3.21723        13.44390
     2019.68514        -6.88952        13.44635
     2019.68788        -0.12881        13.77718
     2019.69062        -2.49711        13.77473
     2019.69336        -6.09940        13.46105
     2019.69609        -5.35469        13.40959
     2019.69883        -7.31599        13.42184
     2019.70157        -4.18528        13.36058
     2019.70431        -2.17557        13.43900
     2019.70705        -3.99387        13.73552
     2019.70978        -3.62516        13.52722
     2019.71252         0.48255        13.60074
     2019.71526        -4.72975        13.45370
     2019.71800        -5.99604        14.02224
     2019.72073        -6.15933        14.00998
     2019.72347        -1.00563        13.44145
     2019.72621        -5.59192        13.52232
     2019.72895        -6.69021        13.42429
     2019.73169        -7.49750        13.62524
     2019.73442        -0.92880        13.44635
     2019.73716        -5.15909        13.56398
     2019.73990         5.28962        14.27465
     2019.74264        -3.37368        13.55663
     2019.74538       -14.11297        13.47085
     2019.74811         1.89174        13.64975
     2019.75085        -0.90156        13.70121
     2019.75359         3.18615        14.07860
     2019.75633        -2.66114        13.66445
     2019.75906         0.90256        13.34588
     2019.76180        -0.34773        13.39244
     2019.76454        -6.09402        13.49536
     2019.76728        -3.32131        13.52722
     2019.77002        -0.04161        13.69386
     2019.77275        -3.80190        13.84334
     2019.77549         0.50481        13.49291
     2019.77823        -1.73849        13.55908
     2019.78097         4.45422        13.60564
     2019.78371         1.04393        13.59338
     2019.78644        -0.20237        13.62034
     2019.78918         1.00234        13.51987
     2019.79192         7.26105        13.80658
     2019.79466         2.09075        13.53702
     2019.79739        -1.13454        13.66935
     2019.80013         3.32017        13.52722
     2019.80287        -1.07512        13.50516
     2019.80561         0.65058        13.65710
     2019.80835        -1.68471        13.59583
     2019.81108        -3.46500        13.58603
     2019.81382         1.02870        13.55417
     2019.81656         0.82541        13.59829
     2019.81930        -2.99288        13.51742
     2019.82203        -4.68218        13.76738
     2019.82477        -0.61147        13.69386
     2019.82751        -1.53876        13.72572
     2019.83025         0.45994        13.96832
     2019.83299         0.33265        13.76002
     2019.83572         1.18036        13.66935
     2019.83846         5.94307        13.69876
     2019.84120         1.90977        13.58603
     2019.84394        -0.28152        13.91441
     2019.84668         0.30119        13.51251
     2019.84941         3.08789        13.62524
     2019.85215         0.86260        13.89726
     2019.85489         0.26031        13.64975
     2019.85763         2.57401        13.64240
     2019.86036         1.42172        13.51006
     2019.86310        -2.03157        13.57623
     2019.86584         7.66313        14.10801
     2019.86858         5.34384        13.78943
     2019.87132         4.02655        13.83844
     2019.87405         6.10426        13.67180
     2019.87679         1.10696        13.83599
     2019.87953         5.19867        13.47331
     2019.88227         8.67838        14.00998
     2019.88501        -1.14092        13.68651
     2019.88774         4.99279        13.88010
     2019.89048        10.21150        13.45615
     2019.89322        12.32520        13.33362
     2019.89596         5.42891        13.47085
     2019.89869         5.03562        13.62769
     2019.90143         7.41832        13.41449
     2019.90417         6.70803        13.47821
     2019.90691        -0.54826        13.51742
     2019.90965        -5.13455        13.60319
     2019.91238         3.57115        13.42919
     2019.91512         3.40186        13.80658
     2019.91786       -17.48243        13.75267
     2019.92060         6.23627        13.75757
     2019.92607         1.63269        13.50271
     2019.92881         7.59839        13.67425
     2019.93155         3.48410        13.79678
     2019.93429        -6.41019        13.69141
     2019.93702        -2.08049        13.55663
     2019.93976        -6.23978        13.45615
     2019.94250        -9.66807        13.68406
     2019.94524       -12.03136        13.67425
     2019.94798        -6.74166        13.63014
     2019.95071        -7.31495        14.33591
     2019.95345        -0.25124        13.50761
     2019.95619        -3.02854        13.56398
     2019.95893        -7.19983        13.62034
     2019.96167        -3.97112        13.48311
     2019.96440       -16.40342        13.76247
     2019.96714        -4.89671        13.85315
     2019.96988        -6.06900        13.49781
     2019.97262        -2.13730        13.57378
     2019.97535        -5.05259        13.60809
     2019.97809        -3.11188        13.52967
     2019.98083        -5.07017        13.52232
     2019.98357       -12.60547        13.45615
     2019.98631        -1.89576        13.57868
     2019.98904        -7.20005        13.47576
     2019.99178        -2.82635        13.71346
     2019.99452       -11.81264        13.51742
     2019.99726        -8.71193        13.65710
     2020.00001         4.68590        13.75512
     2020.00273        -2.38052        13.90461
     2020.00547        -5.15681        13.88745
     2020.00821        -5.50011        14.09820
     2020.01095        -5.33040        13.75512
     2020.01368       -12.89269        13.77963
     2020.01642       -10.21398        13.79433
     2020.01916        -4.05528        13.45125
     2020.02190        -9.09257        13.78698
     2022.62409        28.61445        47.06590
     2022.62559        -0.01229        13.64975
     2022.62833         3.00342        13.70856
     2022.63107        -0.81988        13.74287
     2022.63381         4.52183        13.70856
     2022.63655         8.31354        13.50761
     2022.63928         1.57124        13.52967
     2022.64202         4.99695        14.72555
     2022.64476         9.83566        14.58342
     2022.64750         5.28036        13.91686
     2022.65023         7.75207        13.82129
     2022.65297        10.09778        13.93892
     2022.65571         9.19248        13.99528
     2022.65845        11.10319        14.04919
     2022.66119         7.17990        13.84824
     2022.66392         5.38161        13.69386
     2022.66666         5.29631        13.51251
     2022.66940         4.07902        13.62524
     2022.67214         5.64073        13.63749
     2022.67488        11.96143        13.54437
     2022.67761         7.29114        13.56153
     2022.68035         7.46985        13.80413
     2022.68309         9.76655        13.80168
     2022.68583         9.76026        14.18397
     2022.68856        13.40397        13.84579
     2022.69130        11.91867        13.91686
     2022.69404         7.53438        14.12761
     2022.69678         7.13109        14.00263
     2022.69952         1.77480        14.17662
     2022.70225        13.03750        14.19623
     2022.70499        15.64021        14.15702
     2022.70773         7.65292        14.02469
     2022.71047         7.47462        13.73797
     2022.71321        13.85233        13.75512
     2022.71594        -9.24096        14.19868
     2022.71868         2.90074        13.83109
     2022.72142         3.47945        13.64975
     2022.72416         6.40316        13.90951
     2022.72689        10.91686        13.99038
     2022.72963         9.84457        13.70856
     2022.73237        10.34728        13.70856
     2022.73511        11.48699        13.61544
     2022.73785         6.09269        13.68896
     2022.74058        11.49640        14.04429
     2022.74332         9.44111        14.01243
     2022.74606        14.40281        13.82864
     2022.74880        12.11252        13.61544
