# ================= DQRFIT RESULTS ================
# INPUT FILE: series/P791.rad
# OUTPUT: LDETRENDED
# FILTER FUNCTION: f(t)
# f(t)=+line(t)+annual(t)+jumps(t)
# line(t)=+P 1+P 2*t
# annual(t)=+P 3*sin(2*pi*t+P 4)
# jumps(t)=+P 5*heav(t-2009.2272  )+P 6*heav(t-2012.2245  )
# heav(t)=(t<0?0:1)
# TOTAL OBSERVATIONS MTOT= 3748
# INITIAL TIME INTERVAL= 2022.6201 - 2009.0459 = 13.5743
# TOTAL OBSERVATIONS AFTER PREFILTER M= 3655
# TIME-SPAN= 2022.6201 - 2009.0459 = 13.5743
# OBSERVATIONS: USED M=  3655 REJECTED MTOT-M=    93 %USED=   97.5187
# N=  6 PARAMETERS
# MAXSIG= 175.00000
# MAXRES=  47.05429
# SCALE FACTOR FOR LENGTHS: SCL=  10.00000
# SCALE FACTOR FOR SIGMAS: SCLSIG=   1.00000
# CHI^2=   4882.734 DOF=  3649 CHI^2/DOF=   1.33810
# RMS=      7.116 SDEV=      7.117 MEAN=   -0.02325
#  P #       PARAMETER +-    SIGMA %error PARAMETER NAME
# P 1 =      3130.34981 +-   80.420   2.57 YZERO                              
# P 2 =        -1.55087 +-    0.040   2.58 SLOPE                              
# P 3 =         7.76397 +-    0.167   2.15 ANNUAL AMPLITUDE                   
# P 4 =         3.02749 +-    0.030   1.00 ANNUAL PHASE                       
# P 5 =        -0.27058 +-    0.940 347.39 OFFSET 2009.2272                   
# P 6 =        -8.34762 +-    0.380   4.55 OFFSET 2012.2245                   
#       T            LDETRENDED       SIG_OBS
     2009.04585       -14.18974         7.89144
     2009.04859       -12.17050         7.06204
     2009.05133        -7.11525         7.11063
     2009.05407        -7.52200         7.13839
     2009.05681        -2.26776         7.16152
     2009.05954        -0.05951         7.19160
     2009.06228       -10.22627         7.06436
     2009.06502       -13.05702         7.16268
     2009.06776       -12.47677         7.17193
     2009.07049       -10.73853         7.13723
     2009.07323        -6.25128         7.24481
     2009.07597        -5.80704         7.04932
     2009.07871       -13.31279         7.25291
     2009.08145        -8.52854         7.25638
     2009.08418        -0.71230         7.34429
     2009.08692        -3.18605         7.19276
     2009.08966        -8.33781         7.24018
     2009.09240        -8.04156         7.13260
     2009.09514         1.45669         7.15805
     2009.09787        -1.93907         7.28183
     2009.10061         2.06518         7.19623
     2009.10335        -6.49557         7.17193
     2009.10609         0.42367         7.09674
     2009.10882        -3.23308         7.08402
     2009.11156         3.12716         7.02850
     2009.11430        -7.06659         7.23093
     2009.11704        -4.05834         7.27026
     2009.11978         0.68290         7.08286
     2009.12251        -5.69685         7.08749
     2009.12525        -1.40461         7.16384
     2009.12799         1.22864         7.07824
     2009.13073        -2.81011         7.18235
     2009.13347        -9.70487         7.13839
     2009.13620        -5.28362         7.17193
     2009.13894       -10.03338         7.09906
     2009.14168        -5.21013         7.14996
     2009.14442        -5.19488         7.19507
     2009.14715        -6.11964         7.34082
     2009.14989         6.63261         7.30265
     2009.15263         2.56885         7.27951
     2009.15537        -1.93490         7.36627
     2009.15811        -8.22865         7.41138
     2009.16084        -9.15241         7.15805
     2009.16358         3.74284         7.21705
     2009.16632        -3.88792         7.28183
     2009.16906        -2.02767         7.25291
     2009.17180        -9.91042         7.12104
     2009.17453        -4.44918         7.26216
     2009.17727        -6.07493         7.46807
     2009.18001        -3.06569         7.30728
     2009.18275         0.39056         7.28530
     2009.18548       -10.49719         7.29918
     2009.18822       -12.98595         7.47501
     2009.19096       -12.43470         7.27951
     2009.19370        -7.22046         7.30612
     2009.19644        -4.96421         7.29918
     2009.19917         0.14104         7.26795
     2009.20191         4.26428         7.43799
     2009.20465        -4.96247         7.45534
     2009.20739         7.33478         7.54094
     2009.21013       -10.37398         7.60456
     2009.21286        -7.21873         7.59878
     2009.21560        -5.54149         7.59994
     2009.21834       -10.01924         7.58027
     2009.22108        -2.56299         7.64852
     2009.22381        -7.83075         7.70636
     2009.22655        -0.50850         7.79080
     2009.22929         0.59374         7.72255
     2009.23203        15.24499         8.12048
     2009.23477         6.59724         8.10313
     2009.23750        -2.98452         7.84054
     2009.24298       -15.60103         8.22806
     2009.24572         8.97822         8.03141
     2009.24846        30.56847         8.71390
     2009.25119        32.40771         8.81570
     2009.26214         9.50070         8.75554
     2009.26488        -9.65506         8.18179
     2009.26762       -12.81081         8.08231
     2009.27036       -11.33157         8.07999
     2009.27310       -18.11332         8.22575
     2009.27583        -8.26607         8.02331
     2009.27857       -19.93383         7.98514
     2009.28131         5.74142         8.24772
     2009.28405        39.05866         8.33217
     2009.29500        24.03265         8.39926
     2009.29774         7.69389         8.21649
     2009.30047        -8.13386         8.40851
     2009.30321        -9.05061         8.21996
     2009.30595        -4.19237         8.17253
     2009.30869         3.01588         8.12279
     2009.31143       -10.85787         8.05454
     2009.31416       -16.51263         8.01984
     2009.31690       -14.58038         7.96894
     2009.31964       -10.69414         7.97357
     2009.32238       -14.57389         8.02447
     2009.32512       -18.40164         8.26276
     2009.32785        -7.51540         8.07537
     2009.33059        -3.46115         8.21996
     2009.33333       -13.16691         8.14940
     2009.33607        -3.45166         8.23963
     2009.33880        -4.42941         7.93193
     2009.34154         3.02783         8.19220
     2009.34428        -8.03992         8.30094
     2009.34702         6.88232         8.09735
     2009.34976        -6.79743         8.40620
     2009.35249       -13.51418         8.12858
     2009.35523        -7.12794         8.06033
     2009.35797       -15.01769         8.12626
     2009.36071         0.82255         8.23963
     2009.36892         3.60929         8.49643
     2009.37166       -18.40946         7.90879
     2009.37440       -11.82022         8.04876
     2009.37713        -6.51997         8.15403
     2009.37987        -3.55272         8.43165
     2009.38261        -7.14848         8.19567
     2009.38535       -11.73523         8.15518
     2009.38809        -6.30499         7.97473
     2009.39082       -16.35074         7.94234
     2009.39356        -9.30749         7.81509
     2009.39630        -8.66725         7.84633
     2009.39904        -2.94800         7.84401
     2009.40177        -0.43476         7.78502
     2009.40451         5.66149         7.73759
     2009.40725         1.66474         7.72371
     2009.40999        -4.19802         7.63233
     2009.41273        -2.04777         7.68554
     2009.41546        13.10248         7.65777
     2009.41820        -3.94028         7.55598
     2009.42094       -11.36803         7.51202
     2009.42368       -11.24979         7.49814
     2009.42642       -15.64254         7.48889
     2009.42915       -16.18729         7.48657
     2009.43189        -5.21805         7.26679
     2009.43463        -4.15580         7.18813
     2009.43737         3.22944         7.22168
     2009.44010        -7.80231         7.22515
     2009.44284        -9.89406         7.30612
     2009.44558        -9.98782         7.20664
     2009.44832       -11.44057         7.24250
     2009.45106       -11.83833         7.13376
     2009.45379        -3.95408         7.10369
     2009.45653         0.95717         7.17309
     2009.45927       -13.07159         7.19276
     2009.46201        -7.69034         7.14070
     2009.46475        -0.45710         7.24018
     2009.46748        -6.08385         7.12566
     2009.47022        -1.26360         7.25059
     2009.47296       -15.43936         7.19276
     2009.47570        -0.70611         7.06320
     2009.47843        -2.97287         7.11988
     2009.48117        -1.66662         7.13954
     2009.48391         1.37463         7.07245
     2009.48665        -4.50913         7.19391
     2009.48939         1.28012         7.20664
     2009.49212         3.28736         7.22862
     2009.49486        -5.15839         7.23787
     2009.49760        -0.25914         7.20779
     2009.50034         2.20310         7.09559
     2009.50308        -0.97465         7.08865
     2009.50581         4.54859         7.04932
     2009.50855        -1.32416         7.11410
     2009.51129        -0.90691         7.14649
     2009.51403        -4.31767         7.04932
     2009.51676        -7.54642         7.11641
     2009.51950         2.89283         7.11872
     2009.52224        -3.20593         7.11178
     2009.52498        -5.24568         7.18119
     2009.52772         0.94256         7.16268
     2009.53045        -0.28019         7.26101
     2009.53319        -0.52494         7.06898
     2009.53593        -0.76770         7.02965
     2009.53867        -2.09845         7.11641
     2009.54141         1.68979         7.13376
     2009.54414         8.00304         7.20201
     2009.54688        -0.72671         7.09906
     2009.54962         3.50153         7.11410
     2009.55236        -0.17122         7.22052
     2009.55509         6.32602         7.22283
     2009.55783         2.80327         7.21011
     2009.56057         1.69652         7.39056
     2009.56331         5.06376         7.37090
     2009.56605       -13.00799         7.38709
     2009.56878        -8.15375         7.16962
     2009.57152         3.79650         7.10600
     2009.57426         1.15375         7.14417
     2009.57700         3.40299         7.32231
     2009.57974        12.85624         7.28067
     2009.58247         8.38048         7.14649
     2009.58521         5.15373         7.27373
     2009.58795        -0.68602         7.12104
     2009.59069         4.01322         7.29686
     2009.59342         9.50847         7.34198
     2009.59616         9.59571         7.05973
     2009.59890        -8.48904         7.17078
     2009.60164        -4.14779         7.13492
     2009.60438        -1.14155         7.13839
     2009.60711         0.11870         7.11757
     2009.60985         4.22294         7.14533
     2009.61259        -0.48681         7.34314
     2009.61533       -10.94556         7.19044
     2009.61807        -4.70332         7.09443
     2009.62080         6.10993         7.21242
     2009.62354        -4.85882         7.07245
     2009.62628         7.28242         7.11988
     2009.62902         7.81367         7.06898
     2009.63175         3.42991         7.06204
     2009.63449         2.67916         7.08749
     2009.63723         0.34841         7.22630
     2009.63997         4.45765         7.17656
     2009.64271         6.38290         7.23093
     2009.64544         7.83914         7.16499
     2009.64818         5.24239         7.25291
     2009.65092         2.65064         7.15343
     2009.65366         4.15288         7.13492
     2009.65639         4.77213         7.09906
     2009.65913        -3.73663         7.22515
     2009.66187        -1.39738         7.01693
     2009.66461         0.82687         6.96950
     2009.66735         7.76211         7.00999
     2009.67008        13.68236         7.12451
     2009.67282         6.61760         7.24134
     2009.67556         4.59985         7.11872
     2009.67830        10.02010         7.24018
     2009.68104        10.96934         7.29802
     2009.68377       -13.94441         7.14996
     2009.68651         8.27583         7.05626
     2009.68925         7.95508         7.10831
     2009.69199        -3.03967         7.06783
     2009.69472         5.05057         6.93942
     2009.69746         5.67382         7.06204
     2009.70020        10.75206         7.19507
     2009.70294        15.81431         7.14996
     2009.70568         4.81656         7.11641
     2009.70841        -4.43120         7.12913
     2009.71115         1.63905         7.24712
     2009.71389         6.23829         7.37321
     2009.71663        -2.32446         7.22515
     2009.71937         1.97679         7.15921
     2009.72210        -4.25997         7.03081
     2009.72484         0.18528         7.11178
     2009.72758         1.46853         7.14649
     2009.73032         5.80377         7.07939
     2009.73305         5.90202         7.27604
     2009.73579         7.16226         7.10831
     2009.73853         7.98251         6.99726
     2009.74127         8.05476         7.11294
     2009.74401         3.38900         7.15227
     2009.74674        -6.63675         7.20085
     2009.74948        -4.62651         7.14649
     2009.75222        -6.59926         7.07592
     2009.75496         1.77399         6.94868
     2009.75770         3.36723         6.98107
     2009.76043        -3.10252         7.01230
     2009.76317         5.32372         7.08055
     2009.76591         4.50297         7.16152
     2009.76865         3.94222         7.18235
     2009.77138        -1.53954         6.96950
     2009.77412         8.78171         6.99032
     2009.77686         7.51095         7.06898
     2009.77960         6.50220         7.05857
     2009.78234        14.11745         7.02734
     2009.78507        20.79569         7.17656
     2009.78781         3.28794         7.26332
     2009.79055        -1.03182         7.28530
     2009.79329         9.39643         7.34545
     2009.79603         0.25268         7.27026
     2009.79876         7.02292         7.24597
     2009.80150         5.19517         7.21126
     2009.80424         5.60241         7.27951
     2009.80698         5.81566         7.22515
     2009.80971         7.25991         7.41023
     2009.81245         9.74015         7.29918
     2009.81519        13.76840         7.27604
     2009.81793        13.49364         7.45071
     2009.82067        10.19689         7.19391
     2009.82340         2.82814         7.17078
     2009.82614         7.00238         7.46228
     2009.82888         0.37863         7.39866
     2009.83162        19.30288         7.30843
     2009.83436         0.31312         7.21936
     2009.83709         1.46837         7.23093
     2009.83983         3.59761         7.19970
     2009.84257         7.55686         7.18813
     2009.84531         9.40811         7.36627
     2009.84804        24.01535         7.35586
     2009.85078        21.14860         7.31769
     2009.85352        16.37484         7.28298
     2009.85626         7.08009         7.41370
     2009.85900         6.66434         7.50624
     2009.86173         3.24458         7.35933
     2009.86447         4.54783         7.83013
     2009.86721         7.48007         7.60225
     2009.86995         7.82232         7.40213
     2009.87269         6.06357         7.42874
     2009.87542         2.14681         7.47385
     2009.87816        11.21706         7.44030
     2009.88090         6.65030         7.44377
     2009.88364        14.51755         7.40329
     2009.88637        12.17280         7.37205
     2009.88911         7.51604         7.27142
     2009.89185         5.61429         7.27836
     2009.89459         3.73453         7.38825
     2009.89733        -6.85422         7.36049
     2009.90006        -0.70597         7.33504
     2009.90280        -0.13773         7.21820
     2009.90554        -0.79248         7.22168
     2009.90828        -6.87924         7.11410
     2009.91102        -9.14999         7.16962
     2009.91375        -0.81874         7.20664
     2009.91649        -5.26350         7.27720
     2009.91923        -4.81725         7.07708
     2009.92197        -8.81701         7.06088
     2009.92470        -8.34076         7.15111
     2009.92744        -7.66951         7.09443
     2009.93018        -7.15127         7.15574
     2009.93292        -0.10102         7.13839
     2009.93566        -2.68478         7.03891
     2009.93839        -0.34753         7.27951
     2009.94113         0.09272         7.02618
     2009.94387        -7.30404         7.26448
     2009.94661        -3.32879         7.31422
     2009.94935        -2.49554         7.03197
     2009.95208        -1.54930         7.00536
     2009.95482         0.81995         7.04700
     2009.95756        12.06319         7.24134
     2009.96030        -5.99656         7.27489
     2009.96303        -4.73231         7.21820
     2009.96577       -11.80707         7.30265
     2009.96851        -5.95382         7.34661
     2009.97125         0.89442         7.22630
     2009.97399        -6.88733         7.28414
     2009.97672       -11.41408         7.10253
     2009.97946       -14.18384         7.03544
     2009.98220        -8.19459         6.96950
     2009.98494        -5.78235         7.01230
     2009.98767        -2.90410         7.03891
     2009.99041        -5.55585         6.97760
     2009.99315        -6.66761         7.02850
     2009.99589        -9.87236         6.95793
     2009.99863       -11.84112         7.05626
     2010.00410        -9.16762         7.13954
     2010.00684        -8.62138         7.15805
     2010.00958        -6.56413         7.09906
     2010.01232       -14.34389         7.20548
     2010.01505       -16.02964         7.17193
     2010.01779       -10.78339         7.09443
     2010.02053        -7.12515         7.20432
     2010.02327       -10.87390         7.21936
     2010.02600        -6.73066         7.04353
     2010.02874        -8.79641         7.05279
     2010.03148         5.25684         7.10021
     2010.03422         0.02008         7.25869
     2010.03696       -11.35067         7.55251
     2010.03969        -2.15643         7.20201
     2010.04243        -5.07618         7.11178
     2010.04517         5.73707         7.06204
     2010.04791         9.84131         7.23209
     2010.05065         7.19756         7.31537
     2010.05338         4.07981         7.38131
     2010.05612         5.87205         7.27373
     2010.05886         3.86330         7.09327
     2010.06160       -14.03446         7.10600
     2010.06433        -4.91521         7.13839
     2010.06707        -5.20496         7.11410
     2010.06981        -2.08572         7.23787
     2010.07255        -7.08747         7.30033
     2010.07529        -6.84723         7.30033
     2010.07802        -6.67198         7.03775
     2010.08076       -12.73673         7.05279
     2010.08350        -0.97849         7.00420
     2010.08624         1.92076         7.08055
     2010.08898         7.59800         7.23903
     2010.09171         1.06725         7.01808
     2010.09445         1.99150         7.26679
     2010.09719        -5.86026         7.39288
     2010.09993        -5.42701         7.02503
     2010.10266       -11.15677         7.07592
     2010.10540        -2.70552         7.18466
     2010.10814         2.45473         7.20895
     2010.11088        -3.40503         7.16499
     2010.11362        -2.97478         7.19507
     2010.11635         6.72846         7.10369
     2010.11909        -1.07229         7.18119
     2010.12183        -9.65704         7.23093
     2010.12457        -3.34180         7.22746
     2010.12731        -4.44355         7.46807
     2010.13004        -3.32731         7.30033
     2010.13278       -10.12106         7.15458
     2010.13552        -9.27181         7.19854
     2010.13826        -7.42757         7.05973
     2010.14099        -8.87232         7.09790
     2010.14373        -7.32108         7.38131
     2010.14647        -5.56783         7.31075
     2010.14921        -6.30958         7.23209
     2010.15195        -6.21134         7.08518
     2010.15468         1.36891         7.13954
     2010.15742        -0.30884         7.25059
     2010.16016        -3.91860         7.08633
     2010.16290        -4.64735         7.11988
     2010.16564         0.56589         7.09443
     2010.16837        -2.43786         7.12104
     2010.17111        -2.05561         7.04238
     2010.17385        -4.29937         6.99611
     2010.17659        -2.63612         7.10369
     2010.17932         4.23012         7.08286
     2010.18206        -1.57863         7.11178
     2010.18480         0.01262         7.07361
     2010.18754        -1.00814         7.05857
     2010.19028         5.87011         7.03775
     2010.19301         6.74735         7.10947
     2010.19575        -0.80140         7.21011
     2010.19849         0.09885         7.16962
     2010.20123        -6.54091         7.30843
     2010.20397        -0.40266         7.11525
     2010.20670        -7.02942         7.00883
     2010.20944        -7.63817         7.09559
     2010.21218        -3.88892         7.01808
     2010.21492        -2.52468         7.13607
     2010.21765        -2.55743         7.02387
     2010.22039       -15.19619         7.02734
     2010.22313       -13.90994         7.07708
     2010.22587        -4.57069         7.22399
     2010.22861        -4.83845         7.28183
     2010.23134        -0.09720         7.29455
     2010.23408        -9.79096         7.25406
     2010.23956         6.80154         7.29108
     2010.24230         4.31278         7.49930
     2010.24503        -9.75897         7.43568
     2010.24777        -2.45673         7.45650
     2010.25051        -0.27448         7.64158
     2010.25325        -2.67823         7.49004
     2010.25598         2.91901         7.47038
     2010.25872        -1.48474         7.50508
     2010.26146         5.63851         7.70405
     2010.26420       -12.09825         7.76767
     2010.26694         3.70100         7.60919
     2010.26967         3.67524         7.78039
     2010.27241        -2.63551         7.75379
     2010.27515        -5.20326         7.58143
     2010.27789         1.12798         7.69363
     2010.28062        -4.32177         7.44262
     2010.28336         2.15647         7.56523
     2010.28610        -2.32528         7.67166
     2010.28884        -1.28103         7.35933
     2010.29158        -2.66779         7.25753
     2010.29431        -4.76354         7.36511
     2010.29705        -0.36530         7.35008
     2010.29979        -4.34705         7.45650
     2010.30253        -4.21280         7.40329
     2010.30527        -1.60856         7.53631
     2010.30800        -6.52031         7.31653
     2010.31074        -4.48407         7.27951
     2010.31348        -0.32282         7.30033
     2010.31622         0.53243         7.35355
     2010.31895         7.24667         7.44609
     2010.32169        -5.47108         7.34198
     2010.32443        -6.15484         7.49698
     2010.32717         0.14141         7.34545
     2010.32991        -0.56834         7.48889
     2010.33264        -2.34710         7.41138
     2010.33538         5.57615         7.71099
     2010.33812         1.73039         7.47269
     2010.34086        -9.32136         7.40097
     2010.34360        -8.87811         7.36974
     2010.34633         0.63613         7.46460
     2010.34907        -0.46762         7.35470
     2010.35181        -2.90938         7.43568
     2010.35455        -0.44813         7.35123
     2010.35728       -12.04988         7.34082
     2010.36002        -4.56264         7.33041
     2010.36276        -2.87339         7.33966
     2010.36550        -2.01914         7.87525
     2010.36824         2.06410         7.60919
     2010.37097         3.54535         7.40213
     2010.37371         1.87359         7.31190
     2010.37645         0.55784         7.38825
     2010.37919         3.02609         7.63117
     2010.38193        -1.45267         7.51087
     2010.38466        -0.03342         7.16615
     2010.38740        -1.50418         7.18697
     2010.39014        -3.58593         7.22168
     2010.39288        -7.73068         7.17887
     2010.39561        -7.51844         7.15805
     2010.39835        -9.02519         7.20779
     2010.40109        -4.63095         7.06898
     2010.40383        -4.77370         7.18235
     2010.40657        -9.30945         7.18119
     2010.40930       -10.43221         7.24597
     2010.41204       -11.69296         7.19507
     2010.41478        -3.95572         7.20201
     2010.41752         3.48453         7.21705
     2010.42026         5.87678         7.27026
     2010.42299         5.71602         7.14996
     2010.42573        -7.57773         7.13145
     2010.42847         4.99351         7.35008
     2010.43121        -0.17924         7.30612
     2010.43394        -4.32599         7.08865
     2010.43668       -14.55175         7.35239
     2010.43942       -10.28150         7.00999
     2010.44217       -12.86223         7.04816
     2010.44490        -9.01501         7.00999
     2010.44763        -6.78476         6.97066
     2010.45037         1.77348         6.97413
     2010.45311        -4.82627         6.99611
     2010.45585        -6.94903         7.03312
     2010.45859       -13.25578         7.26216
     2010.46132        -0.32553         7.18119
     2010.46406        -4.97329         7.02618
     2010.46680        -5.12904         7.02155
     2010.46954       -20.45879         7.03312
     2010.47227        -3.43655         6.97297
     2010.47501        -2.92730         7.05973
     2010.47775        -3.34306         7.22977
     2010.48049        -4.42581         7.30149
     2010.48323       -14.59056         7.04238
     2010.48596        -2.29732         6.91513
     2010.48870         3.01893         6.94521
     2010.49144        -1.22483         6.97066
     2010.49418        -2.73558         6.95909
     2010.49692        -4.84233         6.85614
     2010.49965        -5.91209         6.82953
     2010.50239         1.49316         6.90935
     2010.50513         6.10940         7.02618
     2010.50787        -3.21135         7.00189
     2010.51060        -6.00910         6.95793
     2010.51334         3.26614         6.90241
     2010.51608         7.59939         6.93133
     2010.51882         3.99263         6.93017
     2010.52156         6.05688         7.01693
     2010.52429         1.99713         7.08633
     2010.52703        13.47537         7.03197
     2010.52977         3.34062         6.99148
     2010.53251         1.68086         6.92786
     2010.53525        -0.22489         6.98454
     2010.53798        -3.05664         6.89200
     2010.54072        -4.67540         6.88043
     2010.54346         2.33785         6.93133
     2010.54620         4.16709         6.85382
     2010.54893         4.96034         6.95562
     2010.55167        -7.29041         6.90009
     2010.55441        13.16683         6.85614
     2010.55715         0.56908         6.95331
     2010.55989         5.46232         6.88506
     2010.56262         2.82357         6.99958
     2010.56536         2.10482         6.84457
     2010.56810         3.49206         6.83647
     2010.57084         8.68231         6.86308
     2010.57357         9.59956         7.15343
     2010.57631         5.54880         7.10947
     2010.57905         2.54505         6.91629
     2010.58179        -2.18871         6.86076
     2010.58453        -0.93646         6.77169
     2010.58726         4.41879         7.04469
     2010.59000         1.53803         7.11294
     2010.59274         3.75128         6.89547
     2010.59548        12.75452         6.93942
     2010.59822        10.77077         6.90357
     2010.60095         6.93702         6.92901
     2010.60369         3.49426         6.86886
     2010.60643         0.58351         6.93133
     2010.60917         3.00775         6.85382
     2010.61190         8.62500         6.83647
     2010.61464         9.65925         6.79830
     2010.61738         5.99049         6.78326
     2010.62012         3.01474         6.88274
     2010.62286         5.91798         6.87696
     2010.62559        11.33823         6.88853
     2010.62833         6.92748         6.90009
     2010.63107         9.16672         7.16268
     2010.63381         8.03497         6.83300
     2010.63655        11.32721         6.88506
     2010.63928       -10.09254         6.86539
     2010.64202         0.58671         6.87118
     2010.64476         2.68695         6.92439
     2010.64750         4.34520         6.83416
     2010.65023        12.90344         7.13723
     2010.65297         3.80669         7.24481
     2010.65571         9.05094         6.76822
     2010.65845         8.23618         6.72311
     2010.66119         5.06343         6.81102
     2010.66392         9.74467         6.88506
     2010.66666        -4.29508         6.95446
     2010.66940         3.52817         6.78673
     2010.67214         9.20141         6.77285
     2010.67488         6.01366         6.85151
     2010.67761         5.15591         6.82953
     2010.68035        13.20915         6.89662
     2010.68309        12.56440         6.79830
     2010.68583        12.81664         6.75666
     2010.68856        -0.74311         6.75666
     2010.69130         0.24314         6.76822
     2010.69404         5.21738         7.00767
     2010.69678         1.04563         6.76128
     2010.69952         2.01487         6.80177
     2010.70225        -0.55888         6.76707
     2010.70499         9.09337         6.73468
     2010.70773         2.80861         6.86308
     2010.71047        11.69386         6.79946
     2010.71321        14.02010         6.96834
     2010.71594        10.47635         7.03081
     2010.71868         2.69060         6.78442
     2010.72142         5.01884         7.02618
     2010.72416         5.64609         6.96719
     2010.72689         6.10733         6.92901
     2010.72963         5.54558         6.76475
     2010.73237         4.74083         6.72427
     2010.73511         3.85307         6.75781
     2010.73785        13.08032         6.96719
     2010.74058         6.24356         6.92439
     2010.74332        10.61281         6.79599
     2010.74606        10.54606         6.86308
     2010.74880         8.18630         6.87349
     2010.75154         7.70255         6.75666
     2010.75427        12.19979         7.06783
     2010.75701        10.74604         6.96256
     2010.75975         3.57929         6.81796
     2010.76249         5.77453         6.77285
     2010.76522         4.41878         6.79483
     2010.76796         5.19902         6.97644
     2010.77070         2.60527         6.81449
     2010.77344         6.08252         7.21358
     2010.77618         4.85776         6.70576
     2010.77891         1.11601         6.67800
     2010.78165         6.63226         6.76244
     2010.78439         9.65350         6.87580
     2010.78713        11.56475         6.98685
     2010.78987         9.64799         6.66527
     2010.79260        11.07024         6.66064
     2010.79534         4.50349         6.69303
     2010.79808        13.61473         6.74972
     2010.80082         9.21298         6.68609
     2010.80355         9.00122         6.66874
     2010.80629        11.43647         6.86539
     2010.80903        11.13472         6.74625
     2010.81177        16.54696         6.82491
     2010.81451        17.21621         6.81796
     2010.81724        18.98945         6.84573
     2010.81998         8.99070         6.81102
     2010.82272        10.31395         6.77285
     2010.82546         8.05119         6.78905
     2010.82820         9.84244         6.69535
     2010.83093        15.99368         7.20664
     2010.83367         1.38193         7.11525
     2010.83641        -3.25682         6.80987
     2010.83915         2.11542         6.83300
     2010.84188         6.42767         6.83416
     2010.84462         7.06491         6.80061
     2010.84736        15.70816         6.89662
     2010.85010         9.09241         6.73005
     2010.85284         4.85565         6.77863
     2010.85557        12.74390         6.68956
     2010.85831         5.48814         6.71154
     2010.86105        -4.79361         6.73236
     2010.86379         3.21564         6.67800
     2010.86653         0.49288         6.84573
     2010.86926        -0.62687         6.91051
     2010.87200         3.53237         6.78673
     2010.87474        12.40862         6.90588
     2010.87748         7.21887         6.78789
     2010.88021        15.86711         6.68147
     2010.88295         4.78336         6.82953
     2010.88569         5.94161         6.67800
     2010.88843         0.66385         7.02503
     2010.89117         4.90410         7.16846
     2010.89390        10.94034         6.76360
     2010.89664        -1.15341         6.72195
     2010.89938        -3.92916         6.79136
     2010.90212        11.69308         6.69303
     2010.90485         4.83433         6.80640
     2010.90759        -2.83643         6.66296
     2010.91033         1.58982         6.57620
     2010.91307        -3.32393         6.66412
     2010.91581         2.84931         6.69419
     2010.91854         9.48756         6.63288
     2010.92128        -3.02420         6.60281
     2010.92402        -2.67195         6.59471
     2010.92676         6.69830         6.65255
     2010.92950         6.89654         6.68147
     2010.93223        -0.65721         6.66180
     2010.93497        13.08603         6.68262
     2010.93771        15.00928         6.72542
     2010.94045         9.06353         6.81102
     2010.94318        -2.84823         6.69997
     2010.94592         2.99302         6.83994
     2010.94866        13.16326         6.67915
     2010.95140        14.41451         6.72658
     2010.95414         8.11176         6.71617
     2010.95687         2.78900         6.78442
     2010.95961         1.68325         6.86076
     2010.96235        -0.69251         6.78789
     2010.96509        12.80374         6.71386
     2010.96783         7.85099         6.68725
     2010.97056         4.00023         6.77748
     2010.97330         4.43448         6.80524
     2010.97604        -2.91028         6.78442
     2010.97878        -5.08603         6.80755
     2010.98151         7.27822         6.74277
     2010.98425         3.23046         6.63520
     2010.98699         5.14071         6.76360
     2010.98973         2.93796         6.87233
     2010.99247         9.52220         7.11988
     2010.99520        14.29945         7.02503
     2010.99794        -5.11831         6.70576
     2011.00342        -0.76381         6.68494
     2011.00616         1.65843         6.72080
     2011.00889        -8.35132         6.83532
     2011.01163         3.80592         6.74856
     2011.01377       -12.81975         9.20090
     2011.05337        -8.89135         9.71566
     2011.05544       -13.72114         6.84804
     2011.05817        -7.76989         6.70113
     2011.06091         4.28135         6.77516
     2011.06365       -10.24740         6.77863
     2011.06639        -9.49616         6.75203
     2011.06913       -13.51791         7.06204
     2011.07186        -7.88966         6.64792
     2011.07460        -6.81842         6.80640
     2011.07734        -4.48717         6.74393
     2011.08008        -3.32693         6.88968
     2011.08282       -13.88368         6.75203
     2011.08555       -12.56143         6.69882
     2011.08829       -13.63019         6.69188
     2011.09103       -10.50994         6.75434
     2011.09377        -5.19869         6.96256
     2011.09650        -6.32745         6.77632
     2011.09924         1.47480         6.86192
     2011.10198        -4.54696         6.94868
     2011.10472        -8.03571         6.72658
     2011.10746       -14.10046         6.72080
     2011.10920        -6.02277        12.30796
     2011.24012       -13.86472        26.19375
     2011.24161       -11.51441         7.42874
     2011.24435       -15.99016         7.19854
     2011.24709        -5.19792         7.17193
     2011.24982        -2.09867         7.08402
     2011.25256        -7.90242         7.09443
     2011.25530        -6.18118         7.05857
     2011.25804        -4.39393         7.60225
     2011.26078         0.71831         7.45997
     2011.26351        -4.21844         7.24828
     2011.26625        -4.06719         7.19160
     2011.26899        -3.11095         7.22515
     2011.27173        -0.10370         7.40444
     2011.27446         5.13454         7.54904
     2011.27720        -7.28021         7.67975
     2011.27994        -1.24096         7.22283
     2011.28268         8.92728         7.39288
     2011.28542        -6.76947         7.50277
     2011.28815       -14.94823         7.77345
     2011.29089         4.86302         7.62076
     2011.29363         5.42627         7.59531
     2011.29637        -2.74349         7.39403
     2011.29911         1.69076         7.48195
     2011.30184        -4.44099         7.71099
     2011.30458         3.37125         7.42758
     2011.30732        14.57550         7.55598
     2011.31006         4.99874         7.37437
     2011.31279         6.46499         7.59531
     2011.45918        -4.35499        37.39238
     2011.46064       -16.26272         7.32000
     2011.46338        -8.65248         7.38131
     2011.46611       -18.10123         7.26910
     2011.46885       -15.88499         7.21589
     2011.47159       -21.41674         7.17078
     2011.47433       -12.12549         7.13145
     2011.47707       -10.82325         7.12566
     2011.47980        -6.98900         7.15227
     2011.48254       -10.17776         7.10947
     2011.48528        -9.69951         7.12219
     2011.48802        -6.25126         7.13723
     2011.49076        -1.99502         7.07477
     2011.49349       -25.17677         7.13723
     2011.49623        -5.07253         7.02965
     2011.49897        -4.88228         7.09790
     2011.50171        -7.03403         7.04585
     2011.50444        -6.71079         7.09327
     2011.50718        -7.41054         7.04353
     2011.50992        -4.71529         7.10369
     2011.51266        -0.02805         7.20201
     2011.51540        -9.11080         6.94637
     2011.51813         4.65744         6.93827
     2011.52087         0.66169         6.96719
     2011.52361         6.56794         6.97297
     2011.52635       -15.97582         7.02271
     2011.52908        -3.10457         7.00652
     2011.53182        -5.31033         6.93133
     2011.53456        -6.18208         6.83185
     2011.53730        -1.25783         6.92323
     2011.54004        -4.34459         6.94752
     2011.54277        -2.78434         6.93248
     2011.54551        -6.06810         6.88968
     2011.54825        -4.16685         6.90241
     2011.55099       -14.11960         6.91976
     2011.55373        -1.13636         7.00420
     2011.55646         0.11989         6.85498
     2011.55920        -0.90787         6.92323
     2011.56194         6.86838         6.99611
     2011.56468        -1.07237         6.80177
     2011.56741         0.94187         6.85729
     2011.57015         6.88512         7.04122
     2011.57289        -6.95164         6.86192
     2011.57563         2.42561         6.84920
     2011.57837        -2.46614         6.84110
     2011.58110        -4.48790         7.68207
     2011.58384         2.12735         6.90125
     2011.58658         0.79059         7.11294
     2011.58932         0.96584         6.87927
     2011.59206        -1.90891         6.93827
     2011.59479         4.75033         6.88390
     2011.59753         2.33558         6.90819
     2011.60027         1.10882         6.85267
     2011.60301         5.31507         6.87233
     2011.60574        -9.40168         6.94405
     2011.60848        -6.88044         7.24828
     2011.61122         5.11781         7.27720
     2011.61396         6.59805         7.13029
     2011.61670         0.25830         7.02734
     2011.61943         0.89055         7.13607
     2011.62217         0.79579         6.99032
     2011.62491        -0.81796         7.05047
     2011.62765        -0.76271         6.98801
     2011.63039         3.21053         6.89084
     2011.63312         9.19078         6.88853
     2011.63586         4.19502         6.93595
     2011.63860         4.39827         6.87118
     2011.64134        -8.18148         7.22283
     2011.64407         6.27276         7.03659
     2011.64681         6.27901         6.90704
     2011.64955        10.66325         7.28761
     2011.65229         5.74950         7.05741
     2011.65503         9.27775         7.22515
     2011.65776        -8.41101         7.11757
     2011.66050         7.69424         7.40097
     2011.66324         5.88048         6.96719
     2011.66598         8.03173         7.07592
     2011.66872         4.94598         7.12451
     2011.67145         5.55322         6.97066
     2011.67419        12.13647         6.88390
     2011.67693         9.98771         6.88274
     2011.67967        10.05496         6.90357
     2011.68240         8.71221         6.97991
     2011.68514         3.97345         7.02618
     2011.68788         6.03670         7.05510
     2011.69062         5.49394         7.06204
     2011.69336         5.99219         7.02503
     2011.69609         9.01444         7.02155
     2011.69883         7.34168         7.04816
     2011.70157         9.98193         6.91513
     2011.70431         0.90717         7.01693
     2011.70705         6.51342         7.15227
     2011.70978         7.52367         7.04700
     2011.71252         5.69591         7.10021
     2011.71526        10.44216         7.24481
     2011.71800         8.53640         7.14070
     2011.72073         8.06665         7.02503
     2011.72347         8.10590         7.05741
     2011.72621        12.63114         7.03428
     2011.72895        16.50039         6.93248
     2011.73169        13.32864         7.08286
     2011.73442         4.22688         6.97413
     2011.73716         7.51113         7.06898
     2011.73990         6.44237         6.99148
     2011.74264         7.35962         6.92670
     2011.74538        20.39887         7.21358
     2011.74811        18.11711         7.25985
     2011.75085        14.85036         7.20432
     2011.75359         9.00560         7.20085
     2011.75633        12.80085         7.07708
     2011.75906        19.56510         7.03428
     2011.76180        -1.34066         7.02734
     2011.76454        -3.09541         7.17887
     2011.76728         3.34883         7.00883
     2011.77002         9.74008         7.12451
     2011.77275        21.03933         7.28761
     2011.77549        19.01557         7.16268
     2011.77823         5.40282         7.01808
     2011.78097         6.76606         7.06551
     2011.78371         8.44831         7.12451
     2011.78644        14.82356         6.95562
     2011.78918        11.91580         6.97297
     2011.79192        -1.06195         6.97644
     2011.79466         5.15429         7.01808
     2011.79739        10.66654         6.93248
     2011.80013         7.92279         7.03544
     2011.80287         6.08903         7.00999
     2011.80561         3.28628         7.00767
     2011.80835         5.42352         7.01808
     2011.81108         2.59277         7.09674
     2011.81382         2.30902         6.97297
     2011.81656         5.15626         6.97528
     2011.81930         5.63951         6.92670
     2011.82203         5.68375         7.03081
     2011.82477        11.89900         6.99148
     2011.82751         8.01725         6.93364
     2011.83025         1.43549         7.03081
     2011.83299         0.52174         6.91282
     2011.83572         0.62899         6.89431
     2011.83846         3.45323         6.87002
     2011.84120        10.68148         6.81449
     2011.84394         3.95372         6.81565
     2011.84668         3.92097         6.87118
     2011.84941        -2.34378         6.80524
     2011.85215        -5.22454         6.94752
     2011.85489        -1.27129         7.02618
     2011.85763         4.97695         6.95331
     2011.86036         9.55120         6.93364
     2011.86310         9.98745         6.93364
     2011.86584        25.92169         6.98801
     2011.86858         7.33394         6.85961
     2011.87132         5.88318         6.81334
     2011.87405         3.00543         6.78442
     2011.87679        16.01268         6.99726
     2011.87953        10.02592         6.92901
     2011.88227         8.79217         6.86539
     2011.88501         9.22941         6.83300
     2011.88774         1.13366         6.84573
     2011.89048        24.58591         7.04238
     2011.89322        16.26115         7.07245
     2011.89596         0.99940         6.97066
     2011.89869        12.11264         6.97066
     2011.90143        -4.76411         6.89084
     2011.90417         3.68214         7.01114
     2011.90691         1.78438         7.02618
     2011.90965         0.18063         6.96603
     2011.91238         2.80587         7.04469
     2011.91512        -3.28788         6.84804
     2011.91786         6.28837         7.11178
     2011.92060       -12.25539         6.90819
     2011.92334        -9.23914         7.05163
     2011.92607        -7.38390         7.00883
     2011.92881        -0.16865         7.10484
     2011.93155         0.56760         7.10369
     2011.93429        -1.46316         7.04932
     2011.93702         3.83509         6.99264
     2011.93976         4.51134         7.04585
     2011.94250         4.97158         7.03891
     2011.94524         5.96083         6.93595
     2011.94798         8.72907         6.95331
     2011.95071         7.93232         6.80987
     2011.95345         1.37657         7.02618
     2011.95619         6.16481         7.15227
     2011.95893        -3.79394         6.71154
     2011.96167         1.53030         6.86886
     2011.96440         1.81255         6.81681
     2011.96714        -9.97820         6.83994
     2011.96988         4.42404         6.76938
     2011.97262        -0.40271         6.69535
     2011.97535        -2.04947         6.82259
     2011.97809        -2.85222         6.74509
     2011.98083         5.64903         6.67915
     2011.98357         4.31827         6.75087
     2011.98631         1.52252         6.84804
     2011.98888        17.07251         7.52243
     2012.12982        -8.31091        20.87611
     2012.13141        -9.53044         6.96256
     2012.13415        -6.24720         6.98338
     2012.13689         8.02305         7.11872
     2012.13963         7.62930         7.36280
     2012.14236        -3.37246         7.35355
     2012.14510        -8.16021         7.14880
     2012.14784       -12.93896         6.98338
     2012.15058        -1.57472         6.96372
     2012.15331       -13.71047         7.09906
     2012.15605       -11.91123         7.08286
     2012.15879       -13.23298         7.20317
     2012.16153         5.65727         7.13029
     2012.16427        -4.47249         7.39750
     2012.16700       -13.78924         7.29686
     2012.16974         1.89800         7.30149
     2012.17248        -6.88075         7.16615
     2012.17522         2.67750         7.05510
     2012.17796       -12.47626         7.35123
     2012.18069       -11.81601         7.37552
     2012.18343        -8.42377         7.23093
     2012.18617        -7.05352         7.17772
     2012.18891        -4.58127         7.19623
     2012.19164         8.63297         7.14649
     2012.19438         4.11922         7.45650
     2012.19712        13.24546         7.37552
     2012.19986        -2.39929         7.31769
     2012.20260        16.09496         7.34198
     2012.20533        10.13920         7.50971
     2012.20807        -2.38055         7.52706
     2012.21081         1.64669         7.47038
     2012.21355        -4.69806         7.44377
     2012.21629        15.99219         7.69132
     2012.38329       -18.95480         7.56986
     2012.38603       -22.19056         7.89838
     2012.38877       -21.19531         7.69942
     2012.39151       -20.42507         7.76651
     2012.39425       -34.24382         7.68785
     2012.39698       -24.57057         7.61382
     2012.39972       -34.25333         7.51202
     2012.40246       -36.42608         7.50624
     2012.40520       -23.67484         7.52937
     2012.40794       -15.19559         7.63117
     2012.41067       -14.97534         7.48195
     2012.41341       -17.28010         7.26563
     2012.41615       -23.40085         7.40213
     2012.41889       -21.04661         7.39172
     2012.42162       -20.54136         7.12682
     2012.42436       -15.67911         7.18003
     2012.42710       -24.86387         7.11178
     2012.42984       -17.26162         7.05857
     2012.43258       -21.25038         7.22052
     2012.43531       -18.67713         7.15227
     2012.43805       -23.74188         7.12104
     2012.44079       -37.20964         7.17425
     2012.44353       -25.81739         7.10253
     2012.44626       -27.45715         7.10137
     2012.44900       -23.44890         7.07014
     2012.45174       -18.18065         7.03775
     2012.45448       -23.72741         7.06667
     2012.45722       -24.02816         7.16846
     2012.45995       -23.02291         7.28992
     2012.46269       -11.58967         7.01693
     2012.46543       -37.64242         7.22515
     2012.46817       -22.56118         7.12335
     2012.47091       -19.08093         6.98454
     2012.47364       -15.96068         7.10831
     2012.47638       -16.27844         6.95793
     2012.47912       -10.58519         6.97528
     2012.48186       -15.87395         7.06204
     2012.48459       -21.16870         6.98685
     2012.48733       -16.54745         6.98917
     2012.49007       -17.38021         7.00652
     2012.49281       -14.64696         6.85729
     2012.49555       -14.13572         6.98222
     2012.49828       -21.98347         6.94521
     2012.50102       -13.36522         6.81796
     2012.50376        -6.68298         6.90357
     2012.50650       -11.34973         6.69072
     2012.50924       -15.40849         6.88159
     2012.51197       -15.28224         6.97297
     2012.51471       -10.16799         6.74625
     2012.51745       -15.24575         6.78210
     2012.52019       -12.81150         6.93248
     2012.52292       -17.67026         6.76360
     2012.52566       -12.87501         6.72542
     2012.52840        -4.71776         6.76475
     2012.53114       -12.48052         6.87465
     2012.53388       -14.83227         6.80871
     2012.53661       -11.47603         6.89662
     2012.53935        -9.73178         6.81912
     2012.54209        -7.86153         6.78442
     2012.54483       -10.59329         6.90241
     2012.54757       -11.29004         6.68841
     2012.55030       -10.74580         6.94984
     2012.55304       -10.52555         6.72542
     2012.55578       -12.97030         6.68725
     2012.55852       -13.59706         6.66990
     2012.56125        -1.73381         6.69766
     2012.56399        -6.72056         6.76475
     2012.56673        -9.28332         6.71964
     2012.56947        -9.60807         6.76475
     2012.57221       -10.80883         6.70344
     2012.57494       -13.18458         6.69419
     2012.57768       -17.06333         6.79830
     2012.58042        -8.64209         6.72774
     2012.58316       -10.69884         6.72774
     2012.58590        -3.19860         6.66759
     2012.58863        -1.65935         6.68841
     2012.59137        -5.30010         6.70113
     2012.59411        -6.35486         6.73815
     2012.59685        -5.66461         6.94405
     2012.59958        -0.99637         6.73352
     2012.60232       -14.70112         6.91513
     2012.60506        -5.72087         6.68378
     2012.60780        -4.94763         6.70807
     2012.61054        -1.75138         6.65949
     2012.61327        -4.86514         6.72080
     2012.61601         2.28011         6.62479
     2012.61875        -1.01464         6.68956
     2012.62149        -3.47540         6.65486
     2012.62423         1.12185         6.74972
     2012.62696        -4.01191         6.79830
     2012.62970        -8.76066         6.71617
     2012.63244        -1.40741         6.81102
     2012.63518        -4.60617         6.65602
     2012.63791        -2.71192         6.85845
     2012.64065        -9.97268         6.85267
     2012.64339         0.72857         6.68494
     2012.64613        -1.54118         6.57736
     2012.64887        -2.05094         6.67453
     2012.65160         3.92131         6.71501
     2012.65434         1.65955         6.77285
     2012.65708         2.62080         6.92901
     2012.65982        -9.21695         6.82606
     2012.66256         0.58029         6.65139
     2012.66529         0.32654         6.67915
     2012.66803        -2.71421         6.67221
     2012.67077        -4.03397         6.77979
     2012.67351        -1.66872         6.73236
     2012.67624        -0.31348         6.63982
     2012.67898         1.95177         6.75203
     2012.68172        -0.76798         6.76475
     2012.68446        -5.14374         6.68378
     2012.68720         5.62851         6.73699
     2012.68993         2.03575         6.78095
     2012.69267        -5.08100         7.03891
     2012.69541        -5.19675         6.90357
     2012.69815        -6.18851         6.85961
     2012.70089        -5.23426         6.88737
     2012.70362        -7.33402         6.77054
     2012.70636        -4.69777         7.00999
     2012.70910        -4.40852         6.71154
     2012.71184        -3.18528         6.70576
     2012.71457        -2.44803         6.81449
     2012.71731        -0.51179         6.72311
     2012.72005         3.22846         6.64445
     2012.72279        -3.26729         6.71617
     2012.72553         3.74895         6.70460
     2012.72826        -2.98580         6.90472
     2012.73100        -5.64056         6.86655
     2012.73374         8.62469         6.94174
     2012.73648         5.26394         6.68841
     2012.73921        -2.71182         6.87696
     2012.74195         1.93743         6.81912
     2012.74469        -2.96733         6.85614
     2012.74743        -6.04008         6.81912
     2012.75017        -3.81383         6.76244
     2012.75290         5.40641         6.74162
     2012.75564        -5.70434         6.71386
     2012.75838        -1.24610         6.74162
     2012.76112         2.37415         6.70344
     2012.76386         1.95940         6.76360
     2012.76659         3.96364         6.84920
     2012.76933         2.15689         6.88737
     2012.77207         3.74514         6.70344
     2012.77481         0.12138         6.81681
     2012.77754        -0.20037         6.79252
     2012.78028         2.29287         6.90819
     2012.78302        -5.64288         7.06783
     2012.78576         3.77537         6.96950
     2012.78850         0.57761         6.99611
     2012.79123         1.26786         7.12104
     2012.79397         3.11110         6.91976
     2012.79671         0.80835         6.87002
     2012.79945         7.10260         7.05741
     2012.80219        14.10284         6.91629
     2012.80492         2.38409         6.91398
     2012.80766        -2.29567         6.92439
     2012.81040        -5.11842         6.98570
     2012.81314        -4.75517         7.01114
     2012.81587        -6.23693         6.90357
     2012.81861        -6.80468         7.03081
     2012.82135       -14.65844         7.08865
     2012.82409        -0.68219         7.25175
     2012.82683         6.21306         7.10369
     2012.82956        -8.47270         6.92554
     2012.83230        -2.14245         6.88390
     2012.83504       -11.30221         7.02850
     2012.83778        -0.25296         6.96950
     2012.84052         4.04129         7.05626
     2012.84325        -5.38947         7.02040
     2012.84599        -2.49122         7.00073
     2012.84873        -3.29198         6.91745
     2012.85147         1.70827         7.02734
     2012.85420        -5.86848         6.88968
     2012.85694        -9.76424         6.85035
     2012.85968       -10.08799         6.82491
     2012.86242       -12.35975         6.88274
     2012.86516        -4.38050         7.00652
     2012.86789       -12.44325         7.20432
     2012.87063        -8.83901         6.90125
     2012.87337        -6.76976         6.93017
     2012.87611        -6.87851         6.88968
     2012.87885         0.85673         6.83416
     2012.88158        -2.67202         6.80640
     2012.88432        22.80722         6.83879
     2012.88706         2.54747         7.01577
     2012.88980        10.15672         7.05163
     2012.89253        -3.36504         6.91976
     2012.89527        -2.79779         6.81449
     2012.89801       -13.64455         6.88043
     2012.90075        -3.97230         6.85961
     2012.90349        -5.23205         6.92901
     2012.90622        -7.55981         6.96256
     2012.90896        -0.32756         6.94174
     2012.91170         4.16068         6.82259
     2012.91444         7.19893         6.84920
     2012.91718        10.50618         6.78789
     2012.91991        18.20142         6.92323
     2012.92265        -0.41533         6.99032
     2012.92539         9.47791         6.96487
     2012.92813        -3.72584         6.80408
     2012.93086       -14.62559         6.95331
     2012.93360        -8.41735         7.01693
     2012.93634        -7.47010         6.86192
     2012.93908        -6.46686         6.86771
     2012.94182        -2.23461         6.84804
     2012.94455         0.30864         6.82953
     2012.94729        -6.13612         6.98338
     2012.95003        -7.81787         6.90357
     2012.95277        -5.05863         6.76822
     2012.95551         1.05962         6.75087
     2012.95824         0.46587         6.76360
     2012.96098         5.48911         7.01577
     2012.96372         2.76736         6.93480
     2012.96646         3.64060         6.80640
     2012.96919         0.50285         6.95909
     2012.97193        -2.51090         7.05973
     2012.97467         4.27934         6.90819
     2012.97741         2.90059         6.87233
     2012.98015        -8.29316         6.91398
     2012.98288        -2.68992         6.93017
     2012.98562        -7.12267         6.99032
     2012.98836        -9.52343         6.88968
     2012.99110        -8.07518         6.80524
     2012.99384        -7.57693         6.93480
     2012.99657        -9.11569         6.88390
     2012.99931       -11.69644         6.92207
     2013.00205        -8.35420         6.95793
     2013.00479        -6.18995         6.88043
     2013.00752        -7.96170         6.90472
     2013.01026       -17.48246         6.96719
     2013.01300        -4.17821         6.97181
     2013.01574        -3.91997         6.95446
     2013.01848       -14.62572         6.97297
     2013.02121       -15.11247         6.97644
     2013.02395       -12.04023         7.00536
     2013.02669       -10.49798         7.07824
     2013.02943        -9.97974         7.00652
     2013.03216       -18.55349         7.10947
     2013.03490       -24.27024         7.04932
     2013.03764       -20.28600         7.02040
     2013.04038       -24.75275         6.92439
     2013.04312       -26.22551         7.06783
     2013.04585       -18.20326         7.04238
     2013.04859       -18.30701         7.10369
     2013.05133       -15.22777         7.05163
     2013.05407       -11.96952         6.97297
     2013.05681        -9.80028         6.94637
     2013.05954        -9.64903         7.11757
     2013.06228       -13.87278         7.06320
     2013.06502       -14.96154         7.05279
     2013.06776       -12.11229         7.09559
     2013.07049        -8.38905         7.00420
     2013.07323       -12.32580         6.93133
     2013.07597        -7.92755         6.85729
     2013.07871        -4.33631         6.93248
     2013.08145        -4.55206         6.86308
     2013.08418       -17.93881         6.97644
     2013.08692       -12.98257         6.94752
     2013.08966       -17.73332         6.88159
     2013.09240       -22.87708         6.92207
     2013.09514        -4.78683         6.98685
     2013.09787       -15.42458         7.17309
     2013.10061       -16.50934         7.37205
     2013.10335       -14.93109         7.00189
     2013.10609       -14.80185         6.85614
     2013.10882       -22.25260         6.92207
     2013.11156       -20.95035         7.10021
     2013.11430       -28.39611         7.08518
     2013.11704       -24.43886         6.92207
     2013.11978       -10.03162         7.33504
     2013.12251       -23.34137         7.04932
     2013.12525       -20.64512         6.90472
     2013.12799       -14.23988         6.98685
     2013.13073       -14.02263         7.02618
     2013.13347       -11.66939         6.91745
     2013.13620        -7.15714         6.94868
     2013.13894       -19.42189         6.86539
     2013.14168       -14.37065         6.92439
     2013.14442        -7.26240         7.21936
     2013.14715        -2.78016         7.20548
     2013.14989       -24.49791         7.04469
     2013.15263        -8.27466         7.00420
     2013.15537       -24.17442         7.00305
     2013.15811       -18.58417         7.00999
     2013.16084       -28.36893         7.06667
     2013.16358       -13.81968         7.18003
     2013.16632       -26.94643         7.18466
     2013.16906       -20.39819         7.14533
     2013.17180       -13.39194         7.04238
     2013.17453       -13.44970         7.00420
     2013.17727       -12.99545         7.12913
     2013.18001       -20.73720         7.21358
     2013.18275       -12.20996         6.91051
     2013.18548       -16.22771         6.85035
     2013.18822       -25.03947         7.11294
     2013.19096       -24.01822         7.06783
     2013.19370       -16.01297         7.17656
     2013.19644       -24.17473         7.14764
     2013.19917       -19.83048         7.05163
     2013.20191       -16.14823         7.10716
     2013.20465       -17.05699         7.15805
     2013.20739       -13.51574         7.02734
     2013.21013       -17.84350         7.08055
     2013.21286       -15.90825         7.01461
     2013.21560        -7.07700         7.13029
     2013.21834       -14.51176         7.15921
     2013.22108       -21.48451         7.15111
     2013.22381       -18.77227         7.27142
     2013.22655       -19.58202         7.09674
     2013.22929       -22.77277         7.18235
     2013.23203       -17.88553         7.05626
     2013.23477       -21.61028         7.14996
     2013.23750       -22.80904         7.30033
     2013.24024       -19.69079         7.26910
     2013.24298       -20.84854         7.39056
     2013.24572        -7.97930         7.29339
     2013.24846       -12.04405         7.25869
     2013.25119       -15.35481         7.20664
     2013.25393       -22.68556         7.16384
     2013.25667       -19.58031         7.44146
     2013.25941       -10.24307         7.32463
     2013.26214        -7.91782         7.26563
     2013.26488        -1.72258         7.35470
     2013.26762       -19.10033         7.30612
     2013.27036       -14.18808         7.24481
     2013.27310       -21.38184         7.58027
     2013.27583       -20.20159         7.43568
     2013.27857       -18.29135         7.42064
     2013.28131        -7.44010         7.27142
     2013.28405       -14.77285         7.32116
     2013.28679       -14.93561         7.25406
     2013.28952       -25.99936         7.21705
     2013.29226       -27.50512         7.40560
     2013.29500       -21.31287         7.32925
     2013.29774       -22.37262         7.26795
     2013.30047       -23.13738         7.47154
     2013.30321       -16.53213         7.34892
     2013.30595       -25.85188         7.42642
     2013.30869       -26.36264         7.22399
     2013.31143       -22.72539         7.18119
     2013.31416       -21.41415         7.27489
     2013.31690       -22.75390         7.24134
     2013.31964       -21.43965         7.28414
     2013.32238       -27.80041         7.38709
     2013.32512       -19.54716         7.36511
     2013.32785       -19.17592         7.13492
     2013.33059       -25.04667         7.27951
     2013.33333       -26.32942         7.29571
     2013.33607       -29.18218         7.33272
     2013.33880       -15.35393         7.21936
     2013.34154       -14.96769         7.12913
     2013.34428       -17.30944         7.12104
     2013.34702        -5.34419         7.17887
     2013.34976       -10.10195         7.29686
     2013.35249       -13.10270         7.22862
     2013.35523       -16.51846         7.26332
     2013.35797       -17.12621         7.15227
     2013.36071       -20.64696         7.25175
     2013.36344        -8.66372         7.21242
     2013.36618       -10.45647         7.08402
     2013.36892       -14.28423         7.05163
     2013.37166       -10.51698         7.04816
     2013.37440       -15.78073         7.04006
     2013.37713       -19.90449         7.02734
     2013.37987       -22.55824         6.98107
     2013.38261       -22.30400         6.95099
     2013.38535       -21.47875         7.07477
     2013.38809       -19.63050         6.96487
     2013.39082       -16.79726         7.02387
     2013.39356       -18.59701         7.03659
     2013.39630       -16.86277         7.02965
     2013.39904       -15.72852         7.03312
     2013.40177       -15.50827         7.01808
     2013.40451       -26.69903         7.05973
     2013.40725        -3.66078         7.25522
     2013.40999       -25.26553         7.07824
     2013.41273       -21.65029         7.05394
     2013.41546       -21.81204         7.27142
     2013.41820       -20.49980         7.07592
     2013.42094       -10.01155         7.08286
     2013.42368       -17.84730         7.02618
     2013.42642       -17.58006         7.07708
     2013.42915       -15.57881         7.04122
     2013.43189       -35.32857         7.11872
     2013.43463        -4.77132         7.03891
     2013.43737       -10.96607         7.12219
     2013.44010       -15.82183         6.96834
     2013.44284       -15.03558         6.93364
     2013.44558       -11.43734         7.00305
     2013.44832       -33.39709         6.96256
     2013.45106       -23.56084         7.01346
     2013.45379       -10.93260         6.89200
     2013.45653       -10.32735         6.88737
     2013.45927       -21.66211         6.91745
     2013.46201        -9.17886         6.94637
     2013.46475       -15.25861         6.83532
     2013.46748       -19.90037         6.96025
     2013.47022       -25.40112         6.92092
     2013.47296       -16.39588         6.73930
     2013.47570       -12.50563         6.78789
     2013.47843        -8.43838         6.93364
     2013.48117       -10.53014         6.80871
     2013.48391        -6.21289         6.82606
     2013.48665       -11.24365         6.84920
     2013.48939        -9.98540         6.83069
     2013.49212       -16.44215         6.95562
     2013.49486       -11.69491         6.87118
     2013.49760        -4.31466         6.94174
     2013.50034        -4.54642         6.86886
     2013.50308       -12.50217         6.77169
     2013.50581       -12.15292         6.82375
     2013.50855        -7.80568         6.71964
     2013.51129        -2.58243         6.78210
     2013.51403        -6.72118         6.81334
     2013.51676        -4.57394         6.76475
     2013.51950        -8.03069         6.79483
     2013.52224        -8.88145         6.77401
     2013.52498        -7.99520         7.04006
     2013.52772        -2.37495         6.80408
     2013.53045       -14.21971         6.76591
     2013.53319        -9.38846         6.83763
     2013.53593        -6.57422         6.79136
     2013.53867        -8.15797         6.84457
     2013.54141        -3.76072         6.90125
     2013.54414        -9.05648         6.83994
     2013.54688       -13.12123         6.82028
     2013.54962         0.08401         6.82143
     2013.55236        -2.44874         6.80293
     2013.55509        -2.06149         6.76938
     2013.55783         1.06175         6.86308
     2013.56057        -9.70800         6.93017
     2013.56331        -8.96876         6.83300
     2013.56605        -7.08551         6.97297
     2013.56878        -2.24926         6.85267
     2013.57152        -6.52302         6.83994
     2013.57426        -0.61377         6.87002
     2013.57700        -0.17053         6.84226
     2013.57974        -0.79028         6.75319
     2013.58247        -1.92903         6.88968
     2013.58521        -3.35879         6.83994
     2013.58795         1.15046         6.90241
     2013.59069         2.20270         6.92092
     2013.59342         3.99795         6.82838
     2013.59616         2.42320         6.81912
     2013.59890         0.59744         6.79714
     2013.60164         2.01169         6.90009
     2013.60438         3.67093         6.93480
     2013.60711        -3.56982         6.97760
     2013.60985        -0.63557         6.85267
     2013.61259        -0.33533         6.83879
     2013.61533         7.34092         7.01693
     2013.61807         1.89417         6.99379
     2013.62080        -0.18659         6.92554
     2013.62354       -13.84534         7.04122
     2013.62628        -3.46010         6.96950
     2013.62902        -7.79385         6.86192
     2013.63175         0.21840         6.79599
     2013.63449         3.61464         7.14996
     2013.63723         2.19789         6.79483
     2013.63997         0.87413         6.99264
     2013.64271        -4.92562         6.96719
     2013.64544        -3.69837         6.83300
     2013.64818         1.31787         6.83069
     2013.65092        -1.91688         6.91629
     2013.65366         0.60336         6.92439
     2013.65639         3.55461         6.81102
     2013.65913         4.77386         7.11988
     2013.66187         3.39010         7.05626
     2013.66461        -3.55665         6.89894
     2013.66735         2.80259         6.91282
     2013.67008         2.98184         6.85729
     2013.67282         4.89209         6.99379
     2013.67556         1.70033         6.97760
     2013.67830         2.24558         6.93827
     2013.68104         0.97582         6.93133
     2013.68377        -0.68993         6.83647
     2013.68651       -14.27968         6.84688
     2013.68925        -5.40644         6.83300
     2013.69199        -0.45919         6.85845
     2013.69472         2.16005         6.84341
     2013.69746        -1.18970         6.90935
     2013.70020        10.05455         6.90819
     2013.70294         2.22779         6.85267
     2013.70568         5.13404         6.95331
     2013.70841        -3.07872         6.95678
     2013.71115        -0.43147         6.88159
     2013.71389        -5.95722         6.89894
     2013.71663         0.49702         6.84226
     2013.71937         2.77627         6.82375
     2013.72210         6.52452         6.86655
     2013.72484         3.16976         7.01924
     2013.72758        10.75201         6.93480
     2013.73032        -0.99475         6.84226
     2013.73305         5.64850         6.73236
     2013.73579        -2.38725         6.78789
     2013.73853         7.26799         6.85498
     2013.74127         5.02624         6.86076
     2013.74401         5.69148         7.05857
     2013.74674         3.06473         6.97760
     2013.74948         4.16298         6.90472
     2013.75222        -9.56778         6.85845
     2013.75496       -13.73853         6.84226
     2013.75770       -12.90829         6.84920
     2013.76043       -10.75204         6.82375
     2013.76317        -5.60279         6.80408
     2013.76591        -2.69655         6.96140
     2013.76865        -6.95230         6.98338
     2013.77138        -9.82206         6.89894
     2013.77412        -5.41381         6.90704
     2013.77686        -5.15156         6.80408
     2013.77960        -6.65532         6.81218
     2013.78234       -14.72507         6.85382
     2013.78507       -17.44183         6.85382
     2013.78781       -19.32358         6.81796
     2013.79055        -8.53733         6.80293
     2013.79329       -12.31909         6.82722
     2013.79603        -4.58784         6.81796
     2013.79876        -6.34660         6.82491
     2013.80150        -6.48335         6.93711
     2013.80424        -1.27910         6.93595
     2013.80698        -1.55186         6.80408
     2013.80971        -2.12961         6.81796
     2013.81245         0.21463         6.80293
     2013.81519        -6.09512         6.86192
     2013.81793       -10.53287         6.80293
     2013.82067        -5.15863         6.85267
     2013.82340       -11.36338         6.86308
     2013.82614        -7.13613         7.01577
     2013.82888        -1.65589         6.90819
     2013.83162       -14.28264         7.14417
     2013.83436        -5.64640         7.02271
     2013.83709         3.80385         7.03312
     2013.83983        -0.18990         7.00767
     2013.84257        -1.93366         6.96256
     2013.84531        -2.19441         7.13029
     2013.84804       -12.30517         6.89894
     2013.85078        -4.23892         6.92670
     2013.85352         2.72333         6.89084
     2013.85626        -4.82643         6.89547
     2013.85900        -9.50918         6.83532
     2013.86173        -2.68194         6.79830
     2013.86447       -17.60269         6.94521
     2013.86721       -13.35844         6.83532
     2013.86995        -2.51220         6.85151
     2013.87269         4.19005         6.83647
     2013.87542         7.61029         6.83300
     2013.87816         2.35454         6.94752
     2013.88090        -6.22821         7.14302
     2013.88364       -10.32597         7.37784
     2013.88637        -8.48272         6.89084
     2013.88911       -11.54348         6.80524
     2013.89185       -13.35923         6.88506
     2013.89459       -12.91998         6.89431
     2013.89733        -9.72974         6.94984
     2013.90006       -12.45749         7.00883
     2013.90280       -13.48025         6.94174
     2013.90553        -3.72801         6.82491
     2013.90828        -5.95075         6.89778
     2013.91102       -12.22251         6.93017
     2013.91375       -34.78226         6.91166
     2013.91649       -15.27602         6.89200
     2013.91923         0.94923         7.06436
     2013.92197       -17.63752         7.08286
     2013.92470        -9.58628         6.89200
     2013.92744       -12.18903         6.93711
     2013.93018       -13.01178         6.91282
     2013.93292       -12.75554         6.92554
     2013.93566       -14.30729         6.87002
     2013.93839       -15.09605         6.89431
     2013.94113       -16.65580         6.86192
     2013.94387       -12.92155         6.80061
     2013.94661        -8.57631         6.88853
     2013.94935       -11.54906         6.91166
     2013.95208        -5.08382         6.82143
     2013.95482        -5.97157         6.97991
     2013.95756        -5.24732         6.81218
     2013.96030        -5.91008         6.82143
     2013.96303        -3.95383         6.87580
     2013.96577       -11.59159         6.74972
     2013.96851        -1.38634         6.88159
     2013.97125       -14.74909         6.97528
     2013.97399       -20.60985         7.07939
     2013.97672        -2.46960         6.85382
     2013.97946        -9.82736         6.85035
     2013.98220        -6.11411         6.89547
     2013.98494        -9.83286         6.87233
     2013.98767       -13.50762         6.78095
     2013.99041       -16.39637         6.76360
     2013.99315       -20.33113         6.88737
     2013.99589       -10.12388         6.79020
     2013.99863       -12.75563         6.93827
     2014.00410       -12.32414         6.76244
     2014.00684        -8.89090         6.97528
     2014.00958       -13.69565         6.85961
     2014.01232       -18.79140         7.00536
     2014.01505        -9.30416         7.01808
     2014.01779       -15.81991         6.98107
     2014.02053        -7.03967         6.87812
     2014.02327       -13.75242         7.24365
     2014.02600       -11.12317         7.23093
     2014.02874        11.11907         7.10831
     2014.03148         6.70132         6.92670
     2014.03422        -4.22843         6.92439
     2014.03696       -13.09019         7.05163
     2014.03969       -11.58294         7.00883
     2014.04243       -15.50770         7.17078
     2014.04517        -9.31145         7.04469
     2014.04791       -11.99020         6.83994
     2014.05065        -6.24296         6.90241
     2014.05338       -15.20571         6.90009
     2014.05612        -9.96147         6.89547
     2014.05886       -24.83522         7.04700
     2014.06160        -7.01797         6.89084
     2014.06433       -11.16773         6.99726
     2014.06707       -15.13648         7.04238
     2014.06981       -10.79524         6.97297
     2014.07255       -12.82399         6.83763
     2014.07529        -8.82074         6.89084
     2014.07802        -0.29850         6.93595
     2014.08076       -12.05525         6.87465
     2014.08350       -14.12801         6.86539
     2014.08624       -14.36976         6.95446
     2014.08898       -16.49751         7.13839
     2014.09171       -10.41327         7.14070
     2014.09445       -12.96702         6.79136
     2014.09719       -21.24078         6.92207
     2014.09993       -13.31153         6.77169
     2014.10266        -9.67928         6.99842
     2014.10540        -6.89704         6.85614
     2014.10814         3.21821         6.91513
     2014.11088        -6.59455         7.06898
     2014.11362        -5.44930         7.06898
     2014.11635        -0.78905         6.95446
     2014.11909        -4.01281         7.04700
     2014.12183        -4.62056         7.12335
     2014.12457        -4.77832         6.96372
     2014.12731         2.50893         7.03197
     2014.13004         5.23218         7.07130
     2014.13278        -0.78958         7.30496
     2014.13552        -4.74733         7.23903
     2014.13826       -19.50108         7.11757
     2014.14099       -18.61084         7.19160
     2014.14373       -17.78259         7.21011
     2014.14647       -17.59435         7.24018
     2014.14921       -10.37010         7.20432
     2014.15195       -11.41985         7.09327
     2014.15468       -12.65061         7.18466
     2014.15742       -11.23036         7.20548
     2014.16016        -4.03912         7.35817
     2014.16290       -16.78987         7.11757
     2014.16564        -7.42162         7.08865
     2014.16837        -2.92638         7.40097
     2014.17111        -8.26813         7.44956
     2014.17385        -4.54189         7.35586
     2014.17659         4.85936         7.19738
     2014.17932         2.91361         7.69595
     2014.18206       -14.18215         7.46113
     2014.18480        -7.96290         7.21242
     2014.18754       -12.93866         7.20317
     2014.19028       -20.97841         7.24018
     2014.19301       -13.06216         7.13029
     2014.19575       -11.91992         7.24944
     2014.19849       -15.61667         7.28645
     2014.20123       -19.93943         7.25753
     2014.20397       -14.43718         7.19276
     2014.20670        -7.63793         7.30265
     2014.20944       -13.88069         7.28761
     2014.21218       -12.28144         7.19854
     2014.21492       -16.61920         7.47154
     2014.21765       -12.85195         7.26679
     2014.22039       -15.03670         7.23903
     2014.22313       -16.08146         7.19507
     2014.22587       -15.18921         7.30612
     2014.22861        -9.22897         7.15574
     2014.23134        -5.74672         7.15921
     2014.23408        -3.45447         7.34776
     2014.23682        -7.54823         7.44262
     2014.23956        -5.19798         7.64852
     2014.24230       -12.42673         7.40907
     2014.24503        -9.61849         7.33966
     2014.24777        -7.86124         7.66125
     2014.25051       -18.90600         7.37552
     2014.25325       -14.13975         7.35239
     2014.25598       -13.77750         7.48542
     2014.25872        -7.92726         7.35702
     2014.26146        -8.21401         7.76651
     2014.26420       -14.59177         7.41717
     2014.26694       -19.80752         7.35470
     2014.26967       -11.47427         7.57564
     2014.27241       -13.56203         7.52475
     2014.27515       -16.13378         7.48426
     2014.27789       -13.26854         7.41138
     2014.28062       -14.02129         7.36974
     2014.28336       -17.44304         7.28298
     2014.28610       -14.07080         7.80006
     2014.28884       -20.62955         7.45303
     2014.29158       -17.34731         7.29108
     2014.29431       -10.55506         7.38709
     2014.29705       -13.64481         7.30033
     2014.29979       -20.22257         7.30728
     2014.30253       -15.61632         7.30033
     2014.30527       -20.94508         7.26679
     2014.30800       -16.73283         7.40444
     2014.31074        -9.09658         7.67166
     2014.31348       -16.00034         7.41023
     2014.31622       -16.81409         7.43221
     2014.31895        -6.77485         7.51781
     2014.32169       -24.21560         7.90879
     2014.32443       -22.63835         7.81857
     2014.32717       -25.16011         7.67050
     2014.32991       -19.33086         7.71561
     2014.33264       -18.69962         7.67050
     2014.33538       -19.48337         7.47732
     2014.33812       -20.16212         7.58027
     2014.34086       -11.30388         7.45418
     2014.34360        -7.79563         7.52937
     2014.34633       -12.63138         7.49583
     2014.34907       -17.94214         7.61729
     2014.35181       -12.47689         7.65893
     2014.35455        -8.65865         7.80700
     2014.35728        -7.09840         7.80700
     2014.36002       -19.57015         7.59647
     2014.36276       -24.67691         7.58837
     2014.36550       -25.38166         7.48889
     2014.36824       -17.95242         7.58374
     2014.37097       -13.41717         7.39403
     2014.37371       -17.36492         7.42180
     2014.37645       -23.33068         7.45534
     2014.37919       -16.96143         7.43799
     2014.38193       -13.77519         7.37784
     2014.38466       -17.09694         7.48079
     2014.38740       -15.86669         7.42989
     2014.39014       -27.48245         7.49467
     2014.39288       -18.39620         7.52128
     2014.39561       -13.36696         7.35008
     2014.39835       -24.00971         7.49930
     2014.40109       -20.60846         7.35355
     2014.40383       -25.05422         7.29802
     2014.40657       -24.52797         7.32463
     2014.40930       -18.10873         7.34892
     2014.41204       -12.40648         7.20201
     2014.41478       -21.90623         7.16615
     2014.41752       -16.65999         7.08402
     2014.42026        -8.64274         7.04122
     2014.42299       -14.36250         7.07245
     2014.42573       -24.35325         7.09906
     2014.42847       -16.70300         7.10831
     2014.43121       -29.31776         7.01693
     2014.43394       -24.75751         7.02271
     2014.43668       -20.43927         7.08055
     2014.43942       -19.47702         7.03081
     2014.44216       -22.51277         7.00189
     2014.44490       -20.78053         7.23440
     2014.44763        -9.06128         7.20895
     2014.45037       -22.16503         7.04122
     2014.45311       -12.18079         7.06667
     2014.45489       -37.06602        14.14838
     2014.53356       -29.81602        15.44511
     2014.53525        -7.53041         6.81218
     2014.53798        -7.67516         6.80524
     2014.54072        -9.29592         6.95099
     2014.54346       -23.66767         6.87580
     2014.54620        -0.66642         6.86308
     2014.54893         3.18482         6.93248
     2014.55167        -0.21493         6.98685
     2014.55441        -1.66768         6.92901
     2014.55715        -7.71644         6.90935
     2014.55989        -7.53919         6.96140
     2014.56262        -6.27195         6.74277
     2014.56536       -10.65970         6.79483
     2014.56810        -5.83745         6.74856
     2014.57084       -10.07921         6.80987
     2014.57357        -9.87896         6.84688
     2014.57631        -4.32972         6.84804
     2014.57905        -4.63747         6.74509
     2014.58179        -3.71522         6.86192
     2014.58453         0.03302         6.92092
     2014.58726        -3.64473         7.33041
     2014.59000        -6.71749         6.97528
     2014.59274        -2.73524         6.95446
     2014.59548         1.87401         6.94637
     2014.59822        -6.15175         6.99842
     2014.60095         1.37650         7.08402
     2014.60369        -5.29026         6.96140
     2014.60643       -10.33901         6.94984
     2014.60917        -7.91076         7.00305
     2014.61190        -1.25252         7.23787
     2014.61464        -5.84427         6.93364
     2014.61738        -4.86603         7.08633
     2014.62012        -4.85778         7.12913
     2014.62286       -10.21853         6.93248
     2014.62559        -2.31929         6.88506
     2014.62833         2.87296         6.95678
     2014.63107        -3.14480         7.15805
     2014.63381        -7.33155         7.12219
     2014.63655         1.08670         6.91745
     2014.63928        -8.32606         6.82143
     2014.64202        -7.69381         6.80524
     2014.64476         0.32143         6.92207
     2014.64750        -5.76032         6.90819
     2014.65023        -3.69707         6.80408
     2014.65297        -0.48483         6.81565
     2014.65571         3.84042         6.96025
     2014.65845         3.70867         6.83185
     2014.66119       -17.67309         7.26795
     2014.66392         0.69016         6.91745
     2014.66666        -3.38260         6.94984
     2014.66940        -3.53135         6.85961
     2014.67214        -3.11110         6.92554
     2014.67488        -5.34086         6.82838
     2014.67761        -4.52161         6.85729
     2014.68035        -5.46637         6.83532
     2014.68309        -4.32512         6.82606
     2014.68583        -6.15487         6.83300
     2014.68856        -3.78963         6.86655
     2014.69130        -9.93938         6.92092
     2014.69404        -1.73914         6.76244
     2014.69678        -7.22389         6.82838
     2014.69952        -4.85164         6.83185
     2014.70225         1.26060         6.88737
     2014.70499        -1.51715         6.85498
     2014.70773        -1.22091         6.89547
     2014.71047        -3.15466         6.99495
     2014.71321        -0.17241         6.77979
     2014.71594         1.12683         6.91976
     2014.71868        -3.87792         6.84110
     2014.72142         0.99232         6.82028
     2014.72416        -0.75543         6.88621
     2014.72689        -0.80018         6.96834
     2014.72963         4.39606         6.85845
     2014.73237        -3.99869         7.01114
     2014.73511        -6.37745         6.85035
     2014.73785        -6.70620         6.86192
     2014.74058        -6.21095         6.93942
     2014.74332        -8.10671         6.91976
     2014.74606       -16.57346         7.11410
     2014.74880        -1.37722         7.07708
     2014.75154         2.29503         7.05510
     2014.75427        -4.27972         6.86655
     2014.75701        -3.78248         6.93364
     2014.75975        -8.02523         6.92323
     2014.76249        -1.53898         6.94984
     2014.76522        -5.53474         6.86655
     2014.76796         1.25451         6.81565
     2014.77070        -1.51025         6.87118
     2014.77344        -0.57100         6.91745
     2014.77618        -0.36475         7.28877
     2014.77891         2.28549         7.03428
     2014.78165        -4.91226         6.86655
     2014.78439         3.30098         6.83879
     2014.78713         3.81823         6.89662
     2014.78987        -3.67752         6.99726
     2014.79260        -0.25028         6.86076
     2014.79534        -3.98403         6.91398
     2014.79808         6.09321         6.96834
     2014.80082        -2.54854         6.91513
     2014.80355        -6.97329         7.03312
     2014.80629         4.26495         7.06436
     2014.80903        12.24120         6.96372
     2014.81177         8.14844         6.83763
     2014.81451        11.79869         6.87118
     2014.81724         8.63594         6.97760
     2014.81998         0.76018         7.05626
     2014.82272        14.95643         7.09790
     2014.82546        14.25167         6.85961
     2014.82820        -5.40108         6.79599
     2014.83093        -1.52183         6.91398
     2014.83367        -2.19859         6.93942
     2014.83641       -10.44034         6.97760
     2014.83915       -11.12910         6.90819
     2014.84188       -11.05685         7.07014
     2014.84462        -7.94960         7.09559
     2014.84736         2.23564         7.06204
     2014.85010        -5.66011         7.04585
     2014.85284         2.84313         7.03197
     2014.85557         3.06238         7.19160
     2014.85831        -3.88037         6.97297
     2014.86105        -5.22013         6.82722
     2014.86379        -3.85088         6.84457
     2014.86653        -4.18764         6.89431
     2014.86926        -7.59939         6.88621
     2014.87200        -6.20414         6.80061
     2014.87474       -11.13390         6.85614
     2014.87748        -5.98565         7.05973
     2014.88021        -2.25440         7.03775
     2014.88295        -0.89316         7.03891
     2014.88569        -7.74091         7.18929
     2014.88843        -4.22167         7.40560
     2014.89117        11.22258         7.36858
     2014.89390        -5.17417         7.24481
     2014.89664         0.82207         7.19854
     2014.89938       -12.45868         7.15458
     2014.90212        -4.51944         7.18582
     2014.90485        10.99981         7.23324
     2014.90759        13.79306         7.17425
     2014.91033         6.36730         6.94058
     2014.91307        -4.95245         6.94521
     2014.91581        -6.51321         6.91976
     2014.91854         1.60404         6.91629
     2014.92128        -5.76571         6.99726
     2014.92402        -6.10847         6.97528
     2014.92676        -5.75122         6.94868
     2014.92950        -8.99198         7.00189
     2014.93223       -12.44373         6.95215
     2014.93497       -21.57948         7.02734
     2014.93771         0.04276         7.07130
     2014.94045         1.88101         6.97528
     2014.94318         4.16725         7.36280
     2014.94592        -6.53050         6.91166
     2014.94866       -21.62025         6.87349
     2014.95140       -13.11201         6.79483
     2014.95414        -2.44476         6.77169
     2014.95687        -4.68252         6.82259
     2014.95961        -1.43027         6.85498
     2014.96235        -9.87202         6.86192
     2014.96509        -4.75078         7.00420
     2014.96783        -9.08353         6.89778
     2014.97056        -8.77229         6.87812
     2014.97330       -17.93704         6.93942
     2014.97604       -26.50079         6.92670
     2014.97878        -8.48355         6.95099
     2014.98151        -9.93530         7.06436
     2014.98425       -21.94405         6.93248
     2014.98699        -6.27481         6.83994
     2014.98973       -15.08056         6.80177
     2014.99247       -14.62432         6.77401
     2014.99520       -23.42207         6.77748
     2014.99794       -13.58882         6.90009
     2015.00068       -17.49358         6.86192
     2015.00342       -12.98433         6.88506
     2015.00616       -19.25209         6.90935
     2015.00889       -10.56784         6.88737
     2015.01163       -20.11859         7.10947
     2015.01437       -12.48735         6.95909
     2015.01711       -12.20310         7.02155
     2015.01984        -6.86886         6.93942
     2015.02258        -5.81461         7.18582
     2015.02532       -10.85236         7.04585
     2015.02806       -18.25012         7.02155
     2015.03080       -28.35087         6.98685
     2015.03353       -12.56163         6.87118
     2015.03627        -9.82538         7.00999
     2015.03901        -3.30013         6.94405
     2015.04175        -1.90289         6.95215
     2015.04449       -12.38264         6.90472
     2015.04722         0.47860         7.01114
     2015.04996       -14.83815         6.95562
     2015.05270       -13.21990         6.87465
     2015.05544       -14.26566         6.91629
     2015.05817        -9.01741         6.85035
     2015.06091        -9.44517         6.89084
     2015.06365        -6.59492         7.14880
     2015.06639        -2.11967         6.94868
     2015.06913       -10.48043         6.84804
     2015.07186       -14.26718         6.83879
     2015.07460       -11.37894         6.83185
     2015.07734       -11.75969         6.86655
     2015.08008       -13.40344         6.88737
     2015.08282       -10.71920         6.91282
     2015.08555       -13.57195         6.89084
     2015.08829        -4.66470         6.93364
     2015.09103        -7.26346         6.77169
     2015.09377        -9.69121         6.85498
     2015.09650        -3.84297         7.16152
     2015.09924         4.15928         7.09906
     2015.10198        -0.83747         6.91745
     2015.10472         7.00777         6.90125
     2015.10746         0.08902         6.87002
     2015.11019       -17.28074         7.05510
     2015.11293       -12.23649         6.93364
     2015.11567        -7.51224         6.93595
     2015.11841       -16.74300         6.90009
     2015.12115       -11.02875         6.81102
     2015.12388       -14.80651         6.76938
     2015.12662       -17.91226         6.87002
     2015.12936       -14.66101         6.92554
     2015.13210       -13.04777         6.95562
     2015.13483       -13.74152         7.00883
     2015.13757       -19.06028         6.99958
     2015.14031       -19.61203         6.84226
     2015.14305       -15.06978         6.73005
     2015.14579       -13.62054         6.82722
     2015.14852       -11.80229         6.88737
     2015.15126       -12.62705         6.86076
     2015.15400       -15.81880         6.99611
     2015.15674       -13.07955         6.87233
     2015.15948       -11.64831         6.86424
     2015.16221       -11.30006         6.75203
     2015.16495        -9.36182         6.80524
     2015.16769       -15.86057         6.81218
     2015.17043       -11.26732         6.86308
     2015.17316       -19.09108         7.07708
     2015.17590       -12.60883         7.04700
     2015.17864       -11.79459         6.90935
     2015.18138        -7.57734         6.83069
     2015.18412        -6.51309         6.91860
     2015.18685        -7.59385         6.89547
     2015.18959       -12.19660         6.88621
     2015.19233       -20.91935         7.00073
     2015.19507        -8.06111         6.82143
     2015.19780        -6.50586         6.97181
     2015.20054        -2.18762         6.92439
     2015.20328       -11.76737         6.83069
     2015.20602       -12.29712         7.11410
     2015.20876       -16.61588         6.82722
     2015.21149       -13.70263         6.79020
     2015.21423       -16.39039         7.02155
     2015.21697        -3.72514         6.91976
     2015.21971       -11.75289         6.82606
     2015.22245        -5.50565         6.77748
     2015.22518        -5.92440         6.84920
     2015.22792       -10.03116         6.85961
     2015.23066       -14.64291         6.78789
     2015.23340        -2.93266         7.02850
     2015.23613       -11.22242         7.00189
     2015.23887       -11.65717         7.14533
     2015.24161        -4.20793         7.15227
     2015.24435       -10.44868         7.04932
     2015.24709        -9.37543         6.98338
     2015.24982       -16.47619         6.93827
     2015.25256       -15.04694         6.81334
     2015.25530        -9.65770         6.77401
     2015.25804       -10.97345         6.67568
     2015.26078       -10.69220         6.75203
     2015.26351       -10.47096         6.82259
     2015.26625       -17.39171         6.85267
     2015.26899       -11.69747         6.80293
     2015.27173        -5.54522         6.98454
     2015.27446        -4.36297         6.91166
     2015.27720        -7.44973         6.83416
     2015.27994        -9.55048         6.90819
     2015.28268        -9.94424         6.69997
     2015.28542       -17.79199         6.93480
     2015.28815       -15.11474         7.00883
     2015.29089       -13.97750         6.89431
     2015.29363       -17.55825         6.92901
     2015.29637       -11.32100         6.91166
     2015.29911        -5.86476         6.91282
     2015.30184        -5.99651         6.84688
     2015.30458       -11.05127         6.81218
     2015.30732        -8.84302         6.84110
     2015.31006       -16.54177         6.73352
     2015.31279       -19.72153         6.75897
     2015.31553       -13.89728         6.62710
     2015.31827       -23.75904         6.71039
     2015.32101       -10.85779         6.79714
     2015.32375       -15.07654         6.88968
     2015.32648       -11.25130         6.90935
     2015.32922       -10.84905         6.88853
     2015.33196        -6.71181         6.66412
     2015.33470       -13.47556         6.69882
     2015.33744       -10.28531         6.79136
     2015.34017       -16.24707         6.81912
     2015.34291       -21.50782         6.68841
     2015.34565       -17.63458         6.69535
     2015.34839       -12.50433         6.76244
     2015.35112       -11.13208         6.77863
     2015.35386        -6.55584         6.83069
     2015.35660       -12.72559         6.75434
     2015.35934       -17.02735         6.87233
     2015.36208       -12.27610         6.83069
     2015.36481       -10.00685         6.77748
     2015.36755        -8.66161         6.84457
     2015.37029        -8.40636         6.77979
     2015.37303       -14.38312         6.69882
     2015.37577       -14.27587         6.80177
     2015.37850       -13.48562         6.98107
     2015.38124       -11.41938         6.73930
     2015.38398       -12.81913         6.68956
     2015.38672        -7.51289         6.64561
     2015.38945       -11.35064         6.70692
     2015.39219        -8.79339         6.74162
     2015.39493        -4.95115         6.70113
     2015.39767       -17.54790         6.76475
     2015.40041        -9.55165         6.62826
     2015.40314       -10.90041         6.86308
     2015.40588        -6.17716         6.77979
     2015.40862       -10.68892         6.78905
     2015.41136        -8.44667         6.75897
     2015.41410       -11.74342         6.84688
     2015.41683       -15.09318         6.72774
     2015.41957       -14.12393         6.66990
     2015.42231        -9.18869         6.64676
     2015.42505       -15.92644         6.92786
     2015.42778       -12.21519         6.72774
     2015.43052        -2.60295         6.72774
     2015.43326        -7.06870         6.67800
     2015.43600       -10.26046         6.71386
     2015.43874        -5.06521         6.65717
     2015.44147       -20.16996         6.92786
     2015.44421        -3.38772         6.78442
     2015.44695        -4.28847         6.62594
     2015.44969        -9.57723         6.64908
     2015.45243        -6.33498         6.77632
     2015.45516        -6.72373         6.68378
     2015.45790        -5.48949         6.91166
     2015.46064        -2.22524         6.99032
     2015.46338        -9.46700         6.93711
     2015.46611        -4.35375         6.67915
     2015.46885        -2.66150         6.68609
     2015.47159        -4.34426         6.62594
     2015.47433        -5.49201         6.91513
     2015.47707        -6.68477         6.76822
     2015.47980        -5.41352         6.82028
     2015.48254        -2.51427         6.77054
     2015.48528        -5.15603         6.84573
     2015.48802        -9.53278         6.67337
     2015.49076        -7.44454         6.89200
     2015.49349         3.65371         6.78095
     2015.49623        -8.56904         6.77632
     2015.49897        -6.47680         6.77169
     2015.50171         2.31245         6.66064
     2015.50444         1.52670         6.66412
     2015.50718        -3.27806         6.62594
     2015.50992        -0.65681         6.78673
     2015.51266         0.57843         6.74162
     2015.51540        -1.32632         6.67106
     2015.51813         1.95893         6.75087
     2015.52087        -1.32183         6.75087
     2015.52361        -0.63558         6.80640
     2015.52635        -0.54834         6.68031
     2015.52908         1.87791         6.69188
     2015.53182         1.32916         6.75319
     2015.53456         3.49440         6.68378
     2015.53730       -15.03535         6.68378
     2015.54004        -1.70211         6.84920
     2015.54277        -2.97886         6.87927
     2015.54551         3.48039         6.81565
     2015.54825         1.91363         6.87465
     2015.55099        -5.02212         6.85845
     2015.55373         2.08312         6.84110
     2015.55646         5.42237         6.98338
     2015.55920        -2.83938         6.86771
     2015.56194        -1.21314         6.82028
     2015.56468        -2.38389         6.92901
     2015.56741        -8.82365         6.94868
     2015.57015         0.70460         7.00189
     2015.57289        -2.22015         7.05626
     2015.57563         1.27609         6.83763
     2015.57837         1.45734         6.83532
     2015.58110         8.67358         6.91513
     2015.58384         0.82883         6.84804
     2015.58658         1.06908         6.84457
     2015.58932         0.73532         6.92786
     2015.59206        -0.25443         6.83300
     2015.59479         3.07581         6.94868
     2015.59753        11.26106         6.79830
     2015.60027         8.98231         7.13376
     2015.60301         5.39055         7.02850
     2015.60574         4.29880         7.00305
     2015.60848        13.67505         6.99958
     2015.61122         6.91629         6.91051
     2015.61396        13.02854         6.88737
     2015.61670        -1.25622         6.63520
     2015.61943        -8.58797         6.81912
     2015.62217         3.63128         6.58314
     2015.62491        12.93452         6.71270
     2015.62765         8.81777         6.67337
     2015.63039        12.08101         6.66412
     2015.63312         2.08726         6.76360
     2015.63586        21.53151         6.94405
     2015.63860         4.76275         6.65139
     2015.64134         8.43900         6.72889
     2015.64407        -0.18076         6.69882
     2015.64681         2.31349         6.86424
     2015.64955         8.18874         6.76475
     2015.65229         5.71698         6.66874
     2015.65503         8.38523         6.79136
     2015.65776        11.55247         6.86886
     2015.66050        14.06472         6.83416
     2015.66324        -1.88903         6.73583
     2015.66598        12.02421         6.73815
     2015.66872        10.33846         6.78558
     2015.67145        -1.14230         6.80871
     2015.67419         6.35495         6.62826
     2015.67693        -0.96280         6.67800
     2015.67967        -3.75256         6.75897
     2015.68240         2.80669         6.67800
     2015.68514        -0.11407         6.73121
     2015.68788         4.54618         6.80408
     2015.69062         4.26843         6.74972
     2015.69336         3.94967         6.92901
     2015.69609         5.69892         6.66412
     2015.69883        13.90116         6.73815
     2015.70157         6.50741         6.78905
     2015.70431         2.50466         6.65255
     2015.70705         4.88690         6.63982
     2015.70978         9.56015         6.64445
     2015.71252        -3.30460         6.67684
     2015.71526         7.80764         6.71964
     2015.71800         5.91589         6.72774
     2015.72073         8.17613         6.65255
     2015.72347         8.29738         6.67915
     2015.72621         3.77963         6.64445
     2015.72895         0.15787         6.66874
     2015.73169         5.15412         6.73236
     2015.73442         7.86636         6.81334
     2015.73716         5.52261         6.70344
     2015.73990         7.17086         6.76244
     2015.74264         7.90210         6.85151
     2015.74538         7.02535         7.02387
     2015.74811         5.44959         7.12566
     2015.75085        -1.02116         6.76707
     2015.75359       -16.52091         6.82953
     2015.75633         1.87033         6.72774
     2015.75906         9.79458         6.69188
     2015.76180         4.20582         6.76707
     2015.76454         0.17907         6.82838
     2015.76728         7.55632         6.86076
     2015.77002         4.44756         6.81102
     2015.77275        11.33981         6.80293
     2015.77549         7.99805         6.89894
     2015.77823        10.30230         6.77169
     2015.78097        -1.53645         6.89200
     2015.78371         5.46279         6.70807
     2015.78644        11.10504         6.71270
     2015.78918         6.23328         6.70807
     2015.79192         7.92453         6.79020
     2015.79466         4.80778         6.82375
     2015.79739        -2.93498         6.84573
     2015.80013        -5.64073         6.97297
     2015.80287         1.25851         6.70344
     2015.80561         4.50776         6.79714
     2015.80835         4.54101         6.74972
     2015.81108        -0.09475         6.86539
     2015.81382         5.13250         6.85267
     2015.81656         2.93875         6.74856
     2015.81930        -0.20701         6.73121
     2015.82203         1.26024         6.91860
     2015.82477        11.49648         7.01577
     2015.82751         4.45973         7.01693
     2015.83025        16.92898         6.93595
     2015.83299        12.11322         6.98222
     2015.83572        -3.72453         6.96950
     2015.83846        -5.24829         7.01461
     2015.84120        -4.56704         6.91398
     2015.84394       -16.20179         7.02618
     2015.84668        -8.62155         6.96487
     2015.84941        -2.31630         7.04469
     2015.85215         3.40494         7.04353
     2015.85489         1.58019         6.98917
     2015.85763        -3.02256         6.93248
     2015.86036        -5.64832         7.01577
     2015.86310        -2.42207         6.87349
     2015.86584       -11.15183         6.98338
     2015.86858        -5.42258         6.95678
     2015.87132        -4.56533         6.93480
     2015.87405        -5.13909         6.87927
     2015.87679        -8.06784         6.91976
     2015.87953         3.25140         6.96834
     2015.88227        -1.21435         6.92786
     2015.88501       -11.41510         6.98454
     2015.88774        -9.52986         6.90819
     2015.89048        -1.74061         6.88968
     2015.89322         0.58663         6.83879
     2015.89596         1.39488         6.84110
     2015.89869        -2.41887         6.85382
     2015.90143       -12.21863         6.92670
     2015.90417       -12.68638         6.87233
     2015.90691        -9.98014         6.81681
     2015.90965        -7.07489         6.86308
     2015.91238        -3.23964         6.98917
     2015.91512        -3.72440         7.02040
     2015.91786        -4.65715         6.99495
     2015.92060         3.77410         7.00536
     2015.92334        -8.20966         7.02734
     2015.92607       -14.26441         6.93942
     2015.92881        -3.06317         7.12682
     2015.93155        -5.21592         7.30149
     2015.93429        -5.84867         7.42874
     2015.93702         8.31457         7.21589
     2015.93976        -2.72018         7.26216
     2015.94250         2.07906         7.26332
     2015.94524        -5.73569         7.14302
     2015.94798        -0.92244         7.18929
     2015.95071        -7.07320         6.94637
     2015.95345       -23.53295         6.86076
     2015.95619        -6.97371         7.10137
     2015.95893       -11.90246         7.14764
     2015.96167        -5.06521         7.09327
     2015.96440        -8.42397         6.91629
     2015.96714        -6.58072         6.92670
     2015.96988        -3.18348         7.02155
     2015.97262        10.05277         7.05279
     2015.97535        -6.13898         6.97644
     2015.97809        -3.63774         7.00189
     2015.98083       -12.10349         6.88390
     2015.98357       -14.32025         6.92670
     2015.98631       -18.88000         6.89431
     2015.98904       -17.44275         6.88737
     2015.99178       -22.30651         6.87233
     2015.99452       -20.05526         6.86076
     2015.99726       -10.31402         6.89547
     2016.00000        -7.57177         6.88621
     2016.00273       -11.07152         6.84341
     2016.00547        -9.82928         6.84457
     2016.00821       -12.34803         6.94290
     2016.01095       -11.54479         6.95099
     2016.01368       -12.56254         6.87002
     2016.01642        -8.90529         7.11872
     2016.01916        -9.81605         7.19391
     2016.02190       -11.08680         6.99148
     2016.02464       -13.80055         6.88621
     2016.02737       -10.21331         6.94637
     2016.03011       -10.44206         6.96487
     2016.03285         1.53618         7.05510
     2016.03559        -5.92457         7.03081
     2016.03833         1.60268         7.13492
     2016.04106        -4.11308         6.95215
     2016.04380        -6.98383         6.99495
     2016.04654       -11.45259         6.95331
     2016.04928        -8.43634         6.89431
     2016.05201        -2.89509         7.10369
     2016.05475        -7.77085         6.88390
     2016.05749        -8.45660         6.80871
     2016.06023        -9.53136         6.81912
     2016.06297       -19.18511         6.88159
     2016.06570       -14.14986         7.01924
     2016.06844       -17.79862         7.03312
     2016.07118       -17.95637         7.14186
     2016.07392       -14.56013         7.22283
     2016.07666       -12.88088         7.12219
     2016.07939        -9.03363         6.87812
     2016.08213       -14.79439         7.06088
     2016.08487       -21.69914         6.87002
     2016.08761       -18.76490         6.93017
     2016.09034       -23.64965         6.94058
     2016.09308        -9.67040         6.87696
     2016.09582       -25.91516         6.96834
     2016.09856       -23.93491         6.94868
     2016.10130       -18.97867         6.98107
     2016.10403       -19.77242         6.85729
     2016.10677       -22.09117         6.92670
     2016.10951       -18.31293         6.95909
     2016.11225       -20.13568         6.91629
     2016.11498       -16.74544         7.01114
     2016.11772       -19.69119         6.88968
     2016.12046       -23.20694         6.86771
     2016.12320       -21.10370         7.27373
     2016.12594       -12.89545         6.90588
     2016.12867        -6.86220         6.83647
     2016.13141        -8.43196         6.79483
     2016.13415        -6.28671         6.93827
     2016.13689       -10.92947         6.86539
     2016.13963       -18.96922         6.90704
     2016.14236       -24.51297         6.89200
     2016.14510       -19.20673         6.85151
     2016.14784       -24.52248         6.90588
     2016.15058       -18.51524         6.91860
     2016.15331       -15.53899         7.05741
     2016.15605       -16.97974         6.99958
     2016.15879        -8.88550         7.23556
     2016.16153       -13.41625         7.12682
     2016.16427       -21.62701         7.12104
     2016.16700        -9.69276         7.02040
     2016.16974       -17.98951         7.02965
     2016.17248       -16.60027         7.14070
     2016.17522       -11.25702         6.95215
     2016.17796        -9.02578         6.98570
     2016.18069        -9.34453         7.07014
     2016.18343       -23.21528         7.23209
     2016.18617       -11.60804         6.95678
     2016.18891        -1.82279         6.94058
     2016.19164       -11.77255         6.88621
     2016.19438        -6.35930         6.81449
     2016.19712        -5.00005         6.91860
     2016.19986        -9.93581         7.21242
     2016.20260       -14.85056         7.34892
     2016.20533       -22.75532         7.68901
     2016.20807       -14.57007         7.44724
     2016.21081       -19.22082         7.40329
     2016.21355       -21.89758         7.21242
     2016.21629       -13.99533         7.05163
     2016.21902        -9.95109         7.04700
     2016.22176       -23.76084         6.99726
     2016.22450       -31.60759         7.10137
     2016.22724       -10.36435         7.09327
     2016.22997       -19.28710         7.22515
     2016.23271       -14.31985         7.19160
     2016.23545       -20.16061         7.25985
     2016.23819       -22.55936         7.25869
     2016.24093       -16.98112         7.42758
     2016.24366       -20.07787         7.32463
     2016.24640       -10.57262         7.39982
     2016.24914       -19.97438         7.25291
     2016.25188       -11.03213         7.11988
     2016.25462       -16.80689         7.06551
     2016.25735       -22.81064         7.12682
     2016.26009       -15.94339         7.20317
     2016.26283       -19.12515         7.10600
     2016.26557       -14.43490         7.05857
     2016.26830        -9.68766         7.11872
     2016.27104        -4.07541         6.98454
     2016.27378        -5.77316         7.03659
     2016.27652       -15.72392         6.96140
     2016.27926       -14.53567         7.03081
     2016.28199       -20.51143         7.00652
     2016.28473        -5.98918         6.97991
     2016.28747       -22.68093         7.07592
     2016.29021       -22.66269         7.01230
     2016.29295       -17.76044         6.99495
     2016.29568       -18.62420         6.98685
     2016.29842       -17.54495         7.18235
     2016.30116       -17.88770         7.08749
     2016.30390       -19.10646         7.12335
     2016.30663        -9.28521         7.04932
     2016.30937       -21.43397         7.02271
     2016.31211       -21.00372         7.02850
     2016.31485       -14.17347         6.97181
     2016.31759       -14.85423         6.96487
     2016.32032       -20.07698         7.04585
     2016.32306       -23.98374         6.94637
     2016.32580       -27.09649         6.98107
     2016.32854       -21.08124         7.07014
     2016.33128       -22.91000         6.94984
     2016.33401       -18.16175         7.17078
     2016.33675       -13.19850         7.05279
     2016.33949       -15.54026         7.08518
     2016.34223       -12.23801         7.02387
     2016.34496       -22.24677         7.18466
     2016.34770       -21.41752         6.98454
     2016.35044       -10.66127         7.11757
     2016.35318       -18.47003         6.92207
     2016.35592       -17.05878         6.93595
     2016.35865       -23.53554         6.86886
     2016.36139       -15.01529         6.89200
     2016.36413       -10.37204         6.96025
     2016.36687        -8.82880         6.87927
     2016.36961       -15.65155         6.90935
     2016.37234       -16.10731         6.94405
     2016.37508        -9.66706         6.88853
     2016.37782       -21.81781         6.88043
     2016.38056       -18.02857         6.94174
     2016.38329       -13.28432         6.80640
     2016.38603       -18.87208         6.82722
     2016.38877        -7.44483         6.77054
     2016.39151       -17.00358         6.86655
     2016.39425       -14.85134         6.77979
     2016.39698        -7.69709         6.85267
     2016.39972       -11.39185         6.84110
     2016.40246        -6.19260         6.99379
     2016.40520       -15.03135         6.89547
     2016.40794       -16.65011         6.91051
     2016.41004       -17.01484         9.15463
     2016.83611         5.24594        12.75216
     2018.80903         0.93968         6.59355
     2018.81177        -6.09007         7.05626
     2018.81451        -4.17783         6.88506
     2018.81724        -0.06258         6.88621
     2018.81998        -1.69434         6.79367
     2018.82272         9.94091         6.75666
     2018.82546        -0.64384         6.80524
     2018.82820        -3.96260         6.70692
     2018.83093         2.58465         6.75434
     2018.83367        10.48489         6.76360
     2018.83641         3.46214         6.72542
     2018.83915        16.47439         6.66412
     2018.84188        -9.87337         6.75087
     2018.84462        -7.38212         6.88043
     2018.84736        -2.48688         6.67221
     2018.85010        -2.24163         6.60743
     2018.85284        -4.88438         6.58314
     2018.85557        -2.52014         6.70692
     2018.85831        -9.28289         6.71848
     2018.86105        -3.78464         6.63751
     2018.86379        -3.19640         6.81912
     2018.86653         0.88985         6.61437
     2018.86926        -8.07791         6.75319
     2018.87200        -7.58466         6.62479
     2018.87474       -17.38541         6.72774
     2018.87748        -1.15117         6.76360
     2018.88021        -1.12092         6.79367
     2018.88295        -0.83668         6.81334
     2018.88569        -0.39443         6.81449
     2018.88843         2.29582         6.82838
     2018.89117         0.98006         6.84920
     2018.89390         9.31131         6.93248
     2018.89664        -3.94145         7.13260
     2018.89938        -1.07820         6.81565
     2018.90212        -6.48995         6.74509
     2018.90485         0.78729         6.98570
     2018.90759         1.68654         6.86076
     2018.91033        -0.14122         6.78789
     2018.91307         4.13803         6.98685
     2018.91581        -0.24172         6.84226
     2018.91854        -2.05248         6.81796
     2018.92128        -5.14623         6.85151
     2018.92402        -3.19899         6.79483
     2018.92676        -1.59274         6.78673
     2018.92950         0.96351         6.76938
     2018.93223        -6.26125         6.97413
     2018.93497        -1.10700         6.94752
     2018.93771        -0.81576         6.88043
     2018.94045        -2.61451         6.84688
     2018.94318         3.84974         6.78673
     2018.94592         6.21498         6.73121
     2018.94866         1.39223         6.75781
     2018.95140         6.61647         6.90009
     2018.95414         6.89672         6.71039
     2018.95687         6.24597         6.80755
     2018.95961         4.09421         6.79136
     2018.96235         7.76746         6.78095
     2018.96509        -2.49729         6.86308
     2018.96783         4.73195         6.87118
     2018.97056        -3.42880         6.78905
     2018.97330        -7.40956         6.77285
     2018.97604         4.55869         6.79830
     2018.97878        -5.15106         6.74740
     2018.98151       -18.71782         6.73468
     2018.98425        -1.19757         6.90241
     2018.98699       -11.59133         6.96719
     2018.98973       -13.43008         6.80061
     2018.99247       -24.11683         7.17540
     2018.99520       -30.23159         7.25175
     2018.99794       -28.11134         7.34545
     2019.00068       -24.24510         7.07361
     2019.00342        -9.84085         7.05973
     2019.00616        -8.52460         6.90241
     2019.00889         3.46964         6.79367
     2019.01163        -4.86611         6.90241
     2019.01437         7.63413         6.83763
     2019.01711         4.32438         6.79136
     2019.01984        -7.78737         6.83300
     2019.02258        -3.77413         6.84110
     2019.02532        -8.75588         7.01230
     2019.02806        -8.28864         6.85845
     2019.03080        -9.69039         6.79830
     2019.03353       -15.10014         6.78442
     2019.03627       -21.76290         6.70923
     2019.03901        -7.08865         6.69882
     2019.04175        -7.14441         6.78326
     2019.04449        -4.95116         6.76360
     2019.04722       -17.31491         7.01461
     2019.04996        -6.77867         7.04122
     2019.05270       -20.77342         6.88043
     2019.05544       -18.09218         6.76013
     2019.05817       -13.93493         7.02618
     2019.06091         1.27632         7.13723
     2019.06365       -13.68944         6.97644
     2019.06639       -10.31019         6.97528
     2019.06913       -17.61294         7.03197
     2019.07186       -11.16170         6.95446
     2019.07460       -10.38645         6.76822
     2019.07734        -8.51421         6.74740
     2019.08008        -8.64296         6.78905
     2019.08282       -10.05671         6.93827
     2019.08555        -7.43547         6.75203
     2019.08829       -10.36822         6.73468
     2019.09103        -8.26598         6.75897
     2019.09377        -3.03073         6.66759
     2019.09650       -13.06948         6.68956
     2019.09924        -8.39024         6.59934
     2019.10198       -13.15499         6.67684
     2019.10472       -16.14875         6.68031
     2019.10746        -9.88550         6.68725
     2019.11019       -10.06425         6.71733
     2019.11293         3.26899         6.76475
     2019.11567         4.07324         7.00305
     2019.11841         8.27148         6.84226
     2019.12115         6.54073         7.07361
     2019.12388         0.40098         7.08980
     2019.12662        -0.68578         6.82838
     2019.12936       -11.24153         7.09559
     2019.13210       -15.24429         6.90009
     2019.13483       -11.78704         6.93827
     2019.13757        -7.94879         6.77285
     2019.14031        -7.74655         6.82953
     2019.14305        -4.47130         6.67337
     2019.14579        -5.95806         6.70576
     2019.14852        -6.15681         6.74277
     2019.15126        -4.75856         6.76822
     2019.15400       -11.77332         6.76475
     2019.15674        -6.94907         6.73468
     2019.15948       -15.40283         6.62363
     2019.16221       -16.62558         6.76013
     2019.16495       -18.78533         6.69997
     2019.16769       -18.18009         6.68262
     2019.17043       -16.16384         6.73815
     2019.17316       -17.17959         6.75087
     2019.17590       -17.26135         6.71039
     2019.17864       -15.44510         6.74046
     2019.18138       -16.40686         6.68262
     2019.18412       -26.18561         6.70460
     2019.18685       -17.30336         6.69882
     2019.18959       -15.50612         6.79020
     2019.19233       -14.11187         6.82606
     2019.19507       -19.46763         6.78442
     2019.19780       -18.27438         6.77748
     2019.20054       -23.21213         6.93827
     2019.20328       -21.37589         6.80524
     2019.20602       -20.66264         6.82375
     2019.20876       -23.80540         6.81102
     2019.21149       -18.51615         6.92323
     2019.21423       -18.89590         6.96025
     2019.21697       -16.31866         6.79946
     2019.21971       -12.95941         7.13607
     2019.22245       -13.33217         6.91745
     2019.22518       -15.74192         6.83647
     2019.22792       -13.28867         6.98685
     2019.23066       -17.02743         6.81218
     2019.23340       -12.26218         6.85729
     2019.23613       -16.84494         6.83763
     2019.23887       -18.09369         6.74162
     2019.24161       -18.85244         6.96719
     2019.24435       -21.41320         6.89084
     2019.24709       -15.77995         6.99726
     2019.24982       -14.80371         6.85845
     2019.25256       -15.82346         7.15458
     2019.25530       -16.34621         6.84688
     2019.25804       -14.55697         6.86539
     2019.26078        -6.54472         6.82143
     2019.26351        -8.04848         7.06551
     2019.26625       -21.29123         6.82722
     2019.26899       -19.14598         6.98801
     2019.27173       -23.03374         7.17309
     2019.27446       -28.85549         6.90241
     2019.27720       -23.01824         7.02155
     2019.27994       -16.83800         6.92670
     2019.28268       -21.47575         6.83300
     2019.28542       -13.79651         6.76244
     2019.28815       -17.91126         6.74509
     2019.29089        -8.21501         6.75203
     2019.29363       -16.24877         6.80755
     2019.29637       -12.57552         6.91166
     2019.29911        -7.69528         6.89084
     2019.30184       -13.26403         6.72889
     2019.30458       -14.71478         6.67568
     2019.30732       -14.55954         6.88968
     2019.31006       -11.12229         6.92554
     2019.31279       -17.76505         6.93364
     2019.31553        -9.74080         6.82838
     2019.31827       -14.93255         6.85035
     2019.32101       -16.49331         6.72774
     2019.32375       -25.63206         6.63982
     2019.32648       -15.78282         6.78442
     2019.32922       -22.20557         6.78210
     2019.33196       -20.52232         6.97644
     2019.33470       -20.27708         6.87349
     2019.33744        -9.71983         6.70344
     2019.34017       -16.95059         6.74972
     2019.34291        -8.88834         6.70692
     2019.34565        -8.70209         6.85961
     2019.34839       -17.94685         6.82375
     2019.35112       -16.73360         6.72080
     2019.35386        -8.44236         6.72195
     2019.35660        -9.00111         6.70576
     2019.35934       -13.19086         6.83763
     2019.36208        -6.84062         6.71386
     2019.36481        -9.15537         6.74393
     2019.36755       -12.74313         6.74856
     2019.37029       -10.10188         6.90241
     2019.37303       -16.69463         6.76244
     2019.37577       -13.41639         6.92092
     2019.37850       -10.99514         6.66759
     2019.38124        -6.58689         6.74393
     2019.38398        -4.40465         6.70807
     2019.38672       -16.33940         6.78558
     2019.38945       -17.00016         6.77169
     2019.39219       -14.61791         6.97991
     2019.39493        -9.33766         6.71501
     2019.39767       -12.53142         6.76360
     2019.40041       -10.02917         6.72774
     2019.40314       -19.13493         6.74509
     2019.40588        -7.22368         6.75434
     2019.40862       -13.30243         6.67337
     2019.41136       -11.40519         6.80408
     2019.41410        -8.79594         6.71848
     2019.41683       -12.93970         6.72195
     2019.41957       -19.31045         6.82606
     2019.42231       -10.40420         6.73236
     2019.42505       -12.03396         6.73930
     2019.42778       -11.51671         6.92439
     2019.43052       -13.16847         6.80408
     2019.43326        -9.34322         6.83994
     2019.43600       -12.11997         6.79367
     2019.43874       -12.68973         6.81334
     2019.44147       -16.40748         6.84226
     2019.44421       -11.25024         6.77632
     2019.44695       -15.26199         6.93248
     2019.44969       -10.77774         6.85614
     2019.45243       -13.22550         6.79136
     2019.45516        -6.33525         6.96719
     2019.45790       -10.12701         6.92323
     2019.46064       -10.91176         6.89200
     2019.46338       -10.37051         7.15574
     2019.46611       -20.82027         7.21473
     2019.46885       -16.00302         6.94174
     2019.47159        -4.62578         6.84226
     2019.47433         0.50547         6.88621
     2019.47707        -3.89528         6.86424
     2019.47980        -5.09204         6.82143
     2019.48254        -5.53779         6.89894
     2019.48528        -7.28354         6.84920
     2019.48802       -10.82330         6.77169
     2019.49076       -11.38605         6.75666
     2019.49349        -6.55181         6.74740
     2019.49623         1.97844         6.77748
     2019.49897        -5.56931         6.67800
     2019.50171       -16.02307         6.71154
     2019.50444        -5.39082         6.63867
     2019.50718        -6.93558         6.62941
     2019.50992       -10.76633         6.80755
     2019.51266       -18.51008         6.69188
     2019.51540       -12.07884         6.66643
     2019.51813        -2.42359         6.67221
     2019.52087        -7.06435         6.71848
     2019.52361       -11.56910         6.67568
     2019.52635        -6.81885         6.64792
     2019.52908        -8.78461         7.14417
     2019.53182       -11.62836         6.84226
     2019.53456       -10.85512         6.87927
     2019.53730        -8.70887         6.87927
     2019.54004       -10.14362         6.93017
     2019.54277         2.56862         7.05279
     2019.54551        -5.69313         7.06551
     2019.54825        -1.68789         6.74162
     2019.55099        -4.37964         6.71501
     2019.55373        -4.90239         6.93480
     2019.55646         1.30385         7.02387
     2019.55920       -17.40590         7.07361
     2019.56194         1.46034         6.68378
     2019.56468        -3.59341         6.77979
     2019.56741        -7.03916         6.76244
     2019.57015        -5.74292         6.68956
     2019.57289        -3.15867         6.80987
     2019.57563         1.09257         6.69188
     2019.57837        -6.45518         6.81565
     2019.58110        -1.76393         6.61090
     2019.58384        -7.87169         6.93942
     2019.58658        -8.29244         6.74625
     2019.58932         5.52881         6.69882
     2019.59206         7.03505         6.77748
     2019.59479        -0.54070         6.65833
     2019.59753         1.23454         6.83994
     2019.60027        -2.90921         6.98917
     2019.60301        -3.63796         6.68378
     2019.60574         0.93528         7.05510
     2019.60848        -5.92347         6.96025
     2019.61122       -13.11323         6.66296
     2019.61396        -0.97198         6.79599
     2019.61670        -0.70873         6.78095
     2019.61943         3.52251         6.68262
     2019.62217        -2.98224         6.90357
     2019.62491        -1.55700         6.76822
     2019.62765        -2.07375         6.67453
     2019.63039         2.81050         6.73005
     2019.63312        -1.29226         6.66064
     2019.63586        13.23899         7.21126
     2019.63860         3.44523         6.80871
     2019.64134        -1.85552         6.84688
     2019.64407        -3.97227         6.86424
     2019.64681        -6.23703         6.79714
     2019.64955        -3.37478         6.66180
     2019.65229         5.26846         6.75203
     2019.65503        -3.60929         6.86076
     2019.65776        -6.70204         6.87233
     2019.66050         1.61720         6.79020
     2019.66324        -1.49055         6.80408
     2019.66598        -3.70631         6.78210
     2019.66872         2.92294         6.77401
     2019.67145        -5.25681         6.81218
     2019.67419        -0.38057         6.67915
     2019.67693         4.42868         6.95678
     2019.67967         0.19992         6.97528
     2019.68240        -0.96883         6.80177
     2019.68514         0.52742         6.93133
     2019.68788        -5.86434         6.86424
     2019.69062        -2.95809         6.80987
     2019.69336        -7.41685         6.67915
     2019.69609         0.19640         6.69882
     2019.69883        -0.44935         6.82953
     2019.70157        -0.11711         6.69882
     2019.70431         0.79514         6.79946
     2019.70705        -7.72061         6.70807
     2019.70978        -5.07937         6.89200
     2019.71252       -13.87312         6.72427
     2019.71526        -1.22488         6.68494
     2019.71800       -11.88963         6.92901
     2019.72073       -12.60638         6.91629
     2019.72347        -1.43914         6.68378
     2019.72621        -1.44289         6.90588
     2019.72895        11.87835         6.90357
     2019.73169        -1.50340         6.69072
     2019.73442        -9.71815         6.85498
     2019.73716        -1.59891         6.80871
     2019.73990        -2.32666         6.93364
     2019.74264        -2.83442         6.76475
     2019.74538         1.70583         6.67221
     2019.74811         1.78208         6.84341
     2019.75085        -1.40168         6.81334
     2019.75359        -5.07443         7.03775
     2019.75633        -6.83719         6.82491
     2019.75906        -8.56494         6.66527
     2019.76180        -0.43069         6.61900
     2019.76454        -3.55945         6.66874
     2019.76728         1.44980         6.98801
     2019.77002        -7.94096         6.89547
     2019.77275        -4.92871         6.99379
     2019.77549        -0.46346         6.72195
     2019.77823         0.92178         6.81449
     2019.78097        -3.04597         6.85729
     2019.78371        -3.59573         6.85614
     2019.78644        -0.21548         6.91976
     2019.78918         1.97177         7.09327
     2019.79192         0.52201         6.75550
     2019.79466         6.10727         6.88968
     2019.79739         4.09950         7.04585
     2019.80013         7.05075         6.97413
     2019.80287        -8.42000         7.04700
     2019.80561        -9.16276         7.07245
     2019.80835        -3.39151         6.86771
     2019.81108       -10.81426         6.90935
     2019.81382        -0.31702         6.90704
     2019.81656        -8.04977         6.77632
     2019.81930        -2.78553         6.82375
     2019.82203        -3.56328         6.80755
     2019.82477        -6.34203         6.87349
     2019.82751       -12.76379         6.85382
     2019.83025        -5.86954         6.91629
     2019.83299         0.74870         6.91976
     2019.83572        -0.46805         6.83069
     2019.83846         0.86820         6.90241
     2019.84120         0.93344         6.83069
     2019.84394        -0.29331         7.07245
     2019.84668        -3.51107         6.88274
     2019.84941         1.54518         6.79714
     2019.85215        -1.35257         6.76591
     2019.85489        -1.61733         6.90472
     2019.85763         5.27492         6.84341
     2019.86036        -8.37384         6.82838
     2019.86310        -3.18859         6.94405
     2019.86584        -0.42234         6.92439
     2019.86858         7.22090         6.81796
     2019.87132         3.69115         6.98570
     2019.87405         2.98939         6.92554
     2019.87679        -0.38436         7.27720
     2019.87953         4.67689         6.82722
     2019.88227        12.06113         6.92207
     2019.88501        10.95138         6.78673
     2019.88774         2.56862         7.02387
     2019.89048         6.69187         6.75897
     2019.89322        12.22312         6.81796
     2019.89596         5.68036         6.99379
     2019.89869         2.42561         6.80755
     2019.90143         6.52385         6.79483
     2019.90417         5.78210         6.74740
     2019.90691         3.65135         6.76128
     2019.90965         2.51459         6.85498
     2019.91238         5.18884         6.70576
     2019.91512         7.04309         6.79367
     2019.91786         5.05533         6.89547
     2019.92060        -2.56142         6.82722
     2019.92334         3.56282         6.82491
     2019.92607         5.29007         6.78095
     2019.92881         4.44132         6.81102
     2019.93155         1.01556         6.82491
     2019.93429        -0.94319         6.81334
     2019.93702        -2.07095         6.85035
     2019.93976        -1.81670         6.80640
     2019.94250        -3.04045         6.78905
     2019.94524         2.87679         6.80061
     2019.94798        -2.47096         6.88853
     2019.95071        -6.15672         7.12104
     2019.95345         0.42453         6.76938
     2019.95619        -1.75322         6.82028
     2019.95893        -2.16398         6.74046
     2019.96167        -1.36973         6.82491
     2019.96440         7.03951         6.87812
     2019.96714        19.85076         7.08518
     2019.96988         3.75101         6.82722
     2019.97262         0.78025         6.84688
     2019.97535        -3.55550         6.77401
     2019.97809        -6.36526         6.70576
     2019.98083        -6.70401         6.67221
     2019.98357        -5.49376         6.69419
     2019.98631        -8.16352         6.84110
     2019.98904       -14.27027         6.87349
     2019.99178        -8.94403         6.78789
     2019.99452        -2.12478         6.75781
     2019.99726         5.28747         6.93480
     2020.00000         9.10471         6.90241
     2020.00273        -1.52604         6.94868
     2020.00547        -2.11880         7.13376
     2020.00821         7.58545         7.00305
     2020.01095        -2.51830         7.02618
     2020.01368        -9.01806         7.06898
     2020.01642       -32.83481         7.31537
     2020.01916       -34.91856         7.30612
     2020.02190       -30.27932         7.46922
     2020.02464       -25.39607         7.46807
     2020.02737       -21.13683         7.28761
     2020.03011       -30.30558         7.27257
     2020.03285       -27.52333         7.09212
     2020.03559       -19.83809         6.93942
     2020.03833       -18.48784         7.02155
     2020.04106       -21.54660         7.20779
     2020.04380       -22.94935         7.24481
     2020.04654       -19.39810         7.03312
     2020.04928       -21.74486         6.79252
     2020.05201       -16.46961         6.78905
     2020.05475        -4.21737         6.80524
     2020.05749       -10.31312         6.88043
     2020.06023       -20.28587         6.97644
     2020.06297       -12.77463         6.86308
     2020.06570        -6.21338         7.01230
     2020.06844        -7.64714         6.84688
     2020.07118        -4.45589         6.90125
     2020.07392         6.14236         6.96025
     2020.07666        -8.09140         6.86308
     2020.07939       -16.14815         6.82491
     2020.08213       -13.95391         6.92554
     2020.08487        -0.70466         6.92323
     2020.08761        -7.45341         6.72427
     2020.09034       -12.76517         6.78673
     2020.09308        -7.43492         6.82375
     2020.09582        -6.79668         6.86308
     2020.09856       -11.91443         6.90357
     2020.10130       -19.46218         6.91513
     2020.10403         3.28206         6.98222
     2020.10677       -18.75069         7.00189
     2020.10951       -21.52745         6.82375
     2020.11225       -13.05920         6.92786
     2020.11498       -16.90895         6.72542
     2020.11772       -20.43071         7.03312
     2020.12046       -14.95046         7.05510
     2020.12320       -15.22421         6.80755
     2020.12594       -21.87897         6.67453
     2020.12867       -21.26872         6.71154
     2020.13141       -19.04848         6.68147
     2020.13415       -18.13923         6.80640
     2020.13689       -12.59998         6.91398
     2020.13963       -14.76374         6.95446
     2020.14236       -11.79149         6.85382
     2020.14510        -2.06925         6.82953
     2020.14784       -10.29800         6.84688
     2020.15058       -22.22075         6.91629
     2020.15331       -16.31251         6.88390
     2020.15605       -21.08526         6.80177
     2020.15879        -8.60202         6.89662
     2020.16153        -5.53877         6.87696
     2020.16427        -8.06752         6.73121
     2020.16700       -19.55828         7.05510
     2020.16974       -12.79303         6.85035
     2020.17248       -11.05279         6.83532
     2020.17522       -11.19954         6.70460
     2020.17796        -6.43429         6.72889
     2020.18069       -11.82205         6.71039
     2020.18343       -10.49780         6.73236
     2020.18617       -16.86756         6.70113
     2020.18891       -12.20331         6.85267
     2020.19164        -8.58806         6.85729
     2020.19438        -6.53282         6.84573
     2020.19712       -15.94057         6.82491
     2020.19986       -14.90233         6.79367
     2020.20260       -19.96108         6.74972
     2020.20533       -15.76683         6.89084
     2020.20807       -10.42159         6.89315
     2020.21081       -14.76634         6.99264
     2020.21355       -13.27610         7.50971
     2020.21629       -10.59185         7.22862
     2020.21902       -12.41360         6.96256
     2020.22176       -13.75236         6.85382
     2020.22450        -9.24711         6.84573
     2020.22724       -11.13586         6.90704
     2020.22997       -13.20162         6.89431
     2020.23271       -13.24537         6.85614
     2020.23545       -17.09913         6.87002
     2020.23819       -19.62088         6.82491
     2020.24093       -16.70063         6.97413
     2020.24366        -6.54839         7.06783
     2020.24640       -10.04114         7.10600
     2020.24914       -23.37590         7.12682
     2020.25188       -22.70465         7.11757
     2020.25462       -19.36740         6.97066
     2020.25735       -15.31216         6.93133
     2020.26009       -15.60891         7.05394
     2020.26283        -8.62567         6.96256
     2020.26557       -21.08542         7.01114
     2020.26830       -13.48217         6.99032
     2020.27104       -11.51393         7.01346
     2020.27378       -13.26768         7.12104
     2020.27652       -13.28844         7.13145
     2020.27926       -18.30319         7.05741
     2020.28199       -17.82394         7.09327
     2020.28473       -18.71770         7.10137
     2020.28747       -28.82245         7.09096
     2020.29021       -15.53621         6.94174
     2020.29295       -16.03696         7.02387
     2020.29568        -9.83071         6.97644
     2020.29842        -7.05047         6.97297
     2020.30116        -7.99822         6.99958
     2020.30390       -15.89598         6.96719
     2020.75838         0.32387         6.77979
     2020.76112         4.62512         6.82606
     2020.76386         1.94936         6.84457
     2020.76659         3.93261         6.85267
     2020.76933         0.12985         7.08749
     2020.77207         2.78110         6.80293
     2020.77481         3.57135         6.94637
     2020.77754         1.04259         6.88159
     2020.78028         6.25884         7.18582
     2020.78302         2.31808         6.96025
     2020.78576        -0.09667         6.92439
     2020.78850         0.07858         6.74046
     2020.79123        -2.18318         6.81796
     2020.79397         1.03507         6.88853
     2020.79671        -6.34569         7.30033
     2020.79945       -10.21944         6.87580
     2020.80219        -8.20019         7.02387
     2020.80492        -6.84095         6.88390
     2020.80766        -3.70370         6.83763
     2020.81040         4.34954         6.90125
     2020.81314        -3.80321         6.95215
     2020.81587       -10.06796         6.70460
     2020.81861        -1.12572         6.77863
     2020.82135       -10.07047         6.80524
     2020.82409         4.30677         6.83647
     2020.82683        -0.43998         6.87812
     2020.82956        -2.96273         7.01924
     2020.83230         4.21451         6.92670
     2020.83504         1.03976         6.92207
     2020.83778         3.38900         6.79946
     2020.84052         4.93525         6.92901
     2020.84325         4.00450         7.07014
     2020.84599         7.60374         7.02155
     2020.84873         0.33599         6.79946
     2020.85147        -5.37576         6.81681
     2020.85420        -6.89352         6.65602
     2020.85694         5.21073         6.75897
     2020.85968        11.19397         6.96487
     2020.86242         0.23022         6.86655
     2020.86516         1.25347         6.98685
     2020.86789        11.95671         7.02850
     2020.87063         9.13196         6.93711
     2020.87337        15.73820         6.88737
     2020.87611         3.25045         7.15690
     2020.87885        13.39370         7.06551
     2020.88158        11.47894         7.09096
     2020.88432        10.26519         6.97644
     2020.88706        -2.33857         7.09327
     2020.88980         3.82668         6.85151
     2020.89253         4.67593         6.74625
     2020.89527         0.45117         7.13607
     2020.89801         1.64042         7.23903
     2020.90075         4.49266         6.85845
     2020.90349        -4.70009         6.88506
     2020.90622        -1.53984         6.78558
     2020.90896         0.69340         7.01114
     2020.91170         2.53065         7.06320
     2020.91444         5.12789         7.09096
     2020.91718        -1.75386         6.87349
     2020.91991        -7.29161         6.76591
     2020.92265        -1.63137         6.94752
     2020.92539        -8.54412         6.82722
     2020.92813        -8.14188         6.88506
     2020.93086        -6.25763         6.84573
     2020.93360        -1.36138         6.76938
     2020.93634         0.44886         6.87118
     2020.93908        -8.83589         6.86424
     2020.94182        -5.33265         6.73930
     2020.94455        -9.95240         6.86424
     2020.94729       -25.26015         6.92323
     2020.95003       -13.09891         6.89200
     2020.95277       -19.37066         6.80293
     2020.95551        -9.35441         6.87118
     2020.95824        -6.05017         6.97181
     2020.96098        -5.04392         7.12913
     2020.96372        -9.79468         6.98338
     2020.96646        -4.04443         7.18813
     2020.96919       -10.04918         7.04353
     2020.97193        -3.98094         6.85498
     2020.97467        -6.80269         7.02965
     2020.97741       -15.44145         6.95099
     2020.98015        -6.28620         7.07014
     2020.98288       -13.96295         7.02271
     2020.98562        -1.38171         6.75897
     2020.98836        -1.52346         6.79946
     2020.99110        -1.45422         6.68378
     2020.99384        -7.48897         6.69997
     2020.99657         0.79628         6.86424
     2020.99931         4.67952         6.86192
     2021.00205        -0.24723         6.86424
     2021.00479         0.41901         6.80177
     2021.00752        11.84326         6.83300
     2021.01026         3.18551         6.75897
     2021.01300         0.39775         6.77748
     2021.01574        -4.52700         6.89431
     2021.01848       -18.90376         6.71386
     2021.02121       -11.48051         6.84457
     2021.02395       -11.29826         6.81796
     2021.02669       -14.79102         6.75434
     2021.02943        -7.86077         6.84688
     2021.03216         4.53347         6.92786
     2021.03490         2.30972         6.95099
     2021.03764       -14.02603         6.89894
     2021.04038        -8.90379         6.91513
     2021.04312        -5.49354         6.84226
     2021.04585       -10.06930         6.96603
     2021.04859       -13.97005         6.85845
     2021.05133       -12.65080         6.92786
     2021.05407        -6.57156         7.21011
     2021.05681       -17.21831         7.00305
     2021.05954       -13.84706         6.73699
     2021.06228       -12.61182         6.76822
     2021.06502       -14.95957         6.82143
     2021.06776        -6.08333         6.84110
     2021.07049       -10.47208         6.70460
     2021.07323        -4.32283         6.85267
     2021.07597       -12.40259         6.72427
     2021.07871       -14.94434         6.86076
     2021.08145        -7.81710         6.81912
     2021.08418        -8.49685         6.86539
     2021.08692        -3.50560         6.83763
     2021.08966       -12.43436         6.99611
     2021.09240       -18.31511         6.89200
     2021.09514       -15.11387         7.17772
     2021.09787        -9.44562         7.19044
     2021.10061        -9.87037         6.86076
     2021.10335       -13.65813         6.91629
     2021.10609       -20.51588         6.83532
     2021.10882       -17.57564         6.94637
     2021.11156       -20.81439         6.91629
     2021.11430       -25.09114         6.91513
     2021.11704       -36.45190         6.81681
     2021.11978       -12.43565         6.97875
     2021.12251       -14.34641         6.95099
     2021.12525       -11.41716         7.01461
     2021.12799       -18.60891         7.17078
     2021.13073       -23.68567         7.21473
     2021.13347       -21.36542         7.09906
     2021.13620       -14.55918         7.14649
     2021.13894       -18.64293         6.97413
     2021.14168        -9.98168         7.05510
     2021.14442       -17.23244         6.99842
     2021.14715       -18.54719         7.14533
     2021.14989       -25.10195         7.25175
     2021.15263       -13.44470         7.56292
     2021.15537       -23.08445         7.63001
     2021.15811       -31.41321         7.82204
     2021.16084       -27.27896         7.59762
     2021.16358       -20.04371         7.55482
     2021.16632       -12.79847         7.42064
     2021.16906        -8.54522         7.12566
     2021.17180       -17.76198         7.11872
     2021.17453       -18.43773         7.27489
     2021.17727       -21.32348         7.24597
     2021.18001       -22.37924         7.24481
     2021.18275       -21.93899         7.45187
     2021.18548       -19.03075         7.04585
     2021.18822       -24.06350         7.01346
     2021.19096       -20.97425         7.02155
     2021.19370       -23.87601         7.12798
     2021.19644       -28.07076         7.11988
     2021.19917       -30.34952         7.13376
     2021.20191       -20.13227         7.03312
     2021.20465       -19.49602         7.00420
     2021.20739       -18.54778         6.93595
     2021.21013       -11.74353         7.17887
     2021.21286       -20.04929         7.14996
     2021.21560       -17.51504         7.11063
     2021.21834       -18.32979         7.07708
     2021.22108       -22.98055         7.05163
     2021.22381       -32.68530         7.15343
     2021.22655       -21.72506         7.17425
     2021.22929       -31.42681         7.24481
     2021.23203       -24.27456         7.21820
     2021.23477       -29.29232         7.28183
     2021.23750       -20.19307         7.26679
     2021.24024       -15.41283         7.33272
     2021.24298       -24.68858         7.40676
     2021.24572       -22.60633         7.36858
     2021.24846       -20.89109         7.26332
     2021.25119       -14.56084         7.18003
     2021.25393       -16.30960         7.15227
     2021.25667       -19.16035         7.13376
     2021.25941       -18.94310         6.97413
     2021.26214       -15.24786         7.06667
     2021.26488       -18.19361         7.02271
     2021.26762       -14.48037         7.24712
     2021.27036       -15.00312         7.18119
     2021.27310       -16.19887         7.17193
     2021.27583       -17.54063         7.06088
     2021.27857       -22.81638         7.20085
     2021.28131       -23.30713         7.24018
     2021.28405       -17.93689         7.21126
     2021.28679       -23.27064         7.30843
     2021.28952       -11.57540         7.21473
     2021.29226       -15.82515         7.27026
     2021.29500        -8.99590         7.14417
     2021.29774       -14.23066         7.33735
     2021.30047       -13.11641         7.14417
     2021.30321        -4.72117         7.22515
     2021.30595       -10.43792         7.34082
     2021.30869        -1.98167         7.31306
     2021.31143       -10.95143         6.95909
     2021.31416        -9.86918         6.98338
     2021.31690        -9.09594         7.05857
     2021.31964        -5.69469         7.11178
     2021.32238        -7.66544         7.14880
     2021.32512       -12.99820         7.05741
     2021.32785       -21.12095         7.20085
     2021.33059       -15.75971         7.11872
     2021.33333        -8.06046         7.00883
     2021.33607       -13.36221         6.96372
     2021.33880       -17.07697         6.96950
     2021.34154       -15.33572         6.91513
     2021.34428       -18.48248         7.18119
     2021.34702       -18.25223         6.89315
     2021.34976       -17.53498         6.90125
     2021.35249       -25.44674         6.96372
     2021.35523       -17.48049         6.94637
     2021.35797       -22.96325         6.92670
     2021.36071       -21.70400         6.97644
     2021.36344       -20.72275         6.92786
     2021.36618       -17.64551         7.01808
     2021.36892       -23.30926         6.92670
     2021.37166       -14.73202         6.90588
     2021.37440       -15.06277         6.97760
     2021.37713       -18.05952         6.98454
     2021.37987       -13.53528         7.03197
     2021.38261       -15.51203         7.19507
     2021.38535       -24.15778         7.17193
     2021.38809       -27.83254         7.01577
     2021.39082       -10.34429         6.97528
     2021.39356       -30.74305         7.00189
     2021.39630       -18.81480         7.03659
     2021.39904       -15.66155         6.98454
     2021.40177        -9.37931         7.02387
     2021.40451       -13.49406         7.09790
     2021.40725       -14.85382         6.91745
     2021.40999        -1.43657         6.99842
     2021.41273        -9.89432         6.86539
     2021.41546       -10.36008         6.88853
     2021.41820       -20.78483         6.91513
     2021.42094       -12.44159         6.96719
     2021.42368        -9.56234         6.99032
     2021.42642       -12.72209         6.97644
     2021.42915        -7.26385         6.94637
     2021.43189        -9.15660         6.92439
     2021.43463       -10.59736         6.95446
     2021.43737       -11.79411         6.94058
     2021.44010       -14.61586         7.07361
     2021.44284       -17.67162         7.06204
     2021.44558       -17.46537         7.12104
     2021.44832       -12.51313         7.18466
     2021.45106        -4.82188         7.41948
     2021.45379        -5.34863         7.36627
     2021.45653       -16.60239         7.13145
     2021.45927        -6.90514         6.92207
     2021.46201       -11.44290         6.84457
     2021.46475       -10.98665         6.96950
     2021.46748        -4.66540         6.96834
     2021.47022        -7.84416         7.05047
     2021.47296         1.90109         6.96256
     2021.47570       -13.63467         7.01693
     2021.47843        -5.05042         6.89431
     2021.48117        -9.37717         6.96834
     2021.48391       -17.29993         7.05394
     2021.48665       -11.18768         6.95099
     2021.48939       -11.44443         6.88159
     2021.49212        -1.50419         6.88043
     2021.49486       -12.23094         6.98338
     2021.49760         1.20830         7.19276
     2021.50034       -10.61645         7.18697
     2021.50308        -1.72320         6.98222
     2021.50581       -13.06596         7.00883
     2021.50855        -8.99071         7.05163
     2021.51129        -2.21447         6.97066
     2021.51403       -10.77222         7.09559
     2021.51676        -9.29397         6.93595
     2021.51950       -10.01173         7.11294
     2021.52224        -6.09448         7.03197
     2021.52498        -9.19824         7.00883
     2021.52772        -1.99699         6.96950
     2021.53045        -5.49274         7.05394
     2021.53319        -2.23150         6.93595
     2021.53593        -8.98725         7.05857
     2021.53867         0.81199         7.32231
     2021.54141        -5.41276         7.05047
     2021.54414       -19.59851         7.19738
     2021.54688       -11.30727         6.98801
     2021.54962        -9.78102         7.04816
     2021.55236        -7.24278         6.95099
     2021.55509        -5.37853         7.05973
     2021.55783        -9.30428         7.16962
     2021.56057        -3.99304         7.06204
     2021.56331        -0.60879         7.02040
     2021.56605        -7.10955         7.04238
     2021.56878        -6.34030         7.16846
     2021.57152        -1.11405         7.03891
     2021.57426        -7.71181         7.23324
     2021.57700         0.43944         7.14417
     2021.57974        -7.01932         7.02850
     2021.58247       -14.89407         7.14649
     2021.58521        -6.34982         7.11294
     2021.58795        -4.73758         7.02618
     2021.59069        -4.76233         7.09906
     2021.59342        -2.31708         7.11641
     2021.59616       -10.91484         7.25638
     2021.59890        -6.63259         7.06898
     2021.60164         1.47765         7.29686
     2021.60438        -7.58610         7.03428
     2021.60711        -1.16485         7.10600
     2021.60985        -1.94361         7.16731
     2021.61259        -2.61736         7.03312
     2021.61533        -6.66412         7.07708
     2021.61807        -5.03387         7.00073
     2021.62080        -3.99962         7.02850
     2021.62354        -5.04438         7.02040
     2021.62628        -3.74113         7.22630
     2021.62902       -13.70689         7.01461
     2021.63175       -10.13464         7.14996
     2021.63449         4.74461         6.97528
     2021.63723        -0.73915         7.35933
     2021.63997         5.54410         7.14880
     2021.64271        -5.96266         7.21242
     2021.64544        -4.42241         6.91745
     2021.64818        -1.10216         7.04585
     2021.65092        -7.18892         7.10947
     2021.65366        -2.31367         7.04932
     2021.65639        -1.23043         6.99842
     2021.65913        -3.06018         6.94752
     2021.66187        -0.59393         6.93480
     2021.66461        -2.60569         6.93595
     2021.66735         2.57656         6.97644
     2021.67008         2.55080         7.08402
     2021.67282        -0.81795         7.21358
     2021.67556         0.09530         7.35355
     2021.67830        -0.55246         7.18697
     2021.68104        -4.49121         7.14302
     2021.68377         5.21403         7.05510
     2021.68651         4.84128         7.27257
     2021.68925        -0.51747         7.10600
     2021.69199        -3.77623         7.02271
     2021.69472        -0.23798         7.00305
     2021.69746        -2.09673         7.13145
     2021.70020         5.10851         6.98917
     2021.70294        -3.90724         7.03775
     2021.70568        -1.74400         7.04932
     2021.70841        -0.51975         7.00999
     2021.71115         4.22050         7.12566
     2021.71389        16.30374         7.11063
     2021.71663         1.17499         7.10600
     2021.71937        -8.45777         7.15111
     2021.72210        -6.89852         7.01577
     2021.72484        -3.06427         6.98222
     2021.72758        -3.94803         7.01461
     2021.73032        -9.55678         7.33272
     2021.73305         1.20046         6.95099
     2021.73579        13.57371         7.11525
     2021.73854        13.54796         7.20432
     2021.74127        -4.38980         6.95099
     2021.74401         5.42845         7.02503
     2021.74674        -0.56331         7.01114
     2021.74948        -3.70306         7.20201
     2021.75222        -0.34881         6.93711
     2021.75496         6.85143         7.00652
     2021.75770         0.69468         7.22746
     2021.76043         4.16292         7.09906
     2021.76317        -8.30883         6.98107
     2021.76591        -2.44258         6.94058
     2021.76865        -8.22034         6.99726
     2021.77138         0.00091         6.95909
     2021.77412        11.61015         7.26910
     2021.77686        -4.00860         6.94174
     2021.77960         1.34165         6.89547
     2021.78234         6.26789         6.98338
     2021.78507         8.01414         7.03659
     2021.78781         2.25138         6.94290
     2021.79055        -0.19737         6.90125
     2021.79329         1.05188         6.92786
     2021.79603         2.04912         6.88159
     2021.79876         0.27337         6.97991
     2021.80150        -0.07738         7.27257
     2021.80424         0.86686         7.37899
     2021.80698        -1.34189         6.96372
     2021.80971        -3.83765         6.99032
     2021.81245        -0.42740         7.39403
     2021.81519        10.11385         7.08633
     2021.81793        14.42309         7.06898
     2021.82067         4.14734         7.17078
     2021.82340         8.68258         7.14764
     2021.82614         6.88583         7.06088
     2021.82888        -3.58992         7.08286
     2021.83162        -1.98868         7.12104
     2021.83436         6.76257         7.16384
     2021.83709         4.04881         7.12104
     2021.83983        -7.86994         7.15921
     2021.84257        10.50531         7.29108
     2021.84531        -7.77045         7.17309
     2021.84804         5.94180         7.10831
     2021.85078         9.76904         7.02040
     2021.85352         2.61529         7.04932
     2021.85626         7.21654         7.08980
     2021.85900        -0.95722         7.17887
     2021.86173        -8.07597         7.47269
     2021.86447        -9.85773         7.24134
     2021.86721        -7.69248         7.20895
     2021.86995        -3.34923         7.28645
     2021.87269        -4.56299         7.29108
     2021.87542        -5.64074         7.11178
     2021.87816        -3.16950         6.91166
     2021.88090       -12.04525         6.99842
     2021.88364        -4.71300         7.12219
     2021.88637       -14.36576         6.97644
     2021.88911       -11.04051         6.94752
     2021.89185       -13.11727         6.91860
     2021.89459        -3.12602         6.99148
     2021.89733        -6.26477         6.88274
     2021.90006       -16.94853         7.05047
     2021.90280       -10.15028         7.07130
     2021.90554       -12.22203         6.98338
     2021.90828       -14.80479         7.20317
     2021.91102        -0.29654         7.00536
     2021.91377       -15.40227         7.05394
     2021.91649         1.66195         7.07708
     2021.91923        -1.46080         7.12913
     2021.92197       -17.04156         7.33157
     2021.92470       -16.57531         7.16731
     2021.92744        -9.61007         7.17078
     2021.93018       -13.27682         7.13839
     2021.93292       -11.01157         7.39982
     2021.93566        -5.85133         7.46575
     2021.93839        -8.16808         7.15921
     2021.94113        12.51016         7.20548
     2021.94387         8.70941         7.02387
     2021.94661         4.23466         7.11178
     2021.94935         3.09790         7.13492
     2021.95208        -1.60585         7.11641
     2021.95482        -6.66561         7.33157
     2021.95756        -2.80836         7.28414
     2021.96030        -2.08311         7.29339
     2021.96303        -1.03087         7.39750
     2021.96577         4.05538         7.47848
     2021.96851        -3.75738         7.43568
     2021.97125        -5.07413         7.33157
     2021.97399         1.16512         7.50161
     2021.97672        -0.54964         7.42411
     2021.97946        10.55961         7.42527
     2021.98220        10.10885         7.52012
     2021.98494         2.80410         7.60803
     2021.98767         0.09035         7.41601
     2021.99041       -11.21941         7.28877
     2021.99315        -5.75116         7.32810
     2021.99589         3.98408         7.23324
     2021.99863       -10.32467         7.31537
     2022.00136       -12.66442         7.34314
     2022.00410       -12.05618         7.26101
     2022.00684        -8.45293         7.30496
     2022.00958       -12.45668         7.28067
     2022.01232       -22.94844         7.38015
     2022.01505       -12.82719         7.42989
     2022.01779        -2.19695         7.36974
     2022.02053       -15.35370         7.22168
     2022.02327       -16.13945         7.69363
     2022.02600       -24.41021         7.35586
     2022.02874       -26.18596         7.31190
     2022.03148       -26.02272         7.32463
     2022.03422       -19.72247         7.21473
     2022.03696       -27.57522         7.15343
     2022.03969       -27.75798         7.27142
     2022.04243       -15.12073         7.16499
     2022.04517       -14.90249         7.15111
     2022.04791       -11.79224         7.22399
     2022.05065       -15.55399         7.15227
     2022.05338       -19.03575         7.25638
     2022.05612       -26.45550         7.28298
     2022.05886       -28.20726         7.22283
     2022.06160       -23.16601         7.20085
     2022.06433       -18.93976         7.20201
     2022.06707       -19.44552         7.09443
     2022.06981       -14.72127         7.12104
     2022.07255       -27.06403         7.05163
     2022.07529       -17.75678         7.04238
     2022.07802       -16.16553         6.98570
     2022.08076       -13.74529         6.99842
     2022.08350       -14.43804         7.11757
     2022.08624       -21.13580         7.08171
     2022.08898        -9.86655         7.11063
     2022.09171        -7.35630         6.99495
     2022.09445       -16.56706         7.10831
     2022.09719       -21.74081         7.09096
     2022.09993       -22.96957         7.22630
     2022.10266       -28.86432         7.20779
     2022.10540       -26.68607         7.09443
     2022.10814       -23.78783         7.16731
     2022.11088       -20.20758         6.95562
     2022.11362       -18.86533         7.04353
     2022.11635       -16.72509         6.91513
     2022.11909       -19.81884         6.98570
     2022.12183        -7.76260         7.02387
     2022.12457       -18.98035         7.15227
     2022.12731       -19.15710         7.03081
     2022.13004       -21.75786         7.02618
     2022.13278       -20.57361         7.03197
     2022.13552       -20.73837         7.03081
     2022.13826        -5.25112         6.84457
     2022.14099       -13.18587         6.91398
     2022.14373       -22.37763         6.86539
     2022.14647       -19.20538         7.04816
     2022.14921       -16.28814         7.28067
     2022.15195       -20.20989         7.27026
     2022.15468       -14.30864         6.88506
     2022.15742       -11.38540         6.99726
     2022.16016        -2.29915         7.24944
     2022.16290        -2.13091         7.14764
     2022.16564       -17.25466         7.03428
     2022.16837       -15.90341         6.91745
     2022.17111       -13.92017         6.90935
     2022.17385       -15.67092         6.86308
     2022.17659       -15.43568         6.92092
     2022.17932       -26.87443         6.99032
     2022.18206       -20.02618         7.07245
     2022.18372        -7.82361        16.74068
     2022.19967       -20.95287        23.54708
     2022.20123        -2.18946         7.04238
     2022.20397        -7.51522         7.14764
     2022.20670       -11.61597         7.18350
     2022.20944       -10.10872         7.19970
     2022.21218        -9.64248         7.07592
     2022.21492       -13.46423         6.94174
     2022.21765       -16.32598         6.93711
     2022.22039       -20.36874         7.00536
     2022.22313       -14.63649         7.12913
     2022.22587       -16.62025         7.03081
     2022.22861        -6.68600         7.11178
     2022.23134        -7.24975         7.05741
     2022.23408        -9.50351         6.96950
     2022.23682        -7.49126         7.27257
     2022.23956       -14.55002         7.08286
     2022.24230       -15.93877         7.03544
     2022.24503       -13.97552         7.07824
     2022.24777       -13.86728         6.98570
     2022.25051       -22.16603         7.02734
     2022.25325       -17.01679         6.98917
     2022.25598        -3.75654         7.01461
     2022.25872       -11.51229         6.92439
     2022.26146       -15.44605         7.06088
     2022.26420       -15.12680         6.91166
     2022.26694       -12.99056         7.20664
     2022.26967       -11.57831         6.91745
     2022.27241        -7.19406         6.97991
     2022.27515        -8.71082         7.20432
     2022.27789       -13.63557         7.11872
     2022.28062       -19.83433         7.09327
     2022.28336       -15.78308         7.19970
     2022.28610       -11.39883         7.19044
     2022.28884       -10.10159         7.12335
     2022.29158       -19.70134         7.08286
     2022.29431       -17.30010         7.08980
     2022.29705        -7.76485         7.17772
     2022.29979        -6.84060         7.01924
     2022.30253        -7.96136         7.32116
     2022.30527        -9.13011         7.20317
     2022.30800       -16.14187         7.04006
     2022.31074        -9.90862         7.02387
     2022.31348       -18.89237         7.02734
     2022.31622       -23.22313         7.04816
     2022.31895       -36.15188         7.37090
     2022.32169       -12.29563         7.35355
     2022.32443       -13.83639         7.07824
     2022.32717       -17.84414         7.08286
     2022.32991       -17.28890         7.07939
     2022.33264       -30.11065         7.28530
     2022.33538       -32.71840         7.41138
     2022.33812       -15.82916         7.30959
     2022.34086        -9.55891         7.13492
     2022.34360        -8.61267         7.15574
     2022.34633        -8.97642         7.10369
     2022.34907       -18.89817         7.25522
     2022.35181       -11.95093         7.15805
     2022.35455       -16.03968         7.13492
     2022.35728       -19.08544         7.15227
     2022.36002       -18.31719         7.05626
     2022.36276       -10.08894         7.10484
     2022.36550       -12.27670         7.29918
     2022.36824       -14.35045         7.35817
     2022.37097       -28.34621         7.18466
     2022.37371       -23.97996         7.10369
     2022.37645       -18.30971         7.22168
     2022.37919       -12.81947         7.35702
     2022.38193       -22.23622         7.18235
     2022.38466       -15.69898         7.14880
     2022.38740       -32.02573         7.20779
     2022.39014       -18.99948         7.21126
     2022.39288       -20.02724         7.22052
     2022.39561        -8.22799         7.29802
     2022.39835       -16.14375         7.08865
     2022.40109       -24.84150         7.32810
     2022.40383       -18.08425         6.99726
     2022.40657       -20.23001         7.25175
     2022.40930       -27.72776         7.05163
     2022.41204       -20.20352         7.20895
     2022.41478       -15.79027         6.99611
     2022.41752        -7.83402         7.24712
     2022.42026       -17.36578         7.27373
     2022.42299       -19.16653         7.00652
     2022.42573       -16.93728         7.19623
     2022.42847       -26.83304         6.99842
     2022.43121       -25.39079         7.14880
     2022.43394       -20.43955         7.53631
     2022.43668       -32.62730         7.12219
     2022.43942       -27.41605         7.13839
     2022.44216       -15.77481         7.21820
     2022.44490       -14.72856         7.20548
     2022.44763       -25.27632         6.94405
     2022.45037       -25.93107         7.04006
     2022.45311       -33.19182         7.00189
     2022.45585       -12.78258         7.05163
     2022.45859       -33.94033         6.94637
     2022.46132       -20.60909         6.91513
     2022.46406       -30.92084         6.86076
     2022.46680       -30.83559         6.92207
     2022.46954       -22.31135         6.94290
     2022.47227       -37.33910         7.12104
     2022.47501       -11.37486         6.95446
     2022.47775       -22.79561         7.04238
     2022.48049       -22.86136         6.99495
     2022.48323       -16.32012         6.98222
     2022.48596        -3.20887         6.90819
     2022.48870       -29.67163         7.10253
     2022.49144       -25.45738         6.88043
     2022.49418       -18.20613         7.33272
     2022.49692       -19.50689         6.99495
     2022.49965       -16.73564         6.97644
     2022.50239       -27.77540         7.07477
     2022.50513       -22.18615         7.27836
     2022.50787        -1.55190         7.37552
     2022.51060       -19.70366         7.02155
     2022.51334       -22.20341         6.97644
     2022.51608       -26.52817         6.98685
     2022.51882       -24.33692         6.91976
     2022.52156       -19.89567         7.00536
     2022.52429       -10.35643         6.93595
     2022.52703        -7.49918         6.97413
     2022.52977       -10.11893         6.84920
     2022.53251       -10.61469         6.88274
     2022.53525       -17.14044         7.10484
     2022.53798       -14.66020         6.99148
     2022.54072       -13.60095         6.86539
     2022.54346       -18.42570         7.00420
     2022.54620       -12.77746         6.79020
     2022.54893       -12.23321         6.94637
     2022.55167        -7.50697         6.98222
     2022.55441       -11.59672         6.91629
     2022.55715         0.53553         6.88159
     2022.55989       -10.11723         6.85151
     2022.56262       -14.07298         6.96719
     2022.56536       -23.47874         6.91513
     2022.56810        -1.11649         6.98801
     2022.57084       -10.57624         6.90357
     2022.57357        -9.07600         7.05394
     2022.57631       -11.51975         6.88968
     2022.57905       -14.08351         6.92554
     2022.58179        -1.42926         6.93942
     2022.58453        -4.31601         7.40097
     2022.58726       -23.30777         7.10600
     2022.59000        -5.99352         7.10831
     2022.59274       -13.71928         6.89315
     2022.59548       -11.06903         6.75087
     2022.59822       -18.09478         6.90009
     2022.60095       -19.51654         6.79714
     2022.60369        -6.55329         6.94637
     2022.60643       -13.37105         7.03081
     2022.60917        -4.73780         6.98107
     2022.61190         3.36245         6.97760
     2022.61464        -4.59631         6.99611
     2022.61738        -4.38106         6.81218
     2022.62012       -14.37982         6.75550
