# ================= DQRFIT RESULTS ================
# INPUT FILE: series/P794.rad
# OUTPUT: LDETRENDED
# FILTER FUNCTION: f(t)
# f(t)=+line(t)+annual(t)
# line(t)=+P 1+P 2*t
# annual(t)=+P 3*sin(2*pi*t+P 4)
# heav(t)=(t<0?0:1)
# TOTAL OBSERVATIONS MTOT= 4073
# INITIAL TIME INTERVAL= 2022.7488 - 2009.6564 = 13.0924
# TOTAL OBSERVATIONS AFTER PREFILTER M= 4068
# TIME-SPAN= 2022.7488 - 2009.6564 = 13.0924
# OBSERVATIONS: USED M=  4068 REJECTED MTOT-M=     5 %USED=   99.8772
# N=  4 PARAMETERS
# MAXSIG= 175.00000
# MAXRES=  21.88494
# SCALE FACTOR FOR LENGTHS: SCL=  10.00000
# SCALE FACTOR FOR SIGMAS: SCLSIG=   1.00000
# CHI^2=   3655.023 DOF=  4064 CHI^2/DOF=   0.89937
# RMS=      5.259 SDEV=      5.259 MEAN=    0.04523
#  P #       PARAMETER +-    SIGMA %error PARAMETER NAME
# P 1 =       -38.76754 +-   43.662 112.62 YZERO                              
# P 2 =         0.02044 +-    0.022 105.95 SLOPE                              
# P 3 =         4.59595 +-    0.116   2.52 ANNUAL AMPLITUDE                   
# P 4 =        -3.00770 +-    0.035   1.17 ANNUAL PHASE                       
#       T            LDETRENDED       SIG_OBS
     2009.65639         2.59793         5.56586
     2009.65913         8.05188         5.55922
     2009.66187         6.25482         5.58767
     2009.66461         7.47077         5.52887
     2009.66735         6.67071         5.55353
     2009.67008         5.31565         5.66639
     2009.67282         2.57060         5.59621
     2009.67556         1.64154         5.59621
     2009.67830         7.94449         5.76786
     2009.68104         9.71143         5.67492
     2009.68377         0.59538         5.56681
     2009.68651         8.91232         5.56965
     2009.68925         4.05826         5.64078
     2009.69199         2.20221         5.62086
     2009.69472         6.75615         5.55164
     2009.69746         4.16310         5.52698
     2009.70020        10.16104         5.68535
     2009.70294         9.26198         5.80674
     2009.70568        -0.29107         5.63319
     2009.70841         5.33287         5.63319
     2009.71115         8.63882         5.59621
     2009.71389         6.67376         5.74889
     2009.71663         6.96470         5.63319
     2009.71937         4.72665         5.65690
     2009.72210        -0.86041         5.61612
     2009.72484         2.03054         5.69294
     2009.72758         3.52448         5.69104
     2009.73032         3.70642         5.61233
     2009.73305         8.95737         5.75269
     2009.73579         6.04331         5.64078
     2009.73853         7.38726         5.58767
     2009.74127         2.46020         5.69863
     2009.74401         7.46814         5.74130
     2009.74674         0.65909         5.56586
     2009.74948         2.92303         5.61328
     2009.75222        -0.87302         5.59810
     2009.75496         2.76892         5.61992
     2009.75770         3.09486         5.58578
     2009.76043         3.23281         5.59241
     2009.76317         3.73075         5.58672
     2009.76591        -0.68630         5.57440
     2009.76865         4.21064         5.68440
     2009.77138         0.90958         5.54500
     2009.77412         5.65753         5.55069
     2009.77686         2.62247         5.58198
     2009.77960         8.01942         5.61138
     2009.78234         6.70236         5.69673
     2009.78507        10.16430         5.65311
     2009.78781         3.48425         5.73751
     2009.79055         3.01919         5.68061
     2009.79329        -1.27386         5.77260
     2009.79603        -2.32992         5.78114
     2009.79876         4.20703         5.79252
     2009.80150        -2.76103         5.73467
     2009.80424         3.37391         5.73087
     2009.80698         3.52586         5.70242
     2009.80971         0.06180         5.79915
     2009.81245        10.34775         5.79631
     2009.81519         6.79469         5.73751
     2009.81793         6.68763         5.80390
     2009.82067         9.24758         5.66164
     2009.82340         6.52152         5.73372
     2009.82614         2.35847         5.71475
     2009.82888        -2.16859         5.76407
     2009.83162         7.92135         5.73846
     2009.83436         1.43430         5.72234
     2009.83709         1.31224         5.73846
     2009.83983         5.14119         5.79157
     2009.84257         2.97913         5.80579
     2009.84531         2.69107         5.89589
     2009.84804         6.45702         5.90063
     2009.85078         5.14496         5.82760
     2009.85352         4.20591         5.77260
     2009.85626         3.04985         5.87502
     2009.85900        -0.22621         5.95184
     2009.86173         0.29574         5.83424
     2009.86447         5.73968         6.13108
     2009.86721         0.64863         5.94899
     2009.86995         7.25457         5.81717
     2009.87269        -0.23249         5.81907
     2009.87542         2.76946         5.80010
     2009.87816         6.91640         5.99167
     2009.88090         4.31735         5.96322
     2009.88364         4.95929         5.77829
     2009.88637         7.34723         5.82571
     2009.88911        10.78518         5.71191
     2009.89185         3.61312         5.78303
     2009.89459         4.73107         5.76976
     2009.89733        -4.39099         5.71570
     2009.90006         0.30296         5.69009
     2009.90280         0.88590         5.70906
     2009.90554         3.17584         5.82002
     2009.90828         3.78079         5.70337
     2009.91102        -2.34627         5.64837
     2009.91375         1.71468         5.61233
     2009.91649         3.46362         5.64932
     2009.91923        -1.98044         5.61233
     2009.92197        -2.84049         5.58103
     2009.92470        -1.50255         5.58009
     2009.92744        -2.06860         5.64268
     2009.93018         2.61134         5.60095
     2009.93292         3.26028         5.65311
     2009.93566        -0.56077         5.60379
     2009.93839         0.90617         5.72992
     2009.94113         2.07912         5.60664
     2009.94387         0.62806         5.75553
     2009.94661         0.89100         5.86080
     2009.94935         1.59795         5.61802
     2009.95208        -4.69011         5.61802
     2009.95482        -9.90616         5.68725
     2009.95756        -1.76622         5.68061
     2009.96030        -7.29628         5.65785
     2009.96303       -12.25433         5.75269
     2009.96577        -3.22039         5.65690
     2009.96851        -8.15044         5.83614
     2009.97125        -2.79650         5.66733
     2009.97399        -2.78356         5.68061
     2009.97672        -8.86361         5.57534
     2009.97946        -5.36467         5.58103
     2009.98220        -7.22672         5.54595
     2009.98494        -3.06078         5.51939
     2009.98767        -4.27784         5.50327
     2009.99041        -5.03389         5.50991
     2009.99315        -4.46295         5.46534
     2009.99589        -0.86600         5.58198
     2009.99863       -11.24206         5.57629
     2010.00410        -8.34917         5.61423
     2010.00684       -14.57423         5.57724
     2010.00958        -4.96028         5.51275
     2010.01232        -9.73634         5.63414
     2010.01505       -11.75439         5.59621
     2010.01779        -7.23945         5.53551
     2010.02053        -8.86551         5.65216
     2010.02327        -6.13956         5.62845
     2010.02600       -10.05262         5.57155
     2010.02874         0.97333         5.58103
     2010.03148         9.04127         5.67966
     2010.03422        -8.10579         5.69768
     2010.03696        -6.62484         5.85985
     2010.03969        -1.98390         5.61992
     2010.04243        -0.43295         5.52034
     2010.04517         6.59899         5.51939
     2010.04791        14.28193         5.57534
     2010.05065         9.13688         5.71475
     2010.05338        10.10882         5.81433
     2010.05612        12.88677         5.70432
     2010.05886         6.71171         5.62371
     2010.06160         4.30565         5.60000
     2010.06433         6.00560         5.65785
     2010.06707         8.73554         5.81243
     2010.06981        16.27149         6.04667
     2010.07255        -4.28457         5.80010
     2010.07529        -9.30463         5.74700
     2010.07802        -5.91368         5.75363
     2010.08076        -5.57374         5.52603
     2010.08350        -4.01579         5.56207
     2010.08624        -0.78085         5.59621
     2010.08898         5.20609         5.82097
     2010.09171         0.46004         5.61707
     2010.09445         2.12298         5.81433
     2010.09719        -2.74107         5.70337
     2010.09993        -9.72613         5.71191
     2010.10266        -1.31419         5.60000
     2010.10540         2.05876         5.75174
     2010.10814        -0.29930         5.80959
     2010.11088        -3.85135         5.72518
     2010.11362         2.80059         5.64268
     2010.11635        -2.05446         5.81622
     2010.11909        -1.18652         5.71854
     2010.12183        -3.26458         5.62655
     2010.12457        -2.08263         5.60000
     2010.12731        -6.74969         5.88830
     2010.13004       -10.13474         5.74130
     2010.13278        -9.48880         5.75553
     2010.13552        -4.39386         5.81338
     2010.13826        -4.10091         5.58388
     2010.14099        -7.57697         5.56965
     2010.14373       -12.11102         5.77545
     2010.14647        -7.12708         5.83614
     2010.14921        -6.86314         5.78208
     2010.15195       -11.54019         5.63224
     2010.15468        -7.22625         5.60569
     2010.15742        -6.36030         5.67018
     2010.16016        -6.95436         5.62845
     2010.16290        -3.06942         5.61897
     2010.16564        -5.68747         5.71096
     2010.16837        -6.34853         5.63983
     2010.17111        -5.57158         5.52887
     2010.17385        -3.14964         5.67018
     2010.17659        -0.65170         5.52034
     2010.17932        -0.12675         5.52508
     2010.18206        -4.02581         5.62655
     2010.18480        -2.05186         5.52982
     2010.18754        -3.50492         5.56017
     2010.19028        -6.01898         5.52224
     2010.19301        -0.81803         5.55448
     2010.19575        -5.39109         5.55069
     2010.19849        -7.48214         5.60948
     2010.20123       -15.33920         5.56207
     2010.20397        -7.23726         5.69484
     2010.20670        -5.44431         5.70242
     2010.20944        -6.07137         5.56017
     2010.21218        -5.60442         5.54879
     2010.21492        -6.98848         5.56871
     2010.21765        -8.01953         5.64457
     2010.22039        -4.32559         5.52982
     2010.22313       -13.73765         5.54025
     2010.22587        -5.04270         5.73467
     2010.22861        -1.57076         5.70432
     2010.23134        -8.02681         5.67966
     2010.23408        -8.66487         5.70716
     2010.23956        -5.53298         5.79252
     2010.24230       -13.13004         6.03909
     2010.24503         1.22291         5.82666
     2010.24777        -2.19815         5.79821
     2010.25051        -5.37421         6.03434
     2010.25325        -0.08726         5.87787
     2010.25598        -3.01332         5.94330
     2010.25872        -0.04037         5.78588
     2010.26146       -10.97143         5.80769
     2010.26420        -4.24249         5.83424
     2010.26694        -3.04154         5.76501
     2010.26967        -1.57460         5.84847
     2010.27241        -4.01065         5.87123
     2010.27515        -6.49371         5.77829
     2010.27789        -6.55077         5.71665
     2010.28062        -5.11982         5.53551
     2010.28336        -9.88888         5.80959
     2010.28610       -10.39193         5.72708
     2010.28884        -0.58699         5.53931
     2010.29158        -3.65105         5.55353
     2010.29431        -2.42110         5.58957
     2010.29705        -3.78016         5.79062
     2010.29979        -4.90021         5.72708
     2010.30253         1.26473         5.65026
     2010.30527         0.77267         5.71096
     2010.30800        -1.30038         5.54879
     2010.31074        -9.40544         5.55258
     2010.31348        -5.08749         5.57250
     2010.31622        -3.52255         5.57724
     2010.31895        -4.58660         5.90727
     2010.32169        -5.21766         5.62181
     2010.32443        -6.83972         5.55922
     2010.32717        -0.96177         5.52508
     2010.32991        -8.08883         5.65311
     2010.33264        -7.98088         5.49094
     2010.33538        -7.02694         5.77355
     2010.33812        -2.83700         5.63699
     2010.34086       -10.86305         5.58103
     2010.34360        -3.57411         5.57155
     2010.34633        -4.03116         5.67682
     2010.34907        -6.80722         5.51465
     2010.35181        -7.32328         5.56112
     2010.35455        -5.02533         5.53646
     2010.35728        -1.93339         5.49948
     2010.36002        -4.73744         5.64552
     2010.36276        -2.68650         5.50232
     2010.36550        -8.28956         5.74130
     2010.36824        -7.26661         5.70811
     2010.37097        -3.45967         5.56302
     2010.37371        -2.94972         5.54689
     2010.37645        -1.22878         5.49568
     2010.37919        -2.82084         5.80105
     2010.38193        -1.69689         5.78588
     2010.38466        -3.59895         5.54025
     2010.38740         2.80800         5.49473
     2010.39014        -4.67906         5.55448
     2010.39288        -5.16112         5.60190
     2010.39561       -13.94417         5.55638
     2010.39835        -7.23223         5.54595
     2010.40109        -7.42128         5.53646
     2010.40383        -8.69034         5.54784
     2010.40657         5.51160         5.50137
     2010.40930        -4.42945         5.53931
     2010.41204        -5.33051         5.57914
     2010.41478        -0.00756         5.50232
     2010.41752         5.38538         5.59147
     2010.42026        -7.13668         5.43688
     2010.42299        -2.06973         5.49758
     2010.42573        -6.79979         5.46059
     2010.42847        -7.56584         5.45396
     2010.43121        -5.74090         5.43499
     2010.43394        -5.99995         5.38567
     2010.43668        -5.96401         5.49094
     2010.43942        -3.52007         5.41507
     2010.44216        -0.27712         5.40938
     2010.44490         1.77382         5.47861
     2010.44763        -5.21223         5.41128
     2010.45037        -0.85729         5.41412
     2010.45311        -0.17735         5.48241
     2010.45585        -0.13940         5.43594
     2010.45859        -6.04546         5.47766
     2010.46132         1.56949         5.48715
     2010.46406        -3.51757         5.39042
     2010.46680        -4.49363         5.44827
     2010.46954         0.92332         5.43404
     2010.47227        -3.12774         5.39611
     2010.47501         2.94221         5.47482
     2010.47775        -6.95785         5.55448
     2010.48049        -2.94091         5.59147
     2010.48323        -1.66996         5.47861
     2010.48596        -0.34702         5.39326
     2010.48870         3.15593         5.39042
     2010.49144        -1.87113         5.39231
     2010.49418         1.93681         5.35248
     2010.49692         0.17676         5.40938
     2010.49965        -0.88730         5.41412
     2010.50239         2.75365         5.36766
     2010.50513        -1.94641         5.37240
     2010.50787        -1.20047         5.37429
     2010.51060        -1.67352         5.43594
     2010.51334        -0.05258         5.47766
     2010.51608         0.29137         5.54879
     2010.51882         8.59931         5.44068
     2010.52156         4.51925         5.45775
     2010.52429         6.63720         5.47197
     2010.52703         3.25214         5.42645
     2010.52977         3.57809         5.40749
     2010.53251         0.77403         5.39895
     2010.53525        -1.15802         5.45490
     2010.53798        -1.69708         5.45396
     2010.54072        -1.03714         5.43688
     2010.54346        -5.81019         5.43119
     2010.54620         0.99675         5.37524
     2010.54893        -3.48330         5.45680
     2010.55167        -2.38736         5.41223
     2010.55441         3.73558         5.41602
     2010.55715         2.41953         5.42076
     2010.55989         1.03047         5.40843
     2010.56262        -0.50358         5.42171
     2010.56536        -3.84864         5.43214
     2010.56810         0.18730         5.48335
     2010.57084        -4.65275         5.38283
     2010.57357        -3.50581         5.51655
     2010.57631        -0.90386         5.56017
     2010.57905        -1.64892         5.39990
     2010.58179        -1.45898         5.45965
     2010.58453        -5.47503         5.39705
     2010.58726        -1.39809         5.46344
     2010.59000        -0.47214         5.48525
     2010.59274         8.09580         5.50611
     2010.59548         1.47474         5.37998
     2010.59822         5.16469         5.42456
     2010.60095        -1.01037         5.36291
     2010.60369         0.86158         5.44352
     2010.60643        -1.65148         5.41887
     2010.60917        -2.23154         5.38852
     2010.61190        -0.25459         5.38283
     2010.61464         3.62035         5.41602
     2010.61738        -3.10370         5.36671
     2010.62012        -1.42976         5.43878
     2010.62286        -3.25782         5.38757
     2010.62559         2.75213         5.38093
     2010.62833        -1.99393         5.40843
     2010.63107        -1.20698         5.57724
     2010.63381         4.32696         5.30412
     2010.63655         3.05291         5.33541
     2010.63928        -2.20415         5.32593
     2010.64202        -2.93621         5.27092
     2010.64476        -2.74026         5.33636
     2010.64750         2.43268         5.36386
     2010.65023         3.89363         5.42835
     2010.65297        -0.14043         5.50706
     2010.65571        -1.91049         5.25385
     2010.65845         0.90446         5.18652
     2010.66119         2.33240         5.37904
     2010.66392         7.98435         5.37524
     2010.66666         0.96829         5.23773
     2010.66940         2.74423         5.21592
     2010.67214         1.31818         5.27282
     2010.67488         4.39112         5.25480
     2010.67761         8.83907         5.28325
     2010.68035         2.51601         5.23109
     2010.68309         3.39095         5.27377
     2010.68583         2.12890         5.29748
     2010.68856        -3.46416         5.27851
     2010.69130         0.38679         5.28230
     2010.69404         4.35573         5.39421
     2010.69678        -5.09233         5.31644
     2010.69952         1.76262         5.28325
     2010.70225         0.92156         5.26903
     2010.70499         4.54651         5.28894
     2010.70773         4.25545         5.28230
     2010.71047         6.74139         5.33541
     2010.71321        -1.89466         5.27946
     2010.71594        12.08328         5.41223
     2010.71868         2.52923         5.25575
     2010.72142         7.07417         5.39326
     2010.72416         3.98711         5.40559
     2010.72689        -2.45694         5.35722
     2010.72963         2.40700         5.21592
     2010.73237         3.77695         5.24722
     2010.73511         2.40289         5.24153
     2010.73785         4.06683         5.32972
     2010.74058         4.49678         5.35628
     2010.74332         2.58472         5.26334
     2010.74606         5.15167         5.34774
     2010.74880         4.93361         5.33636
     2010.75154         6.45056         5.26808
     2010.75427         2.22750         5.43878
     2010.75701         0.72544         5.36197
     2010.75975        -0.53161         5.33636
     2010.76249        -1.08267         5.41887
     2010.76522         0.31228         5.27282
     2010.76796         1.22922         5.28799
     2010.77070        -0.36684         5.32403
     2010.77344        -2.25089         5.29937
     2010.77618         3.69305         5.31929
     2010.77891         0.21700         5.27756
     2010.78165         2.23794         5.28325
     2010.78439         1.81488         5.37429
     2010.78713         3.13683         5.33731
     2010.78987         3.92577         5.27092
     2010.79260         4.52372         5.27187
     2010.79534        -2.66834         5.27661
     2010.79808        -4.04340         5.36007
     2010.80082        -0.15045         5.28705
     2010.80355         0.15049         5.33257
     2010.80629         4.03844         5.36102
     2010.80903         1.00438         5.36766
     2010.81177        -2.94568         5.31170
     2010.81451         9.14527         5.30222
     2010.81724         1.56521         5.32782
     2010.81998        -1.79184         5.30506
     2010.82272         2.42310         5.37335
     2010.82548         8.90004         5.38378
     2010.82820        -1.09601         5.33731
     2010.83093        -1.72007         5.53551
     2010.83367        -1.53812         5.48525
     2010.83641        -6.32518         5.33446
     2010.83915        -2.01424         5.31455
     2010.84188         1.03171         5.32688
     2010.84462         4.93265         5.32972
     2010.84736         3.77860         5.31644
     2010.85010         3.86554         5.31170
     2010.85284         4.54649         5.32403
     2010.85557         0.96443         5.35248
     2010.85831        -2.43663         5.36291
     2010.86105       -10.01368         5.31644
     2010.86379        -7.52674         5.30127
     2010.86653        -4.19879         5.26998
     2010.86926         1.95915         5.33920
     2010.87200        -6.53691         5.25670
     2010.87474        -7.09796         5.32498
     2010.87748        -4.63702         5.32403
     2010.88021         1.57493         5.27092
     2010.88295        -0.94513         5.38283
     2010.88569        -3.26419         5.28041
     2010.88843         1.65876         5.45585
     2010.89117        11.13470         5.44732
     2010.89390        17.11165         5.35438
     2010.89664        21.16159         5.40843
     2010.89938        13.39853         5.32119
     2010.90212        -2.26252         5.29463
     2010.90485        -5.74458         5.28799
     2010.90759         5.01237         5.29558
     2010.91033         0.74631         5.32403
     2010.91307        -9.97675         5.33826
     2010.91581        -5.53880         5.31644
     2010.91854        -3.80286         5.28420
     2010.92128        -1.29591         5.28136
     2010.92402        -0.54397         5.34964
     2010.92676         1.16997         5.33920
     2010.92950         1.40992         5.36481
     2010.93223        -7.01314         5.37050
     2010.93497         0.85081         5.34015
     2010.93771        -8.31325         5.32498
     2010.94045        -2.41531         5.43309
     2010.94318        -2.40636         5.32593
     2010.94592        -4.76142         5.36291
     2010.94866        -2.56147         5.44352
     2010.95140         5.52847         5.44542
     2010.95414         0.45942         5.34110
     2010.95687        -2.73764         5.32403
     2010.95961        -7.36370         5.41128
     2010.96235        -1.88975         5.38473
     2010.96509         2.64719         5.45490
     2010.96783         2.25814         5.38473
     2010.97056        -1.78792         5.42930
     2010.97330         5.03702         5.46249
     2010.97604        -6.63503         5.41033
     2010.97878        -3.73209         5.38378
     2010.98151        -3.95814         5.35343
     2010.98425        -1.73220         5.39421
     2010.98699         2.59774         5.39990
     2010.98973        -1.22031         5.49853
     2010.99247        15.27463         5.65311
     2010.99520        13.28858         5.53267
     2010.99794         6.14352         5.38567
     2011.00342        19.40341         5.34964
     2011.00616        20.51735         5.36481
     2011.00889        -1.03970         5.44068
     2011.01163        -5.96476         5.37619
     2011.01437        -5.04982         5.34015
     2011.01711        -4.62487         5.43119
     2011.01984        -5.71093         5.36007
     2011.02258        -8.82798         5.33826
     2011.02532        -5.97004         5.50611
     2011.02806        -5.78010         5.62371
     2011.03080        -9.81015         5.39421
     2011.03353       -11.63021         5.38473
     2011.03627       -10.16226         5.35438
     2011.03901        -9.93532         5.36007
     2011.04175        -3.40638         5.37240
     2011.04449        -5.34843         5.30317
     2011.04722        -0.86249         5.43025
     2011.04996        -9.17054         5.41981
     2011.05270        -5.08560         5.31834
     2011.05544        -8.80266         5.32403
     2011.05817        -9.41171         5.34110
     2011.06091        -4.92477         5.30601
     2011.06365        -5.00282         5.27567
     2011.06639        -4.95788         5.30601
     2011.06913        -6.07993         5.70242
     2011.07186        -8.05999         5.31929
     2011.07460        -7.99905         5.27756
     2011.07734        -4.75810         5.27851
     2011.08008        -5.36016         5.30506
     2011.08282       -13.17821         5.34300
     2011.08555       -14.67927         5.35343
     2011.08829       -10.82433         5.34964
     2011.09103       -14.39338         5.31834
     2011.09377        -4.45344         5.35533
     2011.09650        -8.00049         5.34015
     2011.09924        -8.29055         5.34300
     2011.10198        -6.26361         5.42740
     2011.10472        -2.81266         5.35533
     2011.10746        -7.29172         5.31929
     2011.11019        -8.39177         5.29179
     2011.11293        -8.51583         5.38852
     2011.11567        -6.91989         5.36860
     2011.11841        -3.00094         5.41033
     2011.12115        -1.08100         5.44352
     2011.12388        -6.90805         5.45206
     2011.12662         3.79289         5.47103
     2011.12936         2.29483         5.43783
     2011.13210         0.89078         5.40654
     2011.13483        -8.33228         5.36671
     2011.13757       -11.56333         5.35343
     2011.14031       -11.40139         5.31644
     2011.14305        -8.80845         5.39516
     2011.14579       -11.10750         5.42645
     2011.14852        -2.34356         5.33257
     2011.15126         6.05239         5.36576
     2011.15400         5.85633         5.31644
     2011.15674        -4.97973         5.37904
     2011.15948        -9.12378         5.32024
     2011.16221        -4.15384         5.35438
     2011.16495        -4.57489         5.44163
     2011.16769        -9.44995         5.39800
     2011.17043       -15.07800         5.37240
     2011.17316       -19.12206         5.38283
     2011.17590       -14.05112         5.37904
     2011.17864         0.04183         5.39042
     2011.18138        -4.65923         5.34869
     2011.18412       -11.88728         5.31360
     2011.18685        -6.71734         5.40749
     2011.18959        -7.64840         5.35533
     2011.83849        -3.02466         5.54879
     2011.84120         2.52029         5.37904
     2011.84394         0.17923         5.34015
     2011.84668        -1.21282         5.41887
     2011.84941        -5.98488         5.43214
     2011.85215        -9.79094         5.45301
     2011.85489        -7.82699         5.48810
     2011.85763        -0.66505         5.49189
     2011.86036         3.84590         5.36102
     2011.86310         5.34184         5.39421
     2011.86584         7.27678         5.50896
     2011.86858         2.99873         5.43309
     2011.87132        -0.62433         5.38188
     2011.87405        -7.40438         5.37714
     2011.87679        -4.86544         5.37240
     2011.87953         1.59150         5.49568
     2011.88227         9.69645         5.45111
     2011.88501        12.47839         5.42550
     2011.88774        -4.70866         5.42361
     2011.89048         4.02628         5.45585
     2011.89322         0.56722         5.45870
     2011.89596       -10.04283         5.42076
     2011.89869        -1.32589         5.40938
     2011.90143        -5.31894         5.38757
     2011.90417        -4.44800         5.42076
     2011.90691        -1.57906         5.39516
     2011.90965         2.77989         5.42645
     2011.91238         2.13783         5.52413
     2011.91512         8.09578         5.37335
     2011.91786         3.48772         5.51655
     2011.92060        -3.30433         5.44258
     2011.92334        -7.99639         5.51655
     2011.92607        -2.64445         5.49189
     2011.92881        -3.11750         5.49948
     2011.93155         0.34844         5.49094
     2011.93429         0.95239         5.49189
     2011.93702         0.98533         5.53646
     2011.93976        -1.11973         5.51275
     2011.94250         0.10222         5.49758
     2011.94524         4.46916         5.50611
     2011.94798         3.28111         5.53172
     2011.95071         2.48005         5.42456
     2011.95345         1.28999         5.58103
     2011.95619        -1.32306         5.51655
     2011.95893        -0.45212         5.35438
     2011.96167         3.65883         5.40085
     2011.96440         3.01477         5.44542
     2011.96714         0.54071         5.32688
     2011.96988         2.86066         5.30886
     2011.97262        -2.38740         5.29368
     2011.97535        -3.14845         5.33636
     2011.97809        -3.94151         5.31455
     2011.98083        -2.78257         5.34490
     2011.98357         0.51538         5.32877
     2011.98631         2.24932         5.36955
     2011.98904         0.67827         5.35912
     2011.99178         3.99621         5.31834
     2011.99452         7.40915         5.43214
     2011.99726        -0.17690         5.27756
     2012.00273         8.31399         5.33446
     2012.00547        -0.13407         5.30412
     2012.00821         4.57287         5.29179
     2012.01095         2.69182         5.34679
     2012.01368         3.07176         5.28325
     2012.01642         6.24271         5.29463
     2012.01916         2.60765         5.28705
     2012.02190         2.42360         5.30032
     2012.02464         4.03854         5.32403
     2012.02737         3.56748         5.31929
     2012.03011         2.52243         5.25480
     2012.03285         0.09137         5.30222
     2012.03559         0.22632         5.30886
     2012.03833         2.25226         5.32119
     2012.04106         6.51620         5.29937
     2012.04380         0.41515         5.25291
     2012.04654         1.01609         5.27282
     2012.04928        17.99504         5.44447
     2012.05201         5.06198         5.45585
     2012.05475        12.15492         5.39990
     2012.05749         4.72287         5.36291
     2012.06023         7.23381         5.45111
     2012.06297        -6.96024         5.36955
     2012.06570        -5.56030         5.34869
     2012.06844        -2.00036         5.39042
     2012.07118        -3.98341         5.36766
     2012.07392        -5.66347         5.34015
     2012.07666        -2.17952         5.31929
     2012.07939         4.34842         5.32877
     2012.08213         3.67536         5.29843
     2012.08487        -0.72969         5.37240
     2012.08761        -3.58275         5.35438
     2012.09034        -4.04280         5.30791
     2012.09308        -0.56286         5.32308
     2012.09582         0.91208         5.31644
     2012.09856         4.68703         5.36671
     2012.10130        -3.97503         5.49948
     2012.10403        -2.32108         5.36291
     2012.10677        -9.17714         5.39800
     2012.10951         3.80480         5.40180
     2012.11225        -1.71425         5.36671
     2012.11498        -3.78631         5.35438
     2012.11772         1.97864         5.39136
     2012.12046         0.97358         5.37145
     2012.12320        -0.03247         5.37050
     2012.12594        -3.58953         5.36102
     2012.12867        -6.04459         5.38852
     2012.13141        -7.02564         5.43688
     2012.13415         3.08430         5.36955
     2012.13689         1.06025         5.41128
     2012.13963         1.05319         5.47197
     2012.14236         3.00713         5.53267
     2012.14510         2.78008         5.42171
     2012.14784        -5.67698         5.30601
     2012.15058        -1.96803         5.34964
     2012.15331        -4.16609         5.30412
     2012.15605        -0.16715         5.42361
     2012.15879         2.57780         5.43973
     2012.16153         2.60274         5.34110
     2012.16427         6.87669         5.41033
     2012.16700         2.24663         5.43404
     2012.16974        -4.89843         5.31834
     2012.17248        -2.76648         5.28230
     2012.17522         1.52846         5.36291
     2012.17796         1.56241         5.36197
     2012.18069        -4.45865         5.31075
     2012.18343        -6.07971         5.36766
     2012.18617        -4.50676         5.28894
     2012.18891        -1.42682         5.36860
     2012.19164         4.07713         5.34205
     2012.19438        -1.44093         5.33731
     2012.19712         2.31801         5.35533
     2012.19986        -6.65804         5.46154
     2012.20260        -5.68410         5.34015
     2012.20533         0.67485         5.35912
     2012.20807        -0.47621         5.34110
     2012.21081        -1.02527         5.37240
     2012.21355        -5.33632         5.35343
     2012.21629         0.53862         5.38093
     2012.21902        -5.58343         5.32593
     2012.22176        -2.62949         5.39990
     2012.22450        -8.98555         5.34300
     2012.22724        -4.22560         5.35912
     2012.22997        -5.32366         5.35533
     2012.23271        -3.37971         5.40180
     2012.23545        -0.47477         5.39800
     2012.23819        -3.72182         5.46723
     2012.24093        -7.85588         5.43973
     2012.24366        -3.39794         5.41412
     2012.24640        -4.70499         5.43688
     2012.24914         3.22495         5.39516
     2012.25188        -9.39010         5.39516
     2012.25462       -13.59716         5.39042
     2012.25735        -1.28422         5.42076
     2012.26009        -6.60327         5.39990
     2012.26283        -8.95433         5.44921
     2012.26557        -5.65238         5.43783
     2012.26830        -4.07544         5.47292
     2012.27104        -5.00750         5.55827
     2012.27378        -3.38855         5.36671
     2012.27652        -2.99961         5.38567
     2012.27926        -5.08566         5.49853
     2012.28199        -2.80072         5.40654
     2012.28473        -3.93878         5.34395
     2012.28747       -12.07883         5.28325
     2012.29021       -14.86389         5.32593
     2012.29295        -5.82794         5.37335
     2012.29568       -12.01200         5.43594
     2012.29842        -8.50906         5.41223
     2012.30116       -12.05511         5.30696
     2012.30390        -8.98817         5.33826
     2012.30663        -6.63922         5.32877
     2012.30937        -1.44428         5.43499
     2012.31211        -3.52934         5.44068
     2012.31485        -3.85639         5.36860
     2012.31759        -5.06345         5.30696
     2012.32032        -8.21150         5.47956
     2012.32306        -5.81456         5.36102
     2012.32580        -6.34462         5.35628
     2012.32854         0.45633         5.44542
     2012.33128        -4.62873         5.39421
     2012.33401        -3.33178         5.39990
     2012.33675        -3.88584         5.38093
     2012.33949        -8.62889         5.33257
     2012.34223       -10.88195         5.32024
     2012.34496       -13.94901         5.27092
     2012.34770        -3.19806         5.39231
     2012.35044        -4.46212         5.26144
     2012.35318        -2.75917         5.36386
     2012.35592        -6.95823         5.36102
     2012.35865        -7.71129         5.26049
     2012.36139        -5.74934         5.22635
     2012.36413        -6.13040         5.27756
     2012.36687       -13.28845         5.26903
     2012.36961        -2.18951         5.30506
     2012.37234        -2.53457         5.33351
     2012.37508        -4.92162         5.26239
     2012.37782        -7.38368         5.40369
     2012.38056        -9.06773         5.35817
     2012.38329        -8.86179         5.37714
     2012.38603        -2.54685         5.47387
     2012.38877        -8.33090         5.41507
     2012.39151        -3.96996         5.35438
     2012.39425        -5.16401         5.33920
     2012.39698        -5.23107         5.35248
     2012.39972        -9.74213         5.32308
     2012.40246        -7.56818         5.32024
     2012.40520        -8.66524         5.28799
     2012.40794        -5.28429         5.25860
     2012.41067        -8.45735         5.28420
     2012.41341        -4.46641         5.28989
     2012.41615        -1.18846         5.29653
     2012.41889         0.48848         5.43404
     2012.42162       -12.38657         5.26523
     2012.42436        -8.16963         5.40085
     2012.42710        -5.79169         5.35628
     2012.42984        -2.82374         5.36576
     2012.43258        -5.78980         5.34964
     2012.43531        -9.65285         5.28325
     2012.43805        -9.15491         5.25385
     2012.44079       -13.29896         5.26618
     2012.44353       -11.17202         5.24247
     2012.44626         0.80292         5.25291
     2012.44900        -0.92913         5.27092
     2012.45174        -5.52619         5.30032
     2012.45448        -4.77024         5.27092
     2012.45722        -2.94630         5.36766
     2012.45995         0.28064         5.25385
     2012.46269         7.06659         5.28799
     2012.46543        -4.05847         5.36102
     2012.46817        -2.65052         5.28705
     2012.47091        -6.31658         5.29274
     2012.47364        -2.08164         5.32782
     2012.47638        -5.48269         5.27472
     2012.47912        -2.08775         5.29274
     2012.48186        -6.83780         5.34679
     2012.48459        -4.13986         5.29274
     2012.48733        -8.46092         5.28705
     2012.49007        -2.58997         5.24153
     2012.49281        -2.17803         5.26618
     2012.49555        -4.65108         5.27377
     2012.49828        -4.58314         5.28894
     2012.50102        -0.75220         5.25860
     2012.50376         2.32475         5.29843
     2012.50650         2.83569         5.26049
     2012.50924         0.21064         5.39421
     2012.51197        -3.68742         5.34584
     2012.51471        -1.91548         5.25291
     2012.51745        -4.39153         5.26429
     2012.52019        -2.28559         5.25765
     2012.52292        -2.07864         5.24247
     2012.52566         1.04630         5.29368
     2012.52840        -1.64076         5.22066
     2012.53114         3.81319         5.25765
     2012.53388        -1.43087         5.26808
     2012.53661         3.45908         5.26523
     2012.53935         1.20502         5.32972
     2012.54209         0.81696         5.22920
     2012.54483        -2.50409         5.27946
     2012.54757        -4.78515         5.28610
     2012.55030        -1.49620         5.17419
     2012.55304        -0.01926         5.24532
     2012.55578        -1.32931         5.29937
     2012.55852        -6.06137         5.28515
     2012.56125        -1.08343         5.30791
     2012.56399        -2.30548         5.27756
     2012.56673         1.05946         5.20359
     2012.56947        -0.57259         5.18557
     2012.57221        -0.15565         5.26808
     2012.57494         0.89729         5.21307
     2012.57768        -2.43876         5.28230
     2012.58042         1.44818         5.34679
     2012.58316        -3.94187         5.19790
     2012.58590         2.53307         5.16850
     2012.58863         4.33401         5.24058
     2012.59137         3.67996         5.32972
     2012.59411         1.92290         5.32498
     2012.59685         2.98485         5.27377
     2012.59958        -1.56321         5.18083
     2012.60232        -1.88527         5.32213
     2012.60506         1.52268         5.27282
     2012.60780         1.93662         5.36007
     2012.61054         4.36857         5.25860
     2012.61327         1.56951         5.19411
     2012.61601         3.13945         5.20644
     2012.61875        11.09240         5.29748
     2012.62149         7.43434         5.31265
     2012.62423        13.68629         5.34110
     2012.62696         0.58123         5.18462
     2012.62970         6.14417         5.27377
     2012.63244        -0.18188         5.19221
     2012.63518         4.92506         5.19695
     2012.63791         2.58301         5.33067
     2012.64065         4.47295         5.31265
     2012.64339         7.55289         5.17040
     2012.64613         6.44784         5.20454
     2012.64887         8.21878         5.23868
     2012.65160         5.93273         5.26144
     2012.65434         0.85867         5.24627
     2012.65708         2.84362         5.29179
     2012.65982         9.93356         5.28515
     2012.66256         3.18550         5.22825
     2012.66529         8.03345         5.20833
     2012.66803         5.87339         5.19126
     2012.67077         9.35334         5.30886
     2012.67351         5.53328         5.24247
     2012.67624         7.65022         5.19790
     2012.67898        10.20117         5.20359
     2012.68172        15.66211         5.30506
     2012.68446         9.06506         5.21023
     2012.68720         2.66400         5.26334
     2012.68993         5.91394         5.14764
     2012.69267        14.00289         5.33067
     2012.69541         5.27283         5.32877
     2012.69815         2.29078         5.27092
     2012.70089         1.45772         5.35248
     2012.70362         5.32966         5.23773
     2012.70636         4.00761         5.17230
     2012.70910         4.43355         5.15712
     2012.71184         5.61750         5.14195
     2012.71457         5.84444         5.20833
     2012.71731         5.44338         5.24627
     2012.72005         9.98733         5.16376
     2012.72279         6.62427         5.17230
     2012.72553         7.57522         5.14859
     2012.72826         4.86716         5.26903
     2012.73100         7.66210         5.37714
     2012.73374         4.92305         5.33257
     2012.73648         4.99199         5.20833
     2012.73921         3.30594         5.28230
     2012.74195         5.01288         5.32593
     2012.74469         3.74382         5.19316
     2012.74743         4.08777         5.25480
     2012.75017         2.16871         5.19031
     2012.75290         6.74466         5.23773
     2012.75564         3.39460         5.21592
     2012.75838         3.13755         5.23678
     2012.76112         6.59449         5.21402
     2012.76386         1.67943         5.23014
     2012.76659         5.29338         5.29084
     2012.76933         3.76332         5.28799
     2012.77207         3.74227         5.25860
     2012.77481        -0.31879         5.31455
     2012.77754         0.59115         5.29558
     2012.78028         4.42110         5.28705
     2012.78302         2.08004         5.29084
     2012.78576         0.76099         5.29463
     2012.78850         9.08293         5.31739
     2012.79123         1.13587         5.37524
     2012.79397         3.58582         5.29368
     2012.79671         6.96876         5.25860
     2012.79945         3.70271         5.26334
     2012.80219         2.95165         5.29368
     2012.80492         4.33559         5.35722
     2012.80766         2.14754         5.29558
     2012.81040         3.40148         5.27377
     2012.81314        -1.46557         5.27377
     2012.81587        -2.42663         5.32972
     2012.81861        -2.00169         5.39705
     2012.82135        -3.65874         5.30791
     2012.82409        -1.01580         5.30127
     2012.82683        -0.61285         5.27567
     2012.82956         0.75909         5.26808
     2012.83230         5.58703         5.30127
     2012.83504         2.55498         5.34774
     2012.83778         3.65492         5.30412
     2012.84052        -0.41113         5.27377
     2012.84325         1.13281         5.31075
     2012.84599         3.69775         5.34015
     2012.84873         2.50270         5.33351
     2012.85147         5.07164         5.33636
     2012.85420        -0.84041         5.30127
     2012.85694         2.44153         5.34584
     2012.85968         4.14147         5.32024
     2012.86242         0.17042         5.32403
     2012.86516         7.20336         5.31170
     2012.86789         1.46431         5.46059
     2012.87063         4.66925         5.25765
     2012.87337         3.15720         5.32308
     2012.87611         6.36014         5.26144
     2012.87885         8.38008         5.30981
     2012.88158         5.76703         5.27377
     2012.88432         7.07197         5.33162
     2012.88706        -0.28008         5.53836
     2012.88980        12.00586         5.48904
     2012.89253         1.90080         5.35343
     2012.89527         1.22075         5.32688
     2012.89801        -0.23531         5.28705
     2012.90075         6.05364         5.29368
     2012.90349         0.53858         5.30127
     2012.90622         6.42352         5.29653
     2012.90896         4.02447         5.42740
     2012.91170         7.28041         5.38378
     2012.91444         0.16236         5.34964
     2012.91718         9.38830         5.30696
     2012.91991         5.53024         5.29368
     2012.92265         1.44019         5.25765
     2012.92539        -0.70387         5.31550
     2012.92813        -2.05992         5.23963
     2012.93086        -6.57898         5.33257
     2012.93360         1.86696         5.31455
     2012.93634         4.20991         5.23963
     2012.93908        -2.06115         5.25954
     2012.94182        -1.27220         5.25291
     2012.94455         6.84174         5.19980
     2012.94729         4.97068         5.33067
     2012.95003         4.16563         5.32688
     2012.95277         5.31957         5.19600
     2012.95551         7.06252         5.27851
     2012.95824        10.75946         5.24911
     2012.96098        -0.81860         5.40274
     2012.96372         6.59235         5.37335
     2012.96646         0.44529         5.21876
     2012.96919        -3.63876         5.40749
     2012.97193         8.11218         5.42171
     2012.97467         9.60713         5.25291
     2012.97741         7.58407         5.36955
     2012.98015         1.10401         5.24247
     2012.98288        -0.46504         5.33636
     2012.98562         5.95190         5.33826
     2012.98836         2.38385         5.24342
     2012.99110        -0.23321         5.25954
     2012.99384        -3.02527         5.26808
     2012.99657        -4.62232         5.28136
     2012.99931        -1.90738         5.37714
     2013.00205        -0.06343         5.36007
     2013.00479         2.33651         5.23678
     2013.00752        -2.99155         5.24532
     2013.01026        -2.73560         5.24437
     2013.01300        -6.73866         5.28799
     2013.01574        -1.80771         5.31360
     2013.01848        -4.55277         5.25860
     2013.02121        -4.90683         5.25575
     2013.02395        -0.21188         5.35817
     2013.02669        -0.30594         5.41223
     2013.02943         0.01601         5.34205
     2013.03216        -2.52705         5.33636
     2013.03490        -6.95111         5.33162
     2013.03764        -4.46716         5.28610
     2013.04038        -9.53522         5.30317
     2013.04312        -8.02927         5.44163
     2013.04585        -5.66533         5.43309
     2013.04859        -5.27339         5.40938
     2013.05133        -8.78044         5.20833
     2013.05407        -6.35950         5.28705
     2013.05681        -3.06155         5.27187
     2013.05954        -4.80661         5.30696
     2013.06228        -8.06267         5.40085
     2013.06776        -5.55378         5.29274
     2013.07049        -1.48583         5.33541
     2013.07323        -5.52489         5.26334
     2013.07597        -7.56294         5.25860
     2013.07871        -5.02900         5.24532
     2013.08145        -2.48306         5.24816
     2013.08418        -4.22011         5.24627
     2013.08692        -6.63017         5.26713
     2013.08966        -8.06722         5.25196
     2013.09240        -3.68028         5.24247
     2013.09514        -0.75334         5.23583
     2013.09787        -1.79539         5.43499
     2013.10061        -7.58045         5.70242
     2013.10335        -3.66050         5.30981
     2013.10609        -4.38756         5.23678
     2013.10882        -4.36162         5.18842
     2013.11156        -6.43367         5.33351
     2013.11430        -2.26573         5.28705
     2013.11704        -8.42878         5.34110
     2013.11978        -7.09784         5.44068
     2013.12251        -9.83090         5.24437
     2013.12525        -7.19695         5.24437
     2013.12799        -7.27301         5.25860
     2013.13073        -6.77606         5.24437
     2013.13347        -6.48012         5.26239
     2013.13620        -3.48218         5.24153
     2013.13894        -0.74723         5.23014
     2013.14168        -2.31629         5.31644
     2013.14442        -3.37034         5.48810
     2013.14715         5.05560         5.50896
     2013.14989        -8.69346         5.24342
     2013.15263        -3.29951         5.26334
     2013.15537       -10.61757         5.24342
     2013.15811        -7.78462         5.26713
     2013.16084        -9.07868         5.26618
     2013.16358       -12.33274         5.31265
     2013.16632        -5.45879         5.25575
     2013.16906        -5.89285         5.25101
     2013.17180        -1.39890         5.27377
     2013.17453        -6.59596         5.28041
     2013.17727        -4.00602         5.34869
     2013.18001        -9.47007         5.39895
     2013.18275        -6.22113         5.21971
     2013.18548        -6.75618         5.23678
     2013.18822        -8.01824         5.26998
     2013.19096        -4.47229         5.24342
     2013.19370        -2.56435         5.24816
     2013.19644        -6.40341         5.26998
     2013.19917        -5.19946         5.26903
     2013.20191        -3.41652         5.29274
     2013.20465        -3.48257         5.28420
     2013.20739        -2.42163         5.26239
     2013.21013        -0.70569         5.23678
     2013.21286       -10.95174         5.27472
     2013.21560        -4.49480         5.27756
     2013.21834        -6.06385         5.24816
     2013.22108        -8.43291         5.23678
     2013.22381        -3.23297         5.27661
     2013.22655        -8.08102         5.26713
     2013.22929        -4.47308         5.27661
     2013.23203        -8.60513         5.20738
     2013.23477        -9.14819         5.24058
     2013.23750        -7.85825         5.38473
     2013.24024       -10.17130         5.38093
     2013.24298        -0.08936         5.42835
     2013.24572         1.44459         5.42835
     2013.24846        -4.74847         5.32308
     2013.25119        -1.67953         5.32972
     2013.25393         0.10542         5.38567
     2013.25667        -8.45764         5.55069
     2013.25941        -0.63969         5.34490
     2013.26214        -2.49275         5.38662
     2013.26488         4.05619         5.32877
     2013.26762         4.57314         5.35533
     2013.27036         1.41408         5.31834
     2013.27310        -0.66697         5.46913
     2013.27583         0.28697         5.52129
     2013.27857         0.94191         5.44352
     2013.28131        -0.99314         5.34584
     2013.28405         6.30780         5.33541
     2013.28679         4.41675         5.32119
     2013.28952        -2.36731         5.32877
     2013.29226        -7.53936         5.35912
     2013.29500        -2.97442         5.35153
     2013.29774        -3.66748         5.33920
     2013.30047        -2.96853         5.33920
     2013.30321        -6.47459         5.32308
     2013.30595        -7.26864         5.35817
     2013.30869        -8.02170         5.33257
     2013.31143        -6.33276         5.31455
     2013.31416        -0.48981         5.32972
     2013.31690        -4.60987         5.32593
     2013.31964        -5.84292         5.32593
     2013.32238        -3.97798         5.36481
     2013.32512        -0.82504         5.37904
     2013.32785         1.81791         5.30412
     2013.33059        -0.44215         5.34584
     2013.33333        -7.70120         5.34110
     2013.33607        -8.51726         5.32024
     2013.33880         2.48968         5.30886
     2013.34154         0.81163         5.38852
     2013.34428        -4.36543         5.33731
     2013.34702        -2.87648         5.33162
     2013.34976        -4.53854         5.29937
     2013.35249        -4.51860         5.24816
     2013.35523        -6.04365         5.46818
     2013.35797        -0.83271         5.38188
     2013.36071        -4.12176         5.32877
     2013.36344         1.38318         5.29368
     2013.36618        -0.68488         5.25196
     2013.36892        -0.87893         5.25860
     2013.37166        -5.54299         5.35248
     2013.37440        -1.34104         5.35343
     2013.37713        -3.42110         5.33067
     2013.37987        -2.95616         5.30981
     2013.38261        -3.27021         5.24911
     2013.38535        -6.37927         5.34015
     2013.38809        -4.55732         5.27661
     2013.39082        -1.33738         5.30981
     2013.39356        -3.61543         5.30981
     2013.39630        -1.22449         5.23299
     2013.39904        -4.02455         5.25196
     2013.40177        -6.14160         5.29653
     2013.40451         0.20734         5.29748
     2013.40725         3.48829         5.33636
     2013.40999         2.59223         5.26618
     2013.41273         1.77917         5.24153
     2013.41546         2.05412         5.37335
     2013.41820         1.21506         5.32972
     2013.42094         9.09601         5.28989
     2013.42368        -2.65805         5.27377
     2013.42642         2.07889         5.30412
     2013.42915         4.23784         5.24816
     2013.43189         0.30578         5.31265
     2013.43463         2.57773         5.30506
     2013.43737         1.73467         5.30032
     2013.44010         1.77961         5.35722
     2013.44284         2.16256         5.27092
     2013.44558        -0.75150         5.32593
     2013.44832        -1.88055         5.28325
     2013.45106        -0.07161         5.29843
     2013.45379        -2.32467         5.25954
     2013.45653        -2.12772         5.29748
     2013.45927        -1.94378         5.24058
     2013.46201         1.15517         5.26239
     2013.46475         2.95211         5.30886
     2013.46748         2.58805         5.29558
     2013.47022        -1.21500         5.27092
     2013.47296         0.99394         5.21876
     2013.47570        -0.68311         5.25385
     2013.47843        -0.57117         5.24532
     2013.48117        -0.14423         5.29558
     2013.48391        -0.17928         5.20549
     2013.48665        -3.59834         5.20833
     2013.48939         2.30461         5.20454
     2013.49212         0.65055         5.19600
     2013.49486        -3.87051         5.19885
     2013.49760         3.98844         5.25480
     2013.50034         6.83838         5.31455
     2013.50308         0.74433         5.29084
     2013.50581         0.89527         5.30506
     2013.50855         1.31122         5.25006
     2013.51129         1.38316         5.26523
     2013.51403         3.58710         5.20833
     2013.51676         0.19905         5.24247
     2013.51950         1.00899         5.19600
     2013.52224         1.46294         5.21782
     2013.52498         1.86788         5.35912
     2013.52772         5.05682         5.23109
     2013.53045         1.28177         5.23109
     2013.53319         0.45471         5.22066
     2013.53593         3.84366         5.22540
     2013.53867        -0.41740         5.22920
     2013.54141         1.03954         5.25385
     2013.54414         1.86749         5.23489
     2013.54688         1.39043         5.22351
     2013.54962         4.39738         5.22066
     2013.55236         5.71332         5.24532
     2013.55509         4.75426         5.25101
     2013.55783         4.35521         5.24911
     2013.56057         1.56815         5.37809
     2013.56331         3.75910         5.37240
     2013.56605         0.10104         5.27661
     2013.56878         5.90698         5.27756
     2013.57152         2.62993         5.24342
     2013.57426         3.83687         5.24153
     2013.57700         4.06082         5.23204
     2013.57974         2.61376         5.24247
     2013.58247         8.53170         5.31170
     2013.58521         2.96065         5.30032
     2013.58795         8.05159         5.24153
     2013.59069         7.24754         5.23014
     2013.59342         4.74848         5.23678
     2013.59616         6.81442         5.27661
     2013.59890         8.46237         5.29274
     2013.60164        10.23831         5.29843
     2013.60438        13.21026         5.29368
     2013.60711         4.12720         5.24247
     2013.60985        -1.12285         5.30127
     2013.61259         9.45309         5.30981
     2013.61533        11.14303         5.39136
     2013.61807         5.24298         5.35343
     2013.62080        10.21892         5.31455
     2013.62354         2.91687         5.32688
     2013.62628         1.82881         5.32213
     2013.62902         2.25675         5.34584
     2013.63175         8.78670         5.30317
     2013.63449         8.39464         5.47292
     2013.63723         1.77059         5.40180
     2013.63997        11.11553         5.41792
     2013.64271         4.67147         5.29558
     2013.64544         8.97742         5.29274
     2013.64818         4.38736         5.25575
     2013.65092         3.96631         5.26523
     2013.65366         5.86525         5.24722
     2013.65639         6.18919         5.24911
     2013.65913         8.48414         5.44542
     2013.66187         4.60108         5.23583
     2013.66461         0.05003         5.27567
     2013.66735         8.85197         5.36860
     2013.67008         7.36391         5.25480
     2013.67282         6.83886         5.34584
     2013.67556         4.25580         5.30317
     2013.67830         8.79475         5.25670
     2013.68104         8.02969         5.23773
     2013.68377         7.63263         5.26239
     2013.68651         7.41458         5.26903
     2013.68925         5.99452         5.25480
     2013.69199         7.00247         5.21971
     2013.69472        11.24841         5.28041
     2013.69746         7.73335         5.28799
     2013.70020         5.01230         5.25196
     2013.70294         7.59824         5.25860
     2013.70568         6.33319         5.24816
     2013.70841         2.87713         5.22256
     2013.71115        11.92708         5.27661
     2013.71389         3.11402         5.25480
     2013.71663         8.38396         5.25575
     2013.71937        13.50191         5.31739
     2013.72210        11.47685         5.46059
     2013.72484         4.90480         5.25196
     2013.72758         9.83174         5.23299
     2013.73032         9.21368         5.29653
     2013.73305         9.16163         5.25670
     2013.73579         7.70857         5.21782
     2013.73853         4.47352         5.21782
     2013.74127         7.09746         5.25575
     2013.74401        10.50940         5.36102
     2013.74674         5.02635         5.29748
     2013.74948         3.40329         5.23394
     2013.75222         4.27024         5.22161
     2013.75496         2.35618         5.22445
     2013.75770        -1.25288         5.25575
     2013.76043        -1.17493         5.23394
     2013.76317         4.37801         5.21876
     2013.76591         4.38296         5.23678
     2013.76865         6.32690         5.19790
     2013.77138         1.77484         5.26049
     2013.77412         6.26579         5.26334
     2013.77686         3.44073         5.26049
     2013.77960         1.91968         5.26429
     2013.78234         1.35262         5.25480
     2013.78507        -3.05244         5.27377
     2013.78781        -1.61849         5.26523
     2013.79055        -0.20455         5.27472
     2013.79329        -0.36360         5.26903
     2013.79603         4.15034         5.23963
     2013.79876        -0.22172         5.23014
     2013.80150         6.69123         5.36102
     2013.80424         7.77017         5.32688
     2013.80698         2.17612         5.24816
     2013.80971         7.35506         5.23204
     2013.81245         8.57400         5.23773
     2013.81519         6.07195         5.24722
     2013.81793         5.26789         5.26049
     2013.82067        -0.29516         5.24342
     2013.82340        10.76778         5.26903
     2013.82614         7.57773         5.34679
     2013.82888         9.53567         5.23773
     2013.83162         3.45761         5.24816
     2013.83436         6.16956         5.36481
     2013.83709         5.27850         5.34205
     2013.83983         8.35145         5.29843
     2013.84257         2.78339         5.31265
     2013.84531         3.38033         5.36386
     2013.84804         1.14428         5.22920
     2013.85078         3.93322         5.30032
     2013.85352         5.10317         5.28894
     2013.85626         8.31611         5.27377
     2013.85900         8.95705         5.25954
     2013.86173         6.55000         5.27282
     2013.86447         2.67694         5.35248
     2013.86721         3.92589         5.28989
     2013.86995         7.79883         5.24247
     2013.87269        11.37877         5.27377
     2013.87542         9.45472         5.28325
     2013.87816         9.07066         5.29084
     2013.88090        10.74561         5.31739
     2013.88364         7.92555         5.47672
     2013.88637         5.37449         5.26334
     2013.88911        -1.81056         5.24627
     2013.89185         4.70238         5.21782
     2013.89459         0.08933         5.23678
     2013.89733         5.45027         5.24437
     2013.90006         3.21621         5.31360
     2013.90280        -1.08284         5.27851
     2013.90554         5.04910         5.26523
     2013.90828         9.43505         5.27092
     2013.91102         4.24899         5.28705
     2013.91375         2.19593         5.27282
     2013.91649         7.46988         5.26144
     2013.91923         1.85382         5.36386
     2013.92197         6.32077         5.34964
     2013.92470         7.90471         5.25196
     2013.92744         7.56666         5.34015
     2013.93018         7.32160         5.20738
     2013.93292         4.10254         5.20738
     2013.93566         4.92549         5.22066
     2013.93839         4.43343         5.23394
     2013.94113         4.12638         5.22066
     2013.94387         0.82732         5.20549
     2013.94661         2.46326         5.25291
     2013.94935         4.62221         5.18937
     2013.95208         5.12715         5.23014
     2013.95482         3.34410         5.14859
     2013.95756         5.73704         5.20169
     2013.96030         1.65698         5.19885
     2013.96303         5.45993         5.22256
     2013.96577         8.75187         5.26049
     2013.96851         9.44782         5.28799
     2013.97125         9.32776         5.17893
     2013.97399         0.66070         5.26334
     2013.97672        -3.40135         5.29748
     2013.97946        -0.33041         5.23583
     2013.98220         3.74354         5.26334
     2013.98494         3.70848         5.19600
     2013.98767        -0.82858         5.23109
     2013.99041        -3.17663         5.29179
     2013.99315        -9.50469         5.24911
     2013.99589        -0.74074         5.25385
     2013.99863        -0.11980         5.26049
     2014.00410         1.33009         5.30981
     2014.00684         2.19903         5.29274
     2014.00958         3.47498         5.28230
     2014.01232        -2.97908         5.34015
     2014.01505        -2.53914         5.33731
     2014.01779         1.67081         5.31265
     2014.02053         2.98975         5.27756
     2014.02327         0.68370         5.42456
     2014.02600         5.60064         5.37050
     2014.02874         1.88758         5.31644
     2014.03148         7.62053         5.25385
     2014.03422         1.72747         5.24532
     2014.03696         3.49442         5.29368
     2014.03969         2.09636         5.31929
     2014.04243         2.72731         5.41697
     2014.04517         7.94925         5.39042
     2014.04791         8.62519         5.19411
     2014.05065         7.25214         5.21592
     2014.05338         4.36808         5.28515
     2014.05612         3.69703         5.28705
     2014.05886         2.87897         5.25480
     2014.06160         7.29891         5.23489
     2014.06433         7.32186         5.43688
     2014.06707         7.34880         5.43119
     2014.06981         8.36075         5.35059
     2014.07255         7.91069         5.31644
     2014.07529         4.05963         5.24532
     2014.07802         3.83758         5.25480
     2014.08076         9.88852         5.26049
     2014.08350         7.97547         5.29274
     2014.08624         4.10241         5.36766
     2014.08898         2.38235         5.48241
     2014.09171         2.99530         5.45870
     2014.09445         5.55024         5.25006
     2014.09719         2.81619         5.36576
     2014.09993        13.30413         5.28325
     2014.10266         8.42107         5.33636
     2014.10540         6.37202         5.35059
     2014.10814         0.24696         5.31929
     2014.11088         6.07891         5.49853
     2014.11362         0.90385         5.31075
     2014.11635         6.26479         5.34964
     2014.11909         2.56374         5.33541
     2014.12183         6.92168         5.44921
     2014.12457         4.16063         5.30412
     2014.12731         7.79757         5.27661
     2014.13004         2.39551         5.27092
     2014.13278         3.99746         5.42930
     2014.13552         9.94240         5.45111
     2014.13826         3.93635         5.29653
     2014.14099         8.13829         5.28230
     2014.14373         6.98624         5.34584
     2014.14647         6.67818         5.36671
     2014.14921         5.52412         5.27567
     2014.15195         4.87607         5.36481
     2014.15468         7.02201         5.37904
     2014.15742         7.69696         5.40843
     2014.16016        11.33990         5.56112
     2014.16290         8.92384         5.35533
     2014.16564         1.06379         5.41507
     2014.16837         0.05173         5.55922
     2014.17111        -7.40632         5.56396
     2014.17385         3.50562         5.65216
     2014.17659         5.57556         5.47008
     2014.17932         9.25151         5.66828
     2014.18206         5.52845         5.43309
     2014.18480        -2.61960         5.35153
     2014.18754         0.73534         5.49758
     2014.19028        -1.05272         5.36955
     2014.19301         1.71223         5.33541
     2014.19575         2.52917         5.34205
     2014.19849         7.86212         5.40369
     2014.20123        -0.49794         5.37904
     2014.20397        -1.13500         5.39136
     2014.20670         5.26195         5.41318
     2014.20944         5.69489         5.37429
     2014.21218         6.24884         5.32593
     2014.21492         3.90278         5.51560
     2014.21765         7.56572         5.37524
     2014.22039         1.60467         5.40938
     2014.22313         1.11061         5.38662
     2014.22587         3.17056         5.35533
     2014.22861         1.81450         5.45396
     2014.23134         5.71844         5.36955
     2014.23408         6.98339         5.40464
     2014.23682         5.59533         5.41318
     2014.23956        -0.67572         5.45301
     2014.24230         0.89822         5.33920
     2014.24503        -3.35983         5.35533
     2014.24777         3.40211         5.56871
     2014.25051        -3.77595         5.37619
     2014.25325        -3.79100         5.35817
     2014.25598         1.10394         5.47197
     2014.25872        -2.25811         5.33636
     2014.26146         1.51183         5.58388
     2014.26420        -3.70923         5.35533
     2014.26694        -2.05328         5.37145
     2014.26967        -4.14234         5.38947
     2014.27241        -3.58539         5.48810
     2014.27515        -0.34345         5.53362
     2014.27789        -3.25551         5.38093
     2014.28062         3.45544         5.34869
     2014.28336         1.31238         5.35533
     2014.28610         3.90633         5.43688
     2014.28884        -0.88673         5.52318
     2014.29158        -1.64879         5.38757
     2014.29431        -0.93184         5.39990
     2015.06365         6.24944         5.35533
     2015.06639         4.83038         5.28894
     2015.06913        -1.48568         5.27472
     2015.07186        -3.13673         5.29463
     2015.07460        -1.31179         5.24058
     2015.07734        -5.84084         5.22445
     2015.08008       -10.46190         5.18557
     2015.08282        -0.69096         5.22256
     2015.08555        -0.53401         5.22445
     2015.08829         1.41193         5.24437
     2015.09103        -1.92412         5.16471
     2015.09377         1.48182         5.15902
     2015.09650        -4.02023         5.22825
     2015.09924         4.61971         5.35438
     2015.10198        -1.83035         5.28894
     2015.10472         3.44160         5.24153
     2015.10746         1.00254         5.28136
     2015.11019        -8.41751         5.35912
     2015.11293        -6.13757         5.29653
     2015.11567        -6.96563         5.23014
     2015.11841        -5.51668         5.20644
     2015.12115        -3.29074         5.22825
     2015.12388        -4.57979         5.21971
     2015.12662        -5.55485         5.24437
     2015.12936        -2.66091         5.22256
     2015.13210        -3.18396         5.23204
     2015.13483        -1.66202         5.27756
     2015.13757         0.09193         5.26998
     2015.14031        -2.10513         5.25101
     2015.14305        -0.91519         5.21971
     2015.14579        -1.22324         5.29463
     2015.14852        -2.60230         5.22256
     2015.15126        -2.07335         5.26144
     2015.15400        -8.01441         5.25006
     2015.15674         0.48953         5.23014
     2015.15948         0.63348         5.28610
     2015.16221        -1.94658         5.27187
     2015.16495        -1.96163         5.24532
     2015.16769        -1.97369         5.23299
     2015.17043         1.59925         5.27472
     2015.17316        -0.34680         5.46154
     2015.17590        -1.50986         5.44637
     2015.17864         1.12609         5.28705
     2015.18138         2.53403         5.22066
     2015.18412         3.93097         5.22825
     2015.18685         4.11492         5.27377
     2015.18959        -0.90914         5.28894
     2015.19233        -0.94219         5.42645
     2015.19507         0.09375         5.31455
     2015.19780        -2.89930         5.26713
     2015.20054        -2.15236         5.27756
     2015.20328        -3.93142         5.26998
     2015.20602        -5.04647         5.31834
     2015.20876        -3.89553         5.29463
     2015.21149        -5.79558         5.25196
     2015.21423        -4.81764         5.35059
     2015.21697        -1.25470         5.26713
     2015.21971        -2.41875         5.30601
     2015.22245        -1.73381         5.28705
     2015.22518        -6.08886         5.23014
     2015.22792        -2.49292         5.21592
     2015.23066        -0.96398         5.20075
     2015.23340        -0.80803         5.41981
     2015.23613        -0.40709         5.44637
     2015.23887        -2.79314         5.58767
     2015.24161         2.07380         5.56017
     2015.24435        -1.34326         5.48430
     2015.24709        -0.08231         5.43025
     2015.24982        -3.13637         5.31644
     2015.25256         0.71758         5.28515
     2015.25530        -2.25148         5.27851
     2015.25804        -5.61454         5.23299
     2015.26078         2.18341         5.22920
     2015.26351        -0.94265         5.25575
     2015.26625        -5.43670         5.27092
     2015.26899        -2.47676         5.26334
     2015.27173         2.33918         5.35248
     2015.27446         2.20613         5.37335
     2015.27720        -0.61393         5.23678
     2015.27994        -1.60498         5.29274
     2015.28268         0.00096         5.30222
     2015.28542        -4.72010         5.36576
     2015.28815       -11.15815         5.37524
     2015.29089        -0.93821         5.23773
     2015.29363        -1.44826         5.27756
     2015.29637         3.21668         5.32498
     2015.29911         2.44562         5.33257
     2015.30184         7.03657         5.24816
     2015.30458         5.76651         5.25765
     2015.30732        -3.90554         5.19411
     2015.31006       -10.08160         5.20833
     2015.31279        -3.72465         5.14385
     2015.31553        -1.78871         5.14954
     2015.31827        -6.66277         5.12014
     2015.32101         1.31018         5.15997
     2015.32375         3.72112         5.20359
     2015.32648        -3.48993         5.33067
     2015.32922        -4.48599         5.26808
     2015.33196         2.24495         5.11729
     2015.33470         2.65590         5.19316
     2015.33744        -6.09216         5.14764
     2015.34017        -3.95121         5.20549
     2015.34291        -5.14127         5.19316
     2015.34565         1.75767         5.18747
     2015.34839        -2.94238         5.21118
     2015.35112        -3.73644         5.25575
     2015.35386        -0.02549         5.19316
     2015.35660         1.55545         5.18937
     2015.35934        -2.76861         5.20833
     2015.36208        -2.70666         5.25670
     2015.36481         0.89628         5.17514
     2015.36755        -1.29377         5.16376
     2015.37029        -1.74083         5.17135
     2015.37303        -5.16089         5.17988
     2015.37577        -4.24994         5.19411
     2015.37850        -6.68600         5.38473
     2015.38124        -6.81105         5.23489
     2015.38398        -9.70911         5.20644
     2015.38672        -4.67317         5.27187
     2015.38945        -1.04922         5.28799
     2015.39219        -1.93528         5.20833
     2015.39493        -1.99833         5.27377
     2015.39767        -3.50939         5.23773
     2015.40041        -0.06345         5.24722
     2015.40314         1.25350         5.37714
     2015.40588        -4.82956         5.22445
     2015.40862        -3.28961         5.20644
     2015.41136        -0.31667         5.25765
     2015.41410         5.57728         5.31265
     2015.41683        -0.37578         5.20833
     2015.41957        -2.93084         5.23394
     2015.42231         1.59211         5.22161
     2015.42505         1.07005         5.34774
     2015.42778         3.61000         5.24342
     2015.43052         3.27394         5.22256
     2015.43326         5.91988         5.25196
     2015.43600         5.29883         5.33162
     2015.43874         4.55477         5.27851
     2015.44147        -2.00028         5.46249
     2015.44421         1.39566         5.23489
     2015.44695         0.51760         5.20644
     2015.44969        -1.64745         5.20738
     2015.45243         2.56249         5.34395
     2015.45516        -0.05856         5.26144
     2015.45790        -2.06162         5.35153
     2015.46064         2.26432         5.37998
     2015.46338         5.60627         5.31455
     2015.46611         6.07521         5.19126
     2015.46885         6.67516         5.23204
     2015.47159         3.74010         5.23868
     2015.47433         2.02704         5.32498
     2015.47707         3.78699         5.28705
     2015.47980         6.79093         5.28136
     2015.48254        11.29488         5.28041
     2015.48528         3.59982         5.27851
     2015.48802        -1.92424         5.55069
     2015.49076        -0.00729         5.23868
     2015.49349         2.19065         5.36860
     2015.49623         2.27160         5.38188
     2015.49897        -4.31846         5.38093
     2015.50171         4.78248         5.30886
     2015.50444         9.48943         5.26998
     2015.50718         2.70537         5.28420
     2015.50992         4.00832         5.16471
     2015.51266         3.87226         5.23963
     2015.51540         4.70221         5.36197
     2015.51813         3.98815         5.26903
     2015.52087        11.74409         5.22256
     2015.52361         3.97304         5.28420
     2015.52635         2.37398         5.22825
     2015.52908         0.97193         5.24532
     2015.53182         9.79587         5.25196
     2015.53456         4.20581         5.23583
     2015.53730         5.17076         5.27282
     2015.54004        11.05270         5.32972
     2015.54277         2.90465         5.31455
     2015.54551        14.42759         5.43025
     2015.54825        14.72753         5.33067
     2015.55099         6.98948         5.29843
     2015.55373        11.29842         5.32213
     2015.55646         9.78637         5.34395
     2015.55920         8.61831         5.31455
     2015.56194        10.81125         5.35248
     2015.56468         6.99020         5.34110
     2015.56741         7.58514         5.31834
     2015.57015        10.98209         5.50232
     2015.57289        10.67003         5.52982
     2015.57563         9.33597         5.34869
     2015.57837        10.31892         5.38567
     2015.58110         6.31986         5.41792
     2015.58384        10.89981         5.32782
     2015.58658         9.60575         5.39705
     2015.58932        12.96169         5.38093
     2015.59206         4.15964         5.35248
     2015.59479        10.27958         5.33731
     2015.59753        12.54653         5.39042
     2015.60027         7.38047         5.39516
     2015.60301         6.12441         5.40559
     2015.60574         9.25136         5.31644
     2015.60848         9.34530         5.40085
     2015.61122         6.25225         5.33731
     2015.61396        11.99719         5.30791
     2015.61670         8.21013         5.17514
     2015.61943         9.34408         5.17893
     2015.62217        11.25802         5.21402
     2015.62491        14.37997         5.22445
     2015.62765        13.44291         5.18083
     2015.63039         6.84786         5.19790
     2015.63312         9.11280         5.20264
     2015.63586        14.35874         5.22635
     2015.63860         8.75969         5.24627
     2015.64134         8.27363         5.21402
     2015.64407         1.55858         5.23489
     2015.64681         5.57352         5.27377
     2015.64955         4.83946         5.15143
     2015.65229         8.29141         5.22066
     2015.65503        11.52535         5.25006
     2015.65776         6.43330         5.27092
     2015.66050         6.61524         5.08884
     2015.66324        10.89018         5.17704
     2015.66598        10.08613         5.28799
     2015.66872        11.18507         5.31075
     2015.67145         8.87702         5.19126
     2015.67419         8.17196         5.20169
     2015.67693         8.80090         5.11824
     2015.67967         8.06585         5.12962
     2015.68240         5.79379         5.19031
     2015.68514         6.22974         5.19885
     2015.68788         7.36568         5.20169
     2015.69062        12.88162         5.14385
     2015.69336         5.57557         5.25860
     2015.69609         9.57551         5.17230
     2015.69883        10.30946         5.22161
     2015.70157         9.73040         5.22445
     2015.70431        11.78934         5.16755
     2015.70705         6.16929         5.22445
     2015.70978        10.39923         5.14290
     2015.71252         6.02318         5.13057
     2015.71526         9.59312         5.15807
     2015.71800         6.84106         5.15428
     2015.72073        11.07101         5.12583
     2015.72347        11.22295         5.12867
     2015.72621         6.70190         5.14859
     2015.72895         2.09484         5.17609
     2015.73169         8.98079         5.18462
     2015.73442         6.97073         5.15523
     2015.73716         7.75967         5.13152
     2015.73990        13.00262         5.23489
     2015.74264         9.14656         5.25575
     2015.74538        11.01951         5.44637
     2015.74811         5.80945         5.45680
     2015.75085         6.84939         5.15428
     2015.75359        10.33434         5.12677
     2015.75633         2.68828         5.18368
     2015.75906        12.17623         5.16471
     2015.76180         6.56417         5.15902
     2015.76454         8.17211         5.16281
     2015.76728         6.96806         5.12393
     2015.77002         8.82400         5.16755
     2015.77275        11.74195         5.19790
     2015.77549        13.78389         5.15428
     2015.77823        11.43283         5.16850
     2015.78097        11.37078         5.17988
     2015.78371        14.04472         5.14574
     2015.78644        13.47267         5.20549
     2015.78918         9.86261         5.18083
     2015.79192        11.93655         5.28894
     2015.79466         5.77250         5.23014
     2015.79739         8.94744         5.21592
     2015.80013         7.32639         5.24911
     2015.80287         8.78533         5.15902
     2015.80561        10.48227         5.13626
     2015.80835         7.08722         5.15333
     2015.81108         6.08616         5.19885
     2015.81382         7.89011         5.14479
     2015.81656         8.55605         5.15997
     2015.81930         7.42999         5.17230
     2015.82203         8.89094         5.17609
     2015.82477         8.42188         5.15997
     2015.82751        11.62383         5.16945
     2015.83025        10.63977         5.16186
     2015.83299         6.60872         5.20928
     2015.83572         6.60266         5.22825
     2015.83846         3.57860         5.25196
     2015.84120         4.52655         5.26429
     2015.84394         7.80449         5.24722
     2015.84668         3.44244         5.27472
     2015.84941         7.13738         5.26618
     2015.85215         8.88132         5.31360
     2015.85489         6.46727         5.22256
     2015.85763         5.65721         5.20928
     2015.86036         4.14316         5.24437
     2015.86310         4.60410         5.27187
     2015.86584         9.24704         5.26334
     2015.86858         4.21499         5.25670
     2015.87132         7.78693         5.27282
     2015.87405         8.63788         5.24058
     2015.87679         5.05782         5.26808
     2015.87953         7.54876         5.28799
     2015.88227         9.40571         5.31170
     2015.88501         7.63365         5.29274
     2015.88774         9.10360         5.27187
     2015.89048        12.64054         5.27661
     2015.89322        13.15348         5.26049
     2015.89596         9.88243         5.28420
     2015.89869         9.92237         5.25954
     2015.90143         2.27232         5.24058
     2015.90417         6.99226         5.22161
     2015.90691         4.84120         5.24627
     2015.90965         6.07015         5.25385
     2015.91238         6.44709         5.32024
     2015.91512         2.29504         5.25385
     2015.91786         3.63398         5.26049
     2015.92060        12.03592         5.33257
     2015.92334        15.92587         5.30032
     2015.92607         2.20181         5.23394
     2015.92881         0.98876         5.34869
     2015.93155         1.42670         5.43499
     2015.93429         2.64064         5.42266
     2015.93702        19.14259         5.57914
     2015.93976         3.68753         5.40274
     2015.94250        14.02748         5.35438
     2015.94524        18.17742         5.33636
     2015.94798        17.71537         5.39042
     2015.95071        10.56831         5.21971
     2015.95345         6.71725         5.16281
     2015.95619         4.87320         5.24058
     2015.95893         1.27914         5.42266
     2015.96167         7.72609         5.32782
     2015.96440         9.62003         5.19600
     2015.96714         3.34897         5.21687
     2015.96988         8.47092         5.19221
     2015.97262        12.85486         5.20549
     2015.97535        20.81581         5.14195
     2015.97809        18.94775         5.16471
     2015.98357        12.29764         5.18178
     2015.98631         1.73458         5.20738
     2015.98904         6.37353         5.17514
     2015.99178        -1.99653         5.16566
     2015.99452         1.84641         5.16281
     2015.99726         2.42136         5.17609
     2016.00000         2.07030         5.18747
     2016.00273         5.62625         5.19790
     2016.00547         6.18719         5.25196
     2016.00821         3.50013         5.19316
     2016.01095        12.65508         5.19790
     2016.01368        17.73802         5.29558
     2016.01642        20.80397         5.41792
     2016.01916        -2.01009         5.40085
     2016.02190         3.16085         5.30696
     2016.02464         2.06180         5.26334
     2016.02737         0.42274         5.32403
     2016.03011        -2.88631         5.28136
     2016.03285         2.86263         5.27567
     2016.03559         0.23357         5.27946
     2016.03833         9.72752         5.34395
     2016.04106         1.34646         5.26429
     2016.04380         0.73041         5.18273
     2016.04654        -0.66265         5.17040
     2016.04928         7.39130         5.22825
     2016.05201        -6.09776         5.17893
     2016.05475        -0.13582         5.26049
     2016.05749         4.86513         5.27946
     2016.06023        13.60107         5.22256
     2016.06297         4.66902         5.25291
     2016.06570         9.54796         5.27472
     2016.06844        -8.28710         5.26429
     2016.07118        -5.01415         5.27187
     2016.07392        -5.23221         5.32498
     2016.07666         2.91374         5.41318
     2016.07939         5.03268         5.24342
     2016.08213        -0.49938         5.39800
     2016.08487        -3.66643         5.31929
     2016.08761        -8.98449         5.26334
     2016.09034        -1.50454         5.33351
     2016.09308        -0.32960         5.26998
     2016.09582        -4.92066         5.41981
     2016.09856       -11.01171         5.27092
     2016.10130       -15.47077         5.24153
     2016.10403       -10.88482         5.19980
     2016.10677        -6.15788         5.19506
     2016.10951        -3.51794         5.22920
     2016.11225        -2.83899         5.21687
     2016.11498        -5.94605         5.19885
     2016.11772        -6.78510         5.17609
     2016.12046        -1.75016         5.15712
     2016.12320        -1.85722         5.11445
     2016.12594        -6.67927         5.10876
     2016.12867         6.23567         5.18557
     2016.13141        11.87562         5.16092
     2016.13415         8.74456         5.18842
     2016.13689         4.10850         5.13626
     2016.13963        -1.28155         5.24437
     2016.14236       -10.60661         5.17040
     2016.14510        -5.71066         5.17704
     2016.14784        -3.98972         5.18842
     2016.15058        -0.50077         5.15902
     2016.15331        -0.10783         5.32024
     2016.15605         0.82411         5.16092
     2016.15879        -6.18994         5.23868
     2016.16153        -5.24400         5.23583
     2016.16427         0.37595         5.27472
     2016.16700        -1.85611         5.12772
     2016.16974        -1.41417         5.20169
     2016.17248        -4.57922         5.19316
     2016.17522        -5.39628         5.13246
     2016.17796        -2.63633         5.12108
     2016.18069         8.09161         5.26618
     2016.18343        -3.49445         5.44542
     2016.18617         0.43650         5.18937
     2016.18891         1.22844         5.04806
     2016.19164        -1.12361         5.07082
     2016.19438         9.71533         5.06324
     2016.19712        12.65327         5.09358
     2016.19986         3.56022         5.27092
     2016.20260       -10.32884         5.26713
     2016.20533        -8.54989         5.43404
     2016.20807        -2.04795         5.38662
     2016.21081        -7.46001         5.21687
     2016.21355       -10.57306         5.28610
     2016.21629        -5.77312         5.21497
     2016.21902        -1.65817         5.09169
     2016.22176        -0.62323         5.04237
     2016.22450        -8.08229         5.01771
     2016.22724       -11.96134         5.03478
     2016.22997        -1.53240         5.02909
     2016.23271        -4.24145         5.06893
     2016.23545        -4.37651         5.14859
     2016.23819        -3.89457         5.11634
     2016.24093        -2.01562         5.23299
     2016.24366        -3.93968         5.15617
     2016.24640        -3.32173         5.16376
     2016.24914        -4.91979         5.15902
     2016.25188        -6.64685         5.16850
     2016.25462        -7.72590         5.07177
     2016.25735        -4.32896         5.08031
     2016.26009        -7.11301         5.07556
     2016.26283        -7.99607         5.03099
     2016.26557        -2.26112         5.08031
     2016.26830        -3.48118         5.04711
     2016.27104        -6.17524         5.05375
     2016.27378        -2.01429         5.06893
     2016.27652        -7.15335         5.04806
     2016.27926        -6.85240         5.09927
     2016.28199        -9.37346         5.05470
     2016.28473         0.35548         5.13721
     2016.28747        -7.77657         5.04996
     2016.29021       -10.12063         5.02056
     2016.29295        -5.15568         5.04427
     2016.29568        -6.71874         5.06039
     2016.29842        -1.20180         5.19411
     2016.30116        -2.41885         5.16186
     2016.30390       -11.06091         5.05091
     2016.30663        -5.16096         5.06608
     2016.30937        -6.11402         5.03478
     2016.31211        -1.98008         5.10686
     2016.31485        -3.72313         5.04711
     2016.31759        -2.60019         5.08220
     2016.32032        -8.64324         5.13815
     2016.32306       -12.85630         5.06229
     2016.32580        -5.58436         5.05660
     2016.32854        -0.33741         5.05186
     2016.33128         1.77253         5.06229
     2016.33401        -1.21152         5.18368
     2016.33675        -5.80758         5.17324
     2016.33949        -4.48464         5.11445
     2016.34223         0.48831         5.16755
     2016.34496        -5.95575         5.28799
     2016.34770        -2.24380         5.21876
     2016.35044         0.39714         5.23299
     2016.35318        -5.01592         4.98926
     2016.35592        -6.60097         4.99116
     2016.35865       -11.03203         5.07177
     2016.36139        -4.46908         5.09358
     2016.36413        -0.97614         5.17893
     2016.36687        -4.73919         5.07462
     2016.36961         2.11775         4.99590
     2016.37234         2.29769         5.08694
     2016.37508         2.39864         5.12393
     2016.37782        -8.51142         5.06893
     2016.38056        -1.74947         5.16661
     2016.38329        -1.75853         5.09453
     2016.38603        -4.50359         5.04142
     2016.38877         0.73136         5.04711
     2016.39151        -5.27070         5.05470
     2016.39425        -5.28475         5.07556
     2016.39698         2.53619         5.09643
     2016.39972         0.18413         5.08220
     2016.40246        -7.43692         5.13815
     2016.40520        -2.32098         5.05375
     2016.40794        -5.62503         5.12014
     2016.41067        -7.21209         5.07841
     2016.41341        -4.55415         5.05565
     2016.41615        -2.78620         5.07556
     2016.41889        -4.10026         5.04522
     2016.42162        -1.99331         5.09927
     2016.42436        -8.12037         5.10022
     2016.42710        -6.96543         5.07462
     2016.42984        -2.48248         5.06703
     2016.43258         2.03246         5.10212
     2016.43531         1.12941         5.07177
     2016.43805        -4.16965         5.12393
     2016.44079        -6.05971         5.08410
     2016.44353        -4.47976         5.04427
     2016.44626         2.23218         5.05849
     2016.44900        -0.34187         5.09738
     2016.45174         0.69007         5.09169
     2016.45448        -1.43399         5.08505
     2016.45722        -1.04304         5.04711
     2016.45995        -1.12210         5.18368
     2016.46269        -0.02315         5.06703
     2016.46543        -2.34821         5.07556
     2016.46817         3.28274         5.04522
     2016.47091         2.13868         5.02056
     2016.47364        -0.81438         5.03478
     2016.47638         3.29557         5.07651
     2016.47912         3.80651         5.16092
     2016.48186         1.23246         5.06513
     2016.48459         0.37540         5.04332
     2016.48733        -0.17566         5.00633
     2016.49007         1.85529         5.01487
     2016.49281         7.23823         5.05186
     2016.49555         1.00418         5.06893
     2016.49828         5.79312         5.06987
     2016.50102        -0.83294         5.00254
     2016.50376         0.89701         5.15902
     2016.50650        -0.69305         5.15807
     2016.50924         4.34790         5.08031
     2016.51197         0.52184         5.05186
     2016.51471        -0.71522         5.04522
     2016.51745         1.90173         5.12867
     2016.52019        -5.88533         5.14100
     2016.52292        -3.41538         5.05091
     2016.52566         1.13056         5.05565
     2016.52840        -1.05350         5.08789
     2016.53114         0.03445         5.03858
     2016.53388        -1.50061         5.01297
     2016.53661         0.51034         5.04996
     2016.53935         2.63528         5.06418
     2016.54209         4.33922         5.05186
     2016.54483         4.92517         5.06134
     2016.54757        -5.48489         5.07177
     2016.55030        -1.77594         5.12488
     2016.55304         1.49900         5.03763
     2016.55578         4.80694         5.21687
     2016.55852         2.29989         5.04427
     2016.56125         2.41083         5.03953
     2016.56399         2.96678         5.00539
     2016.56673         1.29472         5.14954
     2016.56947         2.80466         5.21971
     2016.57221         7.07061         5.06134
     2016.57494         5.71655         5.21402
     2016.57768         5.83350         5.05755
     2016.58042        -3.31856         5.00349
     2016.58316         1.57839         5.05755
     2016.58590         1.20833         5.04427
     2016.58863         6.05027         5.07556
     2016.59137         3.20822         5.11065
     2016.59411         4.79416         5.05565
     2016.59685         2.60811         5.04996
     2016.59958         3.66505         5.12108
     2016.60232         3.89499         5.05186
     2016.60506         8.24394         5.08220
     2016.60780         1.75788         5.03953
     2016.61054        -0.65817         5.03004
     2016.61327        -3.25423         5.06703
     2016.61601         3.78571         5.03763
     2016.61875         3.59666         5.05755
     2016.62149         1.23560         5.02909
     2016.62423         4.65055         5.19126
     2016.62696         6.22449         5.03953
     2016.62970         4.47243         5.19031
     2016.63244         8.44838         5.17893
     2016.63518         9.88832         5.15997
     2016.63791        10.22427         5.08789
     2016.64065         8.01621         5.00064
     2016.64339         2.76515         5.02720
     2016.64613         8.42110         5.03573
     2016.64887         3.83604         5.06229
     2016.65160         6.15899         5.20454
     2016.65434         0.98293         5.10307
     2016.65708         1.02487         5.01202
     2016.65982         3.91682         5.06987
     2016.66256         1.34976         5.20454
     2016.66529         5.95071         5.06608
     2016.66803         9.04965         5.11445
     2016.67077         6.61759         5.21782
     2016.67351         8.00354         5.05944
     2016.67624         7.26948         5.04617
     2016.67898         6.28843         5.09074
     2016.68172         9.46837         5.09074
     2016.68446         7.08932         5.31550
     2016.68720         5.00426         5.39042
     2016.68993        10.04820         5.16281
     2016.69267         6.10715         5.07841
     2016.69541         3.75609         5.03953
     2016.69815        14.74304         5.09738
     2016.70089         8.46598         5.04332
     2016.70362         7.65792         5.18083
     2016.70636         5.50487         5.34774
     2016.70910         2.45881         5.34300
     2016.71184         8.02076         5.07746
     2016.71457        12.12970         5.09548
     2016.71731        14.40964         5.04237
     2016.72005         5.43759         5.06893
     2016.72279         8.27053         5.07746
     2016.72553         4.89648         5.17419
     2016.72826        11.86442         5.19031
     2016.73100         8.76036         5.13815
     2016.73374         7.11531         5.15807
     2016.73648         7.76525         5.07367
     2016.73921         7.06220         5.14669
     2016.74195         8.91614         5.09832
     2016.74469         5.19408         5.10591
     2016.74743         3.55403         5.11065
     2016.75017         5.70797         5.12014
     2016.75290         6.10992         5.16661
     2016.75564         9.33586         5.16092
     2016.75838        11.64980         5.11729
     2016.76112         7.41775         5.08031
     2016.76386         7.66969         5.05186
     2016.76659         4.41864         5.12677
     2016.76933        11.37058         5.10022
     2016.77207         9.10352         5.10591
     2016.77481        12.33547         5.06324
     2016.77754         6.20241         5.04711
     2016.78028         6.97036         5.11160
     2016.78302         6.02130         5.16092
     2016.78576         5.58125         5.13341
     2016.78850         6.57119         5.12962
     2016.79123         6.78313         5.13436
     2016.79397        10.38008         5.09548
     2016.79671         4.47902         5.16850
     2016.79945         1.10697         5.15523
     2016.80219         8.82291         5.11445
     2016.80492         9.03985         5.08884
     2016.80766         8.94680         5.10496
     2016.81040         4.20174         5.09263
     2016.81314         3.16869         5.14385
     2016.81587         0.10863         5.16755
     2016.81861         1.95557         5.12203
     2016.82135         2.92952         5.20644
     2016.82409         4.24746         5.12962
     2016.82683         5.58541         5.22351
     2016.82956         3.57835         5.17514
     2016.83230         4.55829         5.14669
     2016.83504         4.67424         5.10212
     2016.83778         6.91418         5.08694
     2016.84052        -1.45587         5.11065
     2016.84325         1.72507         5.10496
     2016.84599         1.70001         5.12203
     2016.84873         7.40196         5.19980
     2016.85147         1.72990         5.10022
     2016.85420         2.45885         5.06608
     2016.85694         5.13379         5.12014
     2016.85968         4.30873         5.20928
     2016.86242        10.95668         5.14195
     2016.86516        13.77262         5.21876
     2016.86789         6.89957         5.08505
     2016.87063         2.14451         5.08979
     2016.87337         2.68345         5.19600
     2016.87611         2.20940         5.10307
     2016.87885         2.61634         5.10686
     2016.88158         0.52329         5.10496
     2016.88432        -1.94977         5.14195
     2016.88706         7.89617         5.16092
     2016.88980         0.34812         5.15238
     2016.89253         1.00606         5.09927
     2016.89527         1.04601         5.05660
     2016.89801        -1.83305         5.08315
     2016.90075        -1.28810         5.09358
     2016.90349         4.22384         5.26144
     2016.90622        14.28178         5.24437
     2016.90896         8.22273         5.04048
     2016.91170        -2.59433         5.04617
     2016.91444         0.46062         5.04996
     2016.91718        -1.63644         5.23773
     2016.91991        -5.31550         5.30601
     2016.92265        -2.71255         5.12677
     2016.92539        -2.76061         5.01866
     2016.92813        -2.60266         5.03478
     2016.93086        -2.51672         5.03194
     2016.93360        -0.68378         5.13910
     2016.93634         0.88317         5.15997
     2016.93908        -3.33989         5.18273
     2016.94182        -3.61394         5.07462
     2016.94455        -2.52100         5.04901
     2016.94729        -3.03406         5.11160
     2016.95003        -2.72811         5.21971
     2016.95277        -2.42317         5.17609
     2016.95551        -1.90322         5.06324
     2016.95824        -0.45028         5.05375
     2016.96098        -2.18634         5.05944
     2016.96372        -5.03539         5.05755
     2016.96646        -2.44045         5.07367
     2016.96919        -3.48350         5.03478
     2016.97193        -5.09056         5.00823
     2016.97467         0.20438         5.02625
     2016.97741         2.83933         5.06987
     2016.98015        -1.02473         5.04806
     2016.98288        -1.31778         5.05091
     2016.98562        -3.50084         5.04901
     2016.98836        -2.60390         5.00159
     2016.99110         1.22305         5.04901
     2016.99384        -0.54101         5.05280
     2016.99657        -0.22606         5.05280
     2016.99931        -5.90012         5.07367
     2017.00205        -2.13317         5.04996
     2017.00479        -1.25323         5.03384
     2017.00752        -0.57029         5.03478
     2017.01026         0.89166         5.10401
     2017.01300        11.09460         5.04617
     2017.01574        -3.77145         5.03858
     2017.01848         2.16649         5.07936
     2017.02121        -1.66757         5.07556
     2017.02395        -0.15162         5.09453
     2017.02669         4.83632         5.22161
     2017.02943        12.51027         5.10686
     2017.03216         5.44421         5.05470
     2017.03490        -5.88285         5.13721
     2017.03764        -7.84990         5.09358
     2017.04038        -7.67796         5.10781
     2017.04312       -11.44901         5.09927
     2017.04585        -4.67707         5.19885
     2017.04859        -1.87413         5.20169
     2017.05133         8.74582         5.16850
     2017.05407        16.72676         5.29463
     2017.05681        15.55371         5.15712
     2017.05954         6.54665         5.19221
     2017.06228         6.68759         5.03004
     2017.06502         3.48054         5.08505
     2017.06776       -10.48052         5.11255
     2017.07049       -10.23957         5.08125
     2017.07323       -12.46863         5.10022
     2017.07597       -17.52769         5.08125
     2017.07871       -12.08974         4.99590
     2017.08145       -10.95980         5.08979
     2017.08418       -12.10485         5.12393
     2017.08692        -7.77991         5.13152
     2017.08966        -8.40297         5.04996
     2017.09240        -7.23102         5.06324
     2017.09514        -2.03008         5.13531
     2017.09787        -4.48113         5.19031
     2017.10061         4.41481         5.14195
     2017.10335       -10.12725         5.31644
     2017.10609       -13.18630         5.09453
     2017.10882        -9.64236         5.09358
     2017.11156        -9.85541         5.09169
     2017.11430       -17.22047         5.07272
     2017.11704       -19.54352         5.04617
     2017.11978       -16.90758         5.11539
     2017.12251       -14.96164         5.10212
     2017.12525       -16.30169         5.10876
     2017.12799       -15.62275         5.26998
     2017.13073         0.42420         5.07367
     2017.13347        -0.25386         5.04806
     2017.13620        -1.37792         5.12867
     2017.13894       -13.15097         5.17704
     2017.14168        -7.19403         5.16850
     2017.14442        -0.82808         5.05375
     2017.14715       -16.42714         5.08125
     2017.14989       -13.20020         5.02435
     2017.15263        -8.79325         5.01677
     2017.15537       -11.26131         5.08315
     2017.15811        -4.30436         5.19506
     2017.16084        -9.64642         5.08694
     2017.16358       -13.60948         5.06987
     2017.16632       -12.78453         5.07082
     2017.16906       -15.27959         5.05944
     2017.17180        -7.96864         5.14385
     2017.17453        -7.36470         5.05660
     2017.17727        -6.23276         5.17135
     2017.18001        -5.36381         5.15048
     2017.18275         4.42513         5.22161
     2017.18548       -20.26892         4.99211
     2017.18822       -20.27198         4.99685
     2017.19096       -15.84004         5.08410
     2017.19370       -10.15009         4.98263
     2017.19644       -10.57315         5.01487
     2017.19917        -7.04320         5.04996
     2017.20191       -17.65326         5.11445
     2017.20465       -13.57832         5.19031
     2017.20739       -13.53437         5.04142
     2017.21013       -14.24543         5.17419
     2017.21286       -11.62248         5.12014
     2017.21560       -11.23254         5.12108
     2017.21834        -0.50259         5.20928
     2017.22108       -10.01465         5.05375
     2017.22381       -11.05171         5.17135
     2017.22655       -14.05576         5.18747
     2017.22929       -11.93382         5.03763
     2017.23203       -11.99087         5.06608
     2017.23477       -10.14893         5.08884
     2017.23750       -10.04999         5.06134
     2017.24024       -13.36904         5.10117
     2017.24298       -11.88110         5.09548
     2017.24572       -10.62715         5.14479
     2017.24846       -18.94021         5.04427
     2017.25119       -13.40927         5.07556
     2017.25393       -13.92532         5.05849
     2017.25667       -11.65838         5.25480
     2017.25941        -7.23443         5.11539
     2017.26214        -8.07249         5.19600
     2017.26488        -2.90955         5.20359
     2017.26762        -0.87860         5.06039
     2017.27036       -11.49066         5.09263
     2017.27310       -12.74571         5.11445
     2017.27583       -13.98477         5.22161
     2017.27857       -12.40483         5.12108
     2017.28131       -10.65888         5.08505
     2017.28405       -17.10894         5.04617
     2017.28679       -11.16999         5.05186
     2017.28952       -10.22905         5.12962
     2017.29226        -6.14911         5.12867
     2017.29500       -12.89416         5.10591
     2017.29774       -12.77822         5.05280
     2017.30047        -7.36127         5.05849
     2017.30321        -9.28333         5.09263
     2017.30595        -6.27739         5.15997
     2017.30869       -13.95044         5.10876
     2017.31143        -9.90950         5.03384
     2017.31416       -14.57055         5.09832
     2017.31690       -18.83461         5.13057
     2017.31964       -16.76766         5.15143
     2017.32238       -14.60972         5.12488
     2017.32512       -16.24778         5.05470
     2017.32785       -13.52183         5.08220
     2017.33059       -11.03089         5.16186
     2017.33333        -6.02594         5.10876
     2017.33607        -7.21900         5.10117
     2017.33880       -10.21906         5.19695
     2017.34154        -4.96811         5.15617
     2017.34428       -10.53517         5.01961
     2017.34702        -5.65622         4.99780
     2017.34976        -8.23828         4.99970
     2017.35249        -7.98734         5.00444
     2017.35523        -9.00139         4.99875
     2017.35797        -9.93745         4.97883
     2017.36071        -7.17650         4.98073
     2017.36344       -11.71056         5.03289
     2017.36618       -13.95062         5.00728
     2017.36892        -4.27367         5.04332
     2017.37166        -9.17673         4.99116
     2017.37440        -5.47178         5.00918
     2017.37713        -6.17884         5.08694
     2017.38261        -6.87495         5.04901
     2017.44010        -5.03913         5.01392
     2017.48391        -2.52602         5.08694
     2017.48660        -4.73308         5.09453
     2017.55783         1.09247         5.16755
     2017.58521        -0.85409         5.08125
     2017.59616        -0.78232         5.08031
     2017.60985         1.36540         5.25291
     2017.61259        -0.08965         5.07651
     2017.77960         0.91594         5.23299
     2017.80150        10.88449         5.21307
     2017.80424         2.79943         5.14290
     2017.80698        -0.19762         5.15523
     2017.80971         2.75232         5.12014
     2017.84531        -2.80441         5.10117
     2017.84804        -4.53046         5.12014
     2017.85078        -2.95452         5.10781
     2017.85352        -0.30657         5.13626
     2017.85626         2.54137         5.28610
     2017.86173        -1.59674         5.19600
     2017.86447         0.61620         5.14005
     2017.86995        -4.44191         5.10117
     2017.87269        -3.84397         5.11634
     2017.87542         5.52898         5.13246
     2017.87816        14.47192         5.15523
     2017.88090         4.51087         5.10970
     2017.88364         0.21981         5.06418
     2017.88637        -0.50925         5.12108
     2017.88911        -0.38130         5.13436
     2017.91649        -0.59086         5.12393
     2017.91923         1.41208         5.11729
     2017.92197         4.21203         5.11065
     2017.92470         1.45897         5.09169
     2017.92744        -4.59909         5.10781
     2017.97672        -1.86609         5.11729
     2017.97946        -1.99515         5.13531
     2017.98220        -3.59020         5.11065
     2017.98494        -4.23926         5.05849
     2017.98767        -7.87232         5.10307
     2017.99041        -5.92237         5.09832
     2017.99315        -2.01043         5.12014
     2017.99589        -4.06548         5.09643
     2017.99863         1.15146         5.11729
     2018.00136        -4.43360         5.08694
     2018.00410        -7.06765         5.09548
     2018.00684        -1.48971         5.16755
     2018.00958        -3.13076         5.12962
     2018.01505        -2.08488         5.11445
     2018.02053        -4.32199         5.13152
     2018.02600        -1.86010         5.12108
     2018.02874        -5.52616         5.15428
     2018.03148        -5.93121         5.09453
     2018.03696        -7.89032         5.10496
     2018.03969        -5.23538         5.15807
     2018.04243        -5.25444         5.13721
     2018.04517        -8.06649         5.13246
     2018.04791        -4.61955         5.12677
     2018.05065        -0.21860         5.12867
     2018.05338        -3.30266         5.10212
     2018.05612        -7.12072         5.09074
     2018.05886        -4.98577         5.10781
     2018.06160        -4.14883         5.08125
     2018.06433        -1.79988         5.26808
     2018.06707         2.47206         5.28515
     2018.06981        -2.01899         5.25670
     2018.07255        -7.43205         5.24058
     2018.07529       -13.37011         5.21782
     2018.07802       -10.68616         5.26429
     2018.08076       -12.34722         5.27756
     2018.08350        -5.05327         5.30032
     2018.08624        -3.84533         5.25006
     2018.08898        -6.79939         5.21782
     2018.09171        -7.74344         5.21592
     2018.09445        -6.94850         5.23394
     2018.09719         1.68545         5.37904
     2018.09993        -2.38961         5.19031
     2018.10266        -7.04367         5.20264
     2018.10540       -10.01072         5.31834
     2018.10814        -2.89978         5.24247
     2018.11088        -5.85583         5.26049
     2018.11362        -2.47889         5.25670
     2018.11635        -6.10895         5.23299
     2018.11909        -7.47700         5.32119
     2018.12183        -5.97806         5.35438
     2018.12457        -5.70611         5.23868
     2018.12731        -8.08017         5.20928
     2018.13004        -4.36423         5.14479
     2018.13278         4.59072         5.26998
     2018.13552        11.36466         5.24058
     2018.13826         1.11261         5.22161
     2018.14099        -5.53045         5.19885
     2018.14373        -4.99151         5.13626
     2018.14647        -0.98156         5.37050
     2018.14921        -4.69062         5.32403
     2018.15195        -8.03467         5.21782
     2018.15468         1.01927         5.22920
     2018.15742        -6.15979         5.12014
     2018.16016        -9.31984         5.14669
     2018.16290        -5.47990         5.25385
     2018.16564         6.24005         5.32213
     2018.16837         3.87499         5.23204
     2018.17111         6.00494         5.19316
     2018.17385        -6.59112         5.26618
     2018.17659        -6.15418         5.25101
     2018.17932        -6.24823         5.17799
     2018.18206        -0.42329         5.26998
     2018.18480        -1.05034         5.33446
     2018.18754        -3.79240         5.11919
     2018.19028        -8.08146         5.10591
     2018.19301        -5.71451         5.14195
     2018.19575        -1.11557         5.23868
     2018.19849         0.04738         5.19126
     2018.20123        -1.29468         5.23394
     2018.20397         0.84226         5.14005
     2018.20670        -4.65879         5.12867
     2018.20944        -7.34785         5.14669
     2018.21218        -6.62690         5.17609
     2018.21492       -12.84696         5.20264
     2018.21765        -0.06902         5.07651
     2018.22039        -5.27107         5.18273
     2018.22313        -4.57413         5.04048
     2018.22587        -8.72118         5.09738
     2018.22861       -10.46724         5.14669
     2018.23134       -12.70330         5.04806
     2018.23408       -12.70235         5.12014
     2018.23682        -7.10941         5.08125
     2018.23956        -4.37546         5.05755
     2018.24230        -7.99652         5.03858
     2018.24503        -5.73958         5.02909
     2018.24777        -6.34863         4.97599
     2018.25051        -3.31269         5.08410
     2018.25325        -5.20074         5.01582
     2018.25598        -4.38580         5.03858
     2018.25872        -8.09286         5.16471
     2018.26146        -8.36491         5.19221
     2018.26420        -7.91797         5.24532
     2018.26694        -5.56002         5.01108
     2018.26967        -6.77108         5.07936
     2018.27241        -4.11413         5.07841
     2018.27515        -1.08819         5.01392
     2018.27789         0.60375         5.11634
     2018.28062        -7.78530         5.16566
     2018.28336        -9.65236         5.00728
     2018.28610        -3.25141         5.03384
     2018.28884         0.44353         5.01108
     2018.29158        -0.34353         5.11919
     2018.29431        -3.96858         5.07082
     2018.29705        -2.56364         4.96461
     2018.29979        -5.05569         4.98832
     2018.30253        -4.27475         4.99780
     2018.30527        -3.01781         4.97694
     2018.30800        -2.55586         4.95133
     2018.31074        -1.54692         4.97978
     2018.31348        -0.69297         4.98263
     2018.31622        -5.80003         5.01202
     2018.31895         3.13591         5.16945
     2018.32169        -8.41414         4.96081
     2018.32443        -4.46520         4.95797
     2018.32717        -5.15125         4.98168
     2018.32991        -0.91231         5.30412
     2018.33264        -4.14737         5.02720
     2018.33538        -6.03342         5.11255
     2018.33812        -3.26348         5.16471
     2018.34086        -2.09453         4.97030
     2018.34360        -3.15659         4.99401
     2018.34633        -0.65765         4.98263
     2018.34907        -2.80070         4.99021
     2018.35181         1.90724         4.96840
     2018.35455        -2.42281         4.95418
     2018.35728         5.75713         5.01487
     2018.36002         3.80507         4.97788
     2018.36276        -1.12698         5.07556
     2018.36550         3.14396         5.01013
     2018.36824        -0.36409         5.02151
     2018.37097        -3.24115         5.04901
     2018.37371         0.26679         4.99211
     2018.37645        -5.13426         5.15902
     2018.37919        -0.57032         4.99970
     2018.38193         1.56663         5.01771
     2018.38466         1.83957         4.95228
     2018.38740         3.50552         5.02530
     2018.39014        11.16546         5.13341
     2018.39288         5.73840         5.02815
     2018.39561        -2.36465         5.02340
     2018.39835         1.26229         5.02246
     2018.40109        -1.06776         4.94280
     2018.40383         3.53418         4.98168
     2018.40657         3.86212         5.09832
     2018.40930         6.79107         5.11824
     2018.41204         7.45801         4.98642
     2018.41478        -1.69204         4.99116
     2018.41752         0.93290         5.01771
     2018.42026        -1.77116         5.03099
     2018.42299         2.99479         5.03573
     2018.42573         1.99473         5.05375
     2018.42847         1.07168         5.01487
     2018.43121        -0.31638         5.01487
     2018.43394         0.07956         5.03289
     2018.43668        -1.51949         5.03289
     2018.43942        -3.60055         5.03573
     2018.44216        -2.05860         5.06418
     2018.44490         0.81034         5.04427
     2018.44763        -1.65972         5.04332
     2018.45037         3.47123         5.10970
     2018.45311         0.95717         4.99401
     2018.45585         1.28012         4.99780
     2018.45859         5.11106         5.06987
     2018.46132        -4.89400         4.99590
     2018.46406         2.06995         5.01392
     2018.46680        -0.34911         5.01771
     2018.46954        -1.17016         5.02530
     2018.47227        -0.67022         5.08979
     2018.47501         5.00072         5.01013
     2018.47775         1.61367         4.99401
     2018.48049        -0.70339         5.00444
     2018.48323         1.80056         5.00349
     2018.48596        -5.63250         5.01013
     2018.48870        -2.76455         5.03763
     2018.49144        -0.45261         4.96556
     2018.49418         1.20233         5.01961
     2018.49692         4.62228         5.08600
     2018.49965         3.93222         5.03668
     2018.50239         1.53017         5.03099
     2018.50513        -0.14189         5.00728
     2018.50787        -1.85195         4.99685
     2018.51060        -3.82100         5.03763
     2018.51334         1.21094         5.07367
     2018.51608        -0.00111         5.07367
     2018.51882        -1.34317         5.02056
     2018.52156         5.31377         5.07936
     2018.52429         1.18372         4.96176
     2018.52703         6.61966         5.00823
     2018.52977        -3.77839         5.03763
     2018.53251        -0.15345         4.98357
     2018.53525         3.54449         5.12014
     2018.53798         6.43844         5.03953
     2018.54072         7.66038         5.02056
     2018.54346         4.23033         5.00728
     2018.54620         3.14627         5.01771
     2018.54893         5.63021         4.98926
     2018.55167        -7.68984         4.99306
     2018.55441        -0.94790         4.98263
     2018.55715         6.06105         5.13341
     2018.55989         1.63899         5.13152
     2018.56262         2.34693         4.99211
     2018.56536         2.79588         5.00633
     2018.56810         0.07982         4.96461
     2018.57084         0.35577         4.99685
     2018.57357         2.93271         5.12298
     2018.57631         2.41265         5.24722
     2018.57905         0.37060         5.20833
     2018.58179         2.74554         5.09453
     2018.58453         3.92849         5.11160
     2018.58726         0.10843         4.99875
     2018.59000         2.04238         5.00918
     2018.59274         4.69432         4.97599
     2018.59548         3.66426         5.06418
     2018.59822         0.92821         4.98737
     2018.60095         3.08915         4.99021
     2018.60369         4.52810         4.99685
     2018.60643         5.30404         4.99780
     2018.60917         7.18898         5.03478
     2018.61190         5.21493         4.97409
     2018.61464         4.09787         4.98926
     2018.61738         0.21282         4.99780
     2018.62012         4.30376         4.98168
     2018.62286         7.50870         5.11445
     2018.62559         5.06265         5.07367
     2018.62833         1.37359         4.99116
     2018.63107         1.82154         4.97599
     2018.63381         5.40248         5.07367
     2018.63655         5.74942         4.99306
     2018.63928         7.61437         5.22635
     2018.64202         2.57731         5.18842
     2018.64476         3.24826         4.99401
     2018.64750        -1.26480         4.99875
     2018.65023         4.62714         5.07272
     2018.65297         6.28509         5.05375
     2018.65571         1.83703         5.07556
     2018.65845         2.42698         5.04332
     2018.66119         2.17292         5.03289
     2018.66392         5.77086         5.30317
     2018.66666         5.24981         5.03668
     2018.66940         1.62975         5.06039
     2018.67214         1.98670         5.06229
     2018.67488         4.09664         5.05091
     2018.67761         2.79858         5.08505
     2018.68035         0.49753         5.18937
     2018.68309        -0.73953         5.09263
     2018.68583         4.14042         5.02909
     2018.68856         1.63036         5.07082
     2018.69130         1.98630         5.08031
     2018.69404        -2.91275         5.19126
     2018.69678         1.49519         5.08125
     2018.69952        -2.08686         5.00444
     2018.70225        -2.99892         5.22635
     2018.70499        -1.65297         5.06987
     2018.70773        -2.74903         5.04901
     2018.71047        -1.88009         5.06324
     2018.71321        -0.76514         5.04048
     2018.71594         0.02480         5.08884
     2018.71868        -2.49725         5.09263
     2018.72142        -3.99031         5.07746
     2018.72416        -0.31437         5.09548
     2018.72689         1.74458         5.10876
     2018.72963        -1.34548         5.06229
     2018.73237        -0.42453         5.08220
     2018.73511        -2.30959         5.08600
     2018.73785         2.56135         5.07462
     2018.74058        -2.96770         5.05660
     2018.74332         3.39924         5.08410
     2018.74606        -1.60981         5.06134
     2018.74880        -1.84787         5.10876
     2018.75154        -7.86193         5.11634
     2018.75427         1.70502         5.10686
     2018.75701        -4.81704         5.11255
     2018.75975        -1.12009         5.02056
     2018.76249         2.21385         5.10117
     2018.76522         2.94879         5.16850
     2018.76796        -3.85426         5.09453
     2018.77070         3.06168         5.02720
     2018.77344         2.76763         5.06324
     2018.77618         2.17057         5.03384
     2018.77891         9.56751         5.08979
     2018.78165         1.52046         5.20928
     2018.78439         3.18940         5.04522
     2018.78713         1.29835         5.01487
     2018.78987        -4.38571         5.13721
     2018.79260        -0.99277         5.05375
     2018.79534         5.30718         5.03573
     2018.79808        -1.63488         5.03668
     2018.80082         2.36407         5.05470
     2018.80355         4.28201         5.03668
     2018.80629         0.69896         5.19316
     2018.80903         0.75290         5.08694
     2018.81177         1.47684         5.28136
     2018.81451         1.13179         5.07746
     2018.81724        -1.55127         5.07841
     2018.81998         0.22468         5.05660
     2018.82272        -1.46238         5.07367
     2018.82546         0.10856         5.03858
     2018.82820         2.96451         5.05565
     2018.83093        -1.44655         5.11160
     2018.83367        -1.10560         5.06798
     2018.83641         1.07334         5.08410
     2018.83915         5.67028         5.11350
     2018.84188        -1.76477         5.07272
     2018.84462         7.14917         5.08505
     2018.84736         1.73312         5.11539
     2018.85010         1.91306         5.08410
     2018.85284        -2.38500         5.04048
     2018.85557        -2.37905         5.08315
     2018.85831        -2.75311         5.09263
     2018.86105         2.93584         5.08600
     2018.86379         1.78978         5.15807
     2018.86653         0.53472         5.07841
     2018.86926        -5.26433         5.06893
     2018.87200        -1.97339         5.05944
     2018.87474         2.57356         5.13152
     2018.87748         1.56650         5.14669
     2018.88021         0.28144         5.12393
     2018.88295         1.11839         5.11445
     2018.88569        -0.24867         5.11539
     2018.88843         7.94028         5.16376
     2018.89117         7.53322         5.23773
     2018.89390         1.05216         5.23963
     2018.89664        -5.48489         5.29084
     2018.89938         0.21405         5.16281
     2018.90212         1.70800         5.14100
     2018.90485         3.16494         5.17230
     2018.90759         1.35289         5.21023
     2018.91033         1.77283         5.20169
     2018.91307        -0.49223         5.27282
     2018.91581         5.30272         5.16755
     2018.91854         8.29666         5.18937
     2018.92128         3.93061         5.20738
     2018.92402         5.31855         5.22066
     2018.92676         3.51749         5.18462
     2018.92950         5.89544         5.07651
     2018.93223         0.35138         5.21971
     2018.93497        -2.70467         5.10876
     2018.93771        -0.68873         5.18842
     2018.94045        -0.89079         5.16471
     2018.94318        -4.62384         5.04806
     2018.94592         1.94910         5.09074
     2018.94866        -2.47195         5.03289
     2018.95140        -0.72101         5.32213
     2018.95414         7.09193         5.06798
     2018.95687         0.07388         5.08031
     2018.95961        -1.17818         5.10022
     2018.96235         4.46577         5.05280
     2018.96509        -1.16529         5.04048
     2018.96783        -1.55435         5.07367
     2018.97056        -1.93540         5.13246
     2018.97330        -2.47546         5.14005
     2018.97604        -6.86351         5.11824
     2018.97878        -3.83757         5.08694
     2018.98151        -2.29563         5.06987
     2018.98425        -2.55168         5.21307
     2018.98699        -7.19274         5.23963
     2018.98973        -3.01279         5.20169
     2018.99247        -3.87585         5.11160
     2018.99520        -4.81591         5.09927
     2018.99794        -7.84196         5.09643
     2019.00068        -7.75902         5.21023
     2019.00342        -6.87207         5.22066
     2019.00616        -7.29413         5.08979
     2019.00889        -3.84219         5.01771
     2019.01163        -2.83524         5.13341
     2019.01437         6.04170         5.14859
     2019.01711         7.72265         5.14764
     2019.01984        -8.38241         5.10022
     2019.02258        -3.46646         5.15902
     2019.02532        -6.71852         5.24437
     2019.02806        -5.89158         5.23773
     2019.03080        -8.80563         5.23963
     2019.03353        -9.03769         5.12583
     2019.03627       -11.33674         5.13815
     2019.03901        -1.10080         5.16281
     2019.04175         4.14214         5.18083
     2019.04449        -1.64191         5.19980
     2019.04722        -0.85797         5.32688
     2019.04996       -16.36202         5.25860
     2019.05270        -7.32108         5.35628
     2019.05544        -3.80814         5.22635
     2019.05817       -13.35119         5.33446
     2019.06091        -2.34725         5.21876
     2019.06365        -5.81230         5.18368
     2019.06639        -3.35036         5.17704
     2019.06913        -6.32642         5.24058
     2019.07186        -8.79047         5.25101
     2019.07460        -5.17853         5.13057
     2019.07734        -3.59658         5.13910
     2019.08008        -0.26564         5.14954
     2019.08282        -5.85270         5.23963
     2019.08555        -1.42375         5.13815
     2019.08829         1.69719         5.09832
     2019.09103         3.97614         5.20169
     2019.09377         4.48108         5.12962
     2019.09650         6.93202         5.16281
     2019.09924        -1.37903         5.11729
     2019.10198        -8.20109         5.10781
     2019.10472        -4.44014         5.12203
     2019.10746        -6.93020         5.14100
     2019.11019        -2.03626         5.16850
     2019.11293         1.17269         5.24342
     2019.11567         1.99363         5.38662
     2019.11841         5.73058         5.23299
     2019.12115        10.73252         5.44447
     2019.12388         4.52147         5.26618
     2019.12662         8.46441         5.18368
     2019.12936         5.71135         5.13910
     2019.13210        -8.08470         5.10970
     2019.13483       -15.60876         5.13910
     2019.13757        -7.92281         5.10970
     2019.14031        -2.39887         5.12867
     2019.14305        -8.60993         5.13910
     2019.14579       -11.01698         5.12014
     2019.14852        -8.90804         5.11634
     2019.15126         6.29491         5.25006
     2019.15400         4.56885         5.48430
     2019.15674       -16.18721         5.12014
     2019.15948       -13.10226         5.17704
     2019.16221       -13.46632         5.27187
     2019.16495       -11.28237         5.18273
     2019.16769       -19.25543         5.14385
     2019.17043       -19.51349         5.12203
     2019.17316       -13.73654         5.13341
     2019.17590       -10.10060         5.18083
     2019.17864        -9.60465         5.17135
     2019.18138       -12.10471         5.17704
     2019.18412       -19.01577         5.14859
     2019.18685        -5.69082         5.14005
     2019.18959       -11.35388         5.13721
     2019.19233       -10.07493         5.14954
     2019.19507       -14.14499         5.13246
     2019.19780       -17.73805         5.15523
     2019.20054       -13.48110         5.21497
     2019.20328       -13.49416         5.10781
     2019.20602        -9.23221         5.13436
     2019.20876       -11.39427         5.15238
     2019.21149       -11.80133         5.20169
     2019.21423       -11.91138         5.13815
     2019.21697       -13.43544         5.13246
     2019.21971        -8.13349         5.38662
     2019.22245        -8.33955         5.18083
     2019.22518        -8.68460         5.14669
     2019.22792        -7.08666         5.13626
     2019.23066       -11.82572         5.10686
     2019.23340        -9.44377         5.12203
     2019.23613       -13.86283         5.12583
     2019.23887        -7.11988         5.13246
     2019.24161       -18.78594         5.21307
     2019.24435       -17.60300         5.22256
     2019.24709       -16.92105         5.21118
     2019.24982       -11.56911         5.13815
     2019.25256       -12.85416         5.20359
     2019.25530       -12.29622         5.17040
     2019.25804        -7.32428         5.11445
     2019.26078       -12.27333         5.09643
     2019.26351        -6.22439         5.25480
     2019.26625       -11.56544         5.19126
     2019.26899        -7.45950         5.29274
     2019.27173       -12.66956         5.47577
     2019.27446       -11.22561         5.16945
     2019.27720       -11.81567         5.26429
     2019.27994        -5.44172         5.16471
     2019.28268       -15.25378         5.20359
     2019.28542        -6.22784         5.22445
     2019.28815        -3.32489         5.20264
     2019.29089        -8.14995         5.17040
     2019.29363        -8.40300         5.19031
     2019.29637        -5.62406         5.27472
     2019.29911        -2.56412         5.27282
     2019.30184        -6.49217         5.27661
     2019.30458       -12.23423         5.30032
     2019.30732        -9.67128         5.25291
     2019.31006         2.38566         5.33636
     2019.31279        -8.41940         5.25954
     2019.31553         0.90155         5.22825
     2019.31827        -2.15251         5.25196
     2019.32101        -0.77656         5.24532
     2019.32375       -11.88162         5.13626
     2019.32648        -2.35868         5.06513
     2019.32922        -5.88973         5.09927
     2019.33196        -7.93879         5.19506
     2019.33470        -0.50784         5.19126
     2019.33744        -6.24690         5.07651
     2019.34017        -7.65695         5.10022
     2019.34291        -0.83501         5.09358
     2019.34565        -4.80907         5.14574
     2019.34839        -7.64112         5.14290
     2019.35112        -0.76718         5.06039
     2019.35386        -2.92423         5.03099
     2019.35660        -3.78129         5.03099
     2019.35934        -1.74935         5.05186
     2019.36208        -1.55240         5.09453
     2019.36481         1.73054         5.10307
     2019.36755        -3.81251         5.05660
     2019.37029        -0.73157         5.10496
     2019.37303        -0.05163         5.06893
     2019.37577        -3.33168         5.20549
     2019.37850        -2.58874         5.08979
     2019.38124        -0.59879         5.05186
     2019.38398         2.85415         5.04332
     2019.38672        -6.31091         5.07082
     2019.38945        -6.84496         5.06987
     2019.39219        -8.39102         5.11539
     2019.39493        -2.53807         5.08125
     2019.39767        -4.17213         5.07177
     2019.40041         1.12181         5.14574
     2019.40314        -4.71324         5.08505
     2019.40588         3.30770         5.15617
     2019.40862        -2.13435         5.15807
     2019.41136        -6.41041         5.08600
     2019.41410        -1.53147         5.05849
     2019.41683        -0.35752         5.21023
     2019.41957         0.23842         5.08884
     2019.42231        -5.45263         5.03763
     2019.42505        -0.00069         4.97314
     2019.42778        -3.48675         5.16661
     2019.43052        -1.61180         5.08600
     2019.43326        -2.84486         5.02720
     2019.43600        -4.98891         5.03668
     2019.43874        -4.95097         5.08031
     2019.44147        -9.00002         5.06513
     2019.44421        -4.82508         5.14385
     2019.44695        -3.19114         5.13436
     2019.44969        -1.44519         5.08315
     2019.45243         3.72075         5.17135
     2019.45516        -3.77830         5.17419
     2019.45790        -7.80236         5.08694
     2019.46064         0.54458         5.17704
     2019.46338        -4.64647         5.37429
     2019.46611         0.95047         5.31265
     2019.46885        -0.43858         5.23963
     2019.47159         1.60636         5.14669
     2019.47433         1.37330         5.12108
     2019.47707         2.21925         5.20833
     2019.47980        -2.22981         5.07462
     2019.48254        -4.55586         5.08505
     2019.48528        -3.10392         5.08789
     2019.48802        -6.65898         5.10591
     2019.49076        -5.55703         5.05470
     2019.49349         0.55191         5.01013
     2019.49623        -6.53014         4.98832
     2019.49897        -6.28520         5.07651
     2019.50171        -7.80726         5.04996
     2019.50444        -7.32931         5.00254
     2019.50718        -8.47537         4.99875
     2019.50992        -3.43242         5.01392
     2019.51266        -5.67348         4.99685
     2019.51540        -3.41254         5.02720
     2019.51813        -6.18559         5.02530
     2019.52087        -6.46165         5.00918
     2019.52361        -3.56570         4.99495
     2019.52635        -3.19976         5.02720
     2019.52908        -0.70182         5.23868
     2019.53182        -7.72587         5.21782
     2019.53456        -3.49993         5.19885
     2019.53730        -1.28998         5.12203
     2019.54004        -4.18204         5.10781
     2019.54277         2.62591         5.12677
     2019.54551         1.76685         5.36102
     2019.54825         0.61179         5.05849
     2019.55099         2.15574         5.02909
     2019.55373        -2.55832         5.09358
     2019.55646        -2.67837         5.11634
     2019.55920        -0.33543         5.24247
     2019.56194        -1.32049         5.07367
     2019.56468        -2.08954         5.15428
     2019.56741        -4.70160         5.01013
     2019.57015        -4.89465         4.97030
     2019.57289        -4.46671         5.14100
     2019.57563         1.06623         5.06229
     2019.57837         2.96418         5.18178
     2019.58110        -1.29488         5.07082
     2019.58384        -4.27893         5.08789
     2019.58658        -1.30199         4.99495
     2019.58932         5.56495         5.03573
     2019.59206         1.50290         5.14195
     2019.59479         1.35084         5.09169
     2019.59753         4.04979         5.24722
     2019.60027        -2.98527         5.21497
     2019.60301        -1.92033         5.03858
     2019.60574         0.52862         5.33636
     2019.60848        -0.54944         5.23394
     2019.61122        -4.91949         5.03384
     2019.61396        -5.63155         5.04142
     2019.61670        -0.61561         5.00728
     2019.61943         3.72734         5.05660
     2019.62217         0.97628         5.26334
     2019.62491         4.98623         5.07367
     2019.62765         0.31917         5.05755
     2019.63039         1.19111         5.01866
     2019.63312        -6.67294         5.07462
     2019.63586         3.20200         5.11824
     2019.63860         5.98395         5.22351
     2019.64134        -0.19811         5.10307
     2019.64407        -5.53817         5.04142
     2019.64681        -6.63522         5.06513
     2019.64955        -1.85928         5.03763
     2019.65229         1.73167         5.04806
     2019.65503        -5.64439         5.14005
     2019.65776        -4.40544         5.16186
     2019.66050        -4.90650         5.10401
     2019.66324        -3.18156         5.04332
     2019.66598        -1.68361         5.04237
     2019.66872         1.06833         5.06324
     2019.67145        -2.03772         5.08694
     2019.67419        -3.41378         5.04806
     2019.67693         0.42716         5.25670
     2019.67967        -4.54589         5.14479
     2019.68240        -5.17395         5.06324
     2019.68514        -4.64800         5.07462
     2019.68788        -4.85806         5.19790
     2019.69062        -2.69412         5.12677
     2019.69336        -4.60817         5.01392
     2019.69609        -0.33623         5.02909
     2019.69883        -4.46228         5.04617
     2019.70157        -2.05734         5.03289
     2019.70431         0.70160         5.01582
     2019.70705         2.95255         5.21876
     2019.70978        -3.36451         5.00633
     2019.71252        -3.76156         5.18178
     2019.71526        -0.49962         5.05470
     2019.71800         0.25132         5.24342
     2019.72073        -0.54873         5.22730
     2019.72347         0.86621         5.10781
     2019.72621        -4.05384         5.03668
     2019.72895        -2.86990         5.08220
     2019.73169         2.67004         5.13815
     2019.73442         4.09499         5.02625
     2019.73716         2.81493         5.02435
     2019.73990         7.64288         5.27187
     2019.74264        -0.59918         5.19126
     2019.74538        -1.39024         5.05470
     2019.74811         1.14371         5.11255
     2019.75085        -2.20435         5.10876
     2019.75359         0.52060         5.23204
     2019.75633        -2.13546         5.11065
     2019.75906        -1.00551         5.04142
     2019.76180        -1.04457         5.05375
     2019.76454        -1.06363         5.07462
     2019.76728        -2.06368         5.06134
     2019.77002        -0.67274         5.07177
     2019.77275        -0.55579         5.23109
     2019.77549        -1.41485         5.17040
     2019.77823        -0.48291         5.11729
     2019.78097        -0.58496         5.07177
     2019.78371        -1.21802         5.08979
     2019.78644        -0.34007         5.06513
     2019.78918        -1.50213         5.10686
     2019.79192        -0.89719         5.21213
     2019.79466         6.23076         5.10022
     2019.79739        -1.42630         5.07367
     2019.80013         2.58265         5.06893
     2019.80287        -1.55441         5.10307
     2019.80561        -1.10147         5.07556
     2019.80835         2.06348         5.11445
     2019.81108        -0.38158         5.09453
     2019.81382        -0.21463         5.10401
     2019.81656         2.61931         5.11065
     2019.81930         1.03525         5.10307
     2019.82203        -2.15980         5.14195
     2019.82477         0.53614         5.14100
     2019.82751        -3.18491         5.12014
     2019.83025        -1.82897         5.20928
     2019.83299        -0.10803         5.16661
     2019.83572         1.30692         5.14574
     2019.83846         2.76886         5.11160
     2019.84120         1.15881         5.05944
     2019.84394         0.71375         5.24627
     2019.84668        -1.58531         5.10876
     2019.84941         2.01464         5.12393
     2019.85215        -1.71542         5.16566
     2019.85489        -2.52747         5.16755
     2019.85763        -0.53053         5.11160
     2019.86036        -3.04659         5.12962
     2019.86310        -0.69464         5.16945
     2019.86584         3.90930         5.30317
     2019.86858         5.65825         5.22920
     2019.87132        -2.94981         5.26429
     2019.87405         1.04214         5.09548
     2019.87679         0.00308         5.27756
     2019.87953         5.60602         5.16376
     2019.88227         8.30797         5.17135
     2019.88501         2.23591         5.12867
     2019.88774         7.13986         5.26144
     2019.89048         7.10080         5.10781
     2019.89322        10.30474         5.09832
     2019.89596         6.46869         5.10781
     2019.89869         8.52963         5.17514
     2019.90143         1.67058         5.13531
     2019.90417         8.58052         5.15048
     2019.90691         5.40246         5.09738
     2019.90965         0.76141         5.10496
     2019.91238         5.67335         5.11539
     2019.91512        21.53830         5.13721
     2019.91786        12.08224         5.12962
     2019.92060         5.72918         5.12867
     2019.92334         1.88413         5.14859
     2019.92607        -1.44693         5.11350
     2019.92881         3.02702         5.15048
     2019.93155         1.66596         5.30601
     2019.93429         0.11990         5.18937
     2019.93702        -3.61015         5.11445
     2019.93976        -1.25321         5.14385
     2019.94250        -7.34726         5.12488
     2019.94524        -6.39332         5.16566
     2019.94798        -3.72238         5.15617
     2019.95071        -0.84343         5.46059
     2019.95345         3.82351         5.13436
     2019.95619         0.40246         5.09832
     2019.95893        -5.23760         5.12772
     2019.96167        -4.58166         5.12108
     2019.96440        -5.11271         5.21876
     2019.96714       -10.90977         5.25385
     2019.96988        -4.56882         5.10212
     2019.97262        -3.96588         5.14290
     2019.97535        -6.30193         5.09453
     2019.97809        -9.80599         5.09358
     2019.98083       -13.06005         5.11919
     2019.98357       -12.59610         5.11539
     2019.98631        -3.11016         5.09548
     2019.98904        -7.14521         5.11634
     2019.99178        -4.33027         5.10591
     2019.99452        -6.13433         5.12014
     2019.99726        -2.91938         5.15617
     2020.00000         3.07056         5.15048
     2020.00273        -2.78249         5.13057
     2020.00547        -2.74555         5.22445
     2020.00821         0.73539         5.35248
     2020.01095        -3.80466         5.25385
     2020.01368       -12.46072         5.23489
     2020.01642        -7.51977         5.25670
     2020.01916        -1.78183         5.10117
     2020.02190         4.53411         5.22066
     2020.02464        -7.14294         5.23868
     2020.02737         5.81800         5.14669
     2020.03011         9.23595         5.18652
     2020.03285         9.52089         5.19980
     2020.04380        18.55767         5.23394
     2020.04654        10.51861         5.10876
     2020.04928        -9.06045         5.03004
     2020.05201        -9.42450         5.00823
     2020.05475        -2.48956         5.02909
     2020.05749        -4.72061         5.06608
     2020.06023        -8.84767         5.08789
     2020.06297        -5.52873         5.12298
     2020.06570       -11.21378         5.08979
     2020.06844       -10.76684         5.09548
     2020.07118        -6.39789         5.08600
     2020.07392        -6.52395         5.08789
     2020.07666       -10.08300         5.13910
     2020.07939        -8.43806         5.09927
     2020.08213        -8.40812         5.04427
     2020.08487        -8.97617         5.05944
     2020.08761        -4.78423         5.04237
     2020.09034        -5.41028         5.03194
     2020.09308        -9.36334         5.07177
     2020.09582        -2.78840         5.06893
     2020.09856        -8.93045         5.03763
     2020.10130       -10.00151         5.03194
     2020.10403        -7.15056         5.06893
     2020.10677        -8.37462         5.01961
     2020.10951       -11.34168         5.04048
     2020.11225       -15.56973         5.04806
     2020.11498        -4.69879         5.09263
     2020.11772       -10.01684         5.17514
     2020.12046       -10.22190         5.20075
     2020.12320       -10.53996         5.09548
     2020.12594       -18.37401         5.07177
     2020.12867       -12.63007         5.02720
     2020.13141        -7.07412         5.06039
     2020.13415        -7.56718         5.03194
     2020.13689        -4.76424         5.13721
     2020.13963        -2.54329         5.15048
     2020.14236        -5.36635         5.03763
     2020.14510        -6.44540         5.04901
     2020.14784        -9.18546         5.09263
     2020.15058        -8.73252         5.07272
     2020.15331        -8.35357         5.06798
     2020.15605        -7.02263         5.05280
     2020.15879        -5.36368         5.04711
     2020.16153        -3.42774         5.05375
     2020.16427        -2.74280         5.06039
     2020.16700         0.07115         5.09548
     2020.16974        -2.32291         5.08979
     2020.17248        -1.57596         5.02625
     2020.17522        -2.02902         5.04427
     2020.17796        -2.23608         5.02151
     2020.18069        -3.66713         5.03004
     2020.18343        -5.78619         5.07177
     2020.18617        -5.09324         5.03004
     2020.18891        -5.68630         5.11255
     2020.19164        -6.17835         5.10401
     2020.19438        -1.81841         5.08600
     2020.19712        -3.39547         5.10686
     2020.19986        -2.33252         5.10686
     2020.20260         1.70042         5.13910
     2020.20533         3.18337         5.10876
     2020.20807        -7.62169         5.09643
     2020.21081        -7.82475         5.10212
     2020.21355        -4.64880         5.56776
     2020.21629        -4.60286         5.36671
     2020.21902        -4.92891         5.19126
     2020.22176        -1.54997         5.12203
     2020.22450        -5.84103         5.13057
     2020.22724        -1.58408         5.09927
     2020.22997        -2.42114         5.12014
     2020.23271         0.17781         5.22351
     2020.23545        -2.04625         5.11634
     2020.23819        -5.87531         5.14574
     2020.24093       -13.01536         5.10117
     2020.24366        -4.94742         5.20833
     2020.24640         1.03053         5.23583
     2020.24914        -7.31853         5.18652
     2020.25188        -4.83459         5.09169
     2020.25462        -6.47264         5.10876
     2020.25735        -3.72870         5.19126
     2020.26009         6.34325         5.23204
     2020.26283        -5.32981         5.18083
     2020.26557        -8.04587         5.15238
     2020.26830        -5.88792         5.16092
     2020.27104        -3.82398         5.19506
     2020.27378        -7.17903         5.16661
     2020.27652        -0.17009         5.20928
     2020.27926         1.64285         5.26808
     2020.28199        -0.87520         5.21971
     2020.28473        -5.22726         5.15712
     2020.28747        -4.92931         5.20928
     2020.29021         1.51763         5.20644
     2020.29295        -0.72242         5.25480
     2020.29568         4.66752         5.13057
     2020.29842         0.65646         5.15902
     2020.30116        -2.17959         5.19221
     2020.30390        -0.60165         5.17609
     2020.30663        -3.56670         5.17893
     2020.30937        -4.98976         5.23109
     2020.31211        -3.44882         5.19506
     2020.31485        -4.83187         5.15143
     2020.31759        -5.10493         5.13531
     2020.32032        -0.65598         5.16755
     2020.32306        -1.69604         5.09358
     2020.32580        -2.58110         5.07556
     2020.32854        -0.39915         5.07651
     2020.33128        -2.70921         5.06703
     2020.33401        -4.48826         5.11255
     2020.33675         2.33768         5.12772
     2020.33949        -6.00038         5.13815
     2020.34223        -3.99143         5.15238
     2020.34496        -6.22149         5.09169
     2020.34770        -1.18554         5.09263
     2020.35044        -0.82560         5.15617
     2020.35318        -5.79066         5.21213
     2020.35592        -5.71371         5.12488
     2020.35865        -3.16377         5.12014
     2020.36139        -3.81482         5.03384
     2020.36413        -6.72288         5.14100
     2020.36687        -7.31794         5.14100
     2020.36961        -7.99299         5.13815
     2020.37234         1.12795         5.13341
     2020.37508        -2.43710         5.09169
     2020.37782        -4.34116         5.07556
     2020.38056       -11.39122         5.03858
     2020.38329        -5.48027         5.03478
     2020.38603        -8.25833         5.05091
     2020.38877         0.11962         5.22730
     2020.39151        -2.47144         5.06418
     2020.39425        -4.85549         5.05375
     2020.39698        -4.81655         5.03289
     2020.39972        -6.92161         5.02909
     2020.40246        -5.47266         5.07746
     2020.40520        -7.69472         5.13815
     2020.40794        -2.35977         5.05755
     2020.41067        -5.42083         5.17040
     2020.41341        -4.64789         5.05375
     2020.41615        -6.87794         5.04711
     2020.41889        -9.37700         5.04711
     2020.42162        -8.38805         4.99875
     2020.42436        -4.65611         5.29463
     2020.42710        -5.29217         5.31455
     2020.42984        -0.33822         5.17609
     2020.43258        -0.25328         5.14764
     2020.43531        -7.77633         5.13246
     2020.43805        -6.34839         5.17324
     2020.44079        -8.75245         5.13910
     2020.44353        -3.42350         5.13246
     2020.44626        -5.67756         5.15333
     2020.44900       -10.91061         5.12772
     2020.45174         0.52433         5.01771
     2020.45448        -6.56973         5.11350
     2020.45722        -7.46878         5.03953
     2020.45995        -2.64684         5.05280
     2020.46269        -7.64189         5.06229
     2020.46543        -2.59595         5.04617
     2020.46817        -1.10201         5.05091
     2020.47091        -0.82306         5.08410
     2020.47364        -2.33512         5.04901
     2020.47638         0.67083         5.08600
     2020.47912        -2.93623         5.06987
     2020.48186         4.15071         5.04711
     2020.48459        -0.92034         5.19600
     2020.48733         8.67960         5.19031
     2020.49007         7.55055         5.24532
     2020.49281         0.63249         5.13910
     2020.49555         0.93443         5.15712
     2020.49828         3.70038         5.04048
     2020.50102         3.83932         5.04427
     2020.50376         0.25927         5.02625
     2020.50650        -2.70979         4.98737
     2020.50924        -3.21684         5.03573
     2020.51197         1.10010         5.03004
     2020.51471        -0.76096         4.98737
     2020.51745         3.95999         5.00254
     2020.52019         4.69593         5.13531
     2020.52292         2.22688         5.11255
     2020.52566         0.69582         5.16092
     2020.52840         3.23176         5.11350
     2020.53114        -0.94429         5.17988
     2020.53388         0.40365         5.12298
     2020.53661        -5.06940         5.17040
     2020.53935        -1.55746         5.23678
     2020.54209         5.96548         5.15997
     2020.54483         3.90243         5.17230
     2020.54757         4.73137         5.08505
     2020.55030         3.78232         5.09738
     2020.55304        -0.81574         5.17230
     2020.55578         7.88320         5.20833
     2020.55852         6.72815         5.15712
     2020.56125         5.14409         5.09169
     2020.56399         0.02404         5.06039
     2020.56673        -0.98502         5.16281
     2020.56947         9.91092         5.12677
     2020.57221         4.22087         5.33351
     2020.57494         4.07081         5.16945
     2020.57768         3.12276         5.11729
     2020.58042        -4.68530         5.12677
     2020.58316         0.78964         5.12772
     2020.58590         1.25159         5.11255
     2020.58863        -0.14947         5.18652
     2020.59137         1.43648         5.12867
     2020.59411         6.86442         5.14669
     2020.59685         2.43136         5.24342
     2020.59958        -2.51069         5.25196
     2020.60232         1.45725         5.11160
     2020.60506         2.98920         5.20359
     2020.60780         0.14214         5.15238
     2020.61054         5.78209         5.08315
     2020.61327         1.58903         5.08789
     2020.61601        -0.32803         5.07651
     2020.61875        -4.12008         5.14479
     2020.62149        -1.03514         5.17419
     2020.62423         3.06681         5.16755
     2020.62696        -0.32225         5.20738
     2020.62970         0.59169         5.14574
     2020.63244        -1.72636         5.24627
     2020.63518         3.77058         5.22066
     2020.63791        -1.54047         5.24816
     2020.64065         1.56547         5.13057
     2020.64339         1.35741         5.11350
     2020.64613        -2.08564         5.16376
     2020.64887        -3.12070         5.11445
     2020.65160        -1.97475         5.14669
     2020.65434        -5.00181         5.11539
     2020.65708         7.51113         5.11634
     2020.65982         4.10008         5.14290
     2020.66256         2.55902         5.10496
     2020.66529         3.68597         5.09548
     2020.66803         1.48391         5.07746
     2020.67077         8.20885         5.07556
     2020.67351         3.94080         5.07556
     2020.67624         3.78174         5.11919
     2020.67898        -1.34031         5.11634
     2020.68172        -0.16737         5.11160
     2020.68446        12.46557         5.17893
     2020.68720         3.75752         5.14669
     2020.68993         1.00446         5.12583
     2020.69267        -0.53259         5.21971
     2020.69541         1.28835         5.32308
     2020.69815         0.17829         5.16945
     2020.70089         3.76424         5.09169
     2020.70362         2.05318         5.09074
     2020.70636        -1.93987         5.33920
     2020.70910        -2.99193         5.31360
     2020.71184         3.74602         5.31644
     2020.71457         0.25896         5.25006
     2020.71731         0.26490         5.22920
     2020.72005         3.01685         5.24816
     2020.72279         1.67179         5.09453
     2020.72553         7.16474         5.22825
     2020.72826         3.46668         5.22445
     2020.73100         3.35362         5.25006
     2020.73374         4.99657         5.12677
     2020.73648         3.46551         5.12108
     2020.73921        -0.68754         5.12677
     2020.74195         4.20240         5.14764
     2020.74469         3.30834         5.11445
     2020.74743         1.53629         5.13626
     2020.75017         4.46923         5.11255
     2020.75290         1.59618         5.16755
     2020.75564         0.32512         5.01961
     2020.75838         3.05506         5.03573
     2020.76112         2.00201         5.03858
     2020.76386         4.87495         5.03478
     2020.76659         5.11390         5.03099
     2020.76933         7.89184         5.16566
     2020.77207         8.52378         5.03573
     2020.77481         0.81873         5.08789
     2020.77754         3.45467         5.07651
     2020.78028         5.89262         5.07177
     2020.78302         6.62356         5.10117
     2020.78576         3.47950         5.06134
     2020.78850        -1.93655         5.04048
     2020.79123         2.27239         5.12583
     2020.79397         2.75434         5.10022
     2020.79671         2.67328         5.10401
     2020.79945         3.33922         5.07462
     2020.80219         4.08717         5.15807
     2020.80492         2.18711         5.06324
     2020.80766         6.80106         5.15902
     2020.81040         5.46200         5.17135
     2020.81314         3.82494         5.06324
     2020.81587         1.48989         5.07082
     2020.81861         1.10683         5.09263
     2020.82135         5.78778         5.14954
     2020.82409         6.69172         5.14954
     2020.82683         6.02667         5.20264
     2020.82956         0.63161         5.17799
     2020.83230         4.36355         5.20454
     2020.83504         2.23250         5.21876
     2020.83778         5.61044         5.07272
     2020.84052         6.23639         5.11539
     2020.84325        -3.98267         5.18273
     2020.84599         1.95027         5.14669
     2020.84873         9.13422         5.15143
     2020.85147        -2.02484         5.05186
     2020.85420        12.50111         5.06418
     2020.85694        10.61905         5.14669
     2020.85968         6.98099         5.08505
     2020.86242         5.92794         5.11919
     2020.86516         5.77088         5.19695
     2020.86789         5.94383         5.33920
     2020.87063        10.74677         5.11634
     2020.87337         7.43371         5.10307
     2020.87611         6.41266         5.22920
     2020.87885         6.58660         5.27472
     2020.88158         6.40755         5.21592
     2020.88432         4.87449         5.13057
     2020.88706         0.99743         5.36197
     2020.88980         1.01038         5.21402
     2020.89253         2.42732         5.14385
     2020.89527         7.03827         5.27661
     2020.89801         5.23521         5.26334
     2020.90075         6.58515         5.13341
     2020.90349         4.11410         5.12772
     2020.90622         2.42604         5.14859
     2020.90896         2.49499         5.26523
     2020.91170         3.35093         5.38283
     2020.91444         2.15687         5.21023
     2020.91718         1.20482         5.13910
     2020.91991        -1.56424         5.14764
     2020.92265         0.21071         5.16186
     2020.92539        -3.19135         5.13721
     2020.92813        -3.47640         5.10686
     2020.93086        -1.86446         5.12583
     2020.93360         0.81348         5.17230
     2020.93634        -2.75257         5.12772
     2020.93908        -3.76563         5.12867
     2020.94182        -2.89768         5.14195
     2020.94455        -5.58674         5.15712
     2020.94729        -6.12580         5.15617
     2020.95003        -5.02985         5.25480
     2020.95277       -13.03591         5.14574
     2020.95551        -7.63896         5.15902
     2020.95824        -2.30602         5.24247
     2020.96098        -8.09008         5.23868
     2020.96372        -8.70813         5.12488
     2020.96646        -3.87319         5.15807
     2020.96919        -2.73224         5.20169
     2020.97193        -8.88030         5.07651
     2020.97467        -4.84936         5.23014
     2020.97741        -8.33741         5.13246
     2020.98015        -7.31147         5.25480
     2020.98288        -1.86452         5.23678
     2020.98562         3.79442         5.13531
     2020.98836        -1.76364         5.07177
     2020.99110         1.22831         5.05186
     2020.99384        -4.54675         5.03668
     2020.99657        -2.24280         5.08505
     2020.99931         1.01114         5.13057
     2021.00205        -7.00192         5.09643
     2021.00479         4.31703         5.14195
     2021.00752         3.38097         5.08220
     2021.01026         2.66592         5.16281
     2021.01300         3.28786         5.09453
     2021.01574         2.42180         5.10022
     2021.01848        -0.85825         5.09927
     2021.02121        -4.77331         5.08600
     2021.02395        -2.76136         5.09832
     2021.02669         1.66858         5.24722
     2021.02943        -4.17347         5.06134
     2021.03216        -3.18153         5.05091
     2021.03490        -6.70059         5.11255
     2021.03764        -3.48764         5.12867
     2021.04038        -6.92670         5.21023
     2021.04312        -4.37275         5.07177
     2021.04585         3.15519         5.08125
     2021.04859        -1.69587         5.05849
     2021.05133        -1.73192         5.10970
     2021.05407         0.95202         5.40938
     2021.05681        -4.00203         5.26049
     2021.05954        -2.32209         5.05565
     2021.06228        -9.61615         5.05660
     2021.06502        -4.99620         5.04142
     2021.06776         2.83874         5.13152
     2021.07049        -0.44531         5.14385
     2021.07323         0.82163         5.12203
     2021.07597       -11.28243         5.04237
     2021.07871        -5.66548         5.15428
     2021.08145        -9.41154         5.17893
     2021.08418       -12.62759         5.21402
     2021.08692        -8.46165         5.23489
     2021.08966        -4.65571         5.12393
     2021.09240        -9.84976         5.13152
     2021.09514        -9.07882         5.29084
     2021.09787       -10.19487         5.33162
     2021.10061        -4.05993         5.18557
     2021.10335        -6.92499         5.17799
     2021.10609        -6.09204         5.18747
     2021.10882        -8.65110         5.14195
     2021.11156       -10.85615         5.17135
     2021.11430       -15.70821         5.21782
     2021.11704        -6.50127         5.22540
     2021.11978        -1.81832         5.20075
     2021.12251        -3.93038         5.17609
     2021.12525       -11.39943         5.19221
     2021.12799        -4.62949         5.18557
     2021.13073       -10.25155         5.15902
     2021.13347        -9.09360         5.29274
     2021.13620        -5.74466         5.25385
     2021.13894        -5.93871         5.15333
     2021.14168        -8.43877         5.16850
     2021.14442        -6.25682         5.18747
     2021.14715        -8.51088         5.21023
     2021.14989       -10.50794         5.15428
     2021.15263        -9.32199         5.25575
     2021.15537        -5.40805         5.22825
     2021.15811        -8.69710         5.36860
     2021.16084        -9.69116         5.27756
     2021.16358        -4.23322         5.27567
     2021.16632        -2.53227         5.24437
     2021.16906        -1.44533         5.09643
     2021.17180        -5.06738         5.12488
     2021.17453        -8.06644         5.26429
     2021.17727        -5.91950         5.32877
     2021.18001        -8.59155         5.23583
     2021.18275       -10.80161         5.42835
     2021.18548        -6.91766         5.18842
     2021.18822        -8.98272         5.10970
     2021.19096        -7.89178         5.18273
     2021.19370        -7.88683         5.21497
     2021.19644       -10.07589         5.13057
     2021.19917        -8.63794         5.11539
     2021.20191        -7.66600         5.12014
     2021.20465        -1.15506         5.17988
     2021.20739        -4.44811         5.17988
     2021.21013         1.14283         5.34679
     2021.21286        -0.44922         5.22445
     2021.21560        -3.93828         5.13626
     2021.21834        -8.75234         5.14574
     2021.22108       -10.07939         5.24153
     2021.22381        -1.27545         5.20359
     2021.22655         0.63450         5.17704
     2021.22929        -2.44856         5.12677
     2021.23203        -0.19762         5.10591
     2021.23477        -8.32367         5.09548
     2021.23750        -8.28173         5.09927
     2021.24024        -3.73778         5.12393
     2021.24298        -1.78984         5.10686
     2021.24572        -9.00589         5.08220
     2021.24846        -1.25095         5.20928
     2021.25119        -4.71301         5.13341
     2021.25393        -1.58706         5.14479
     2021.25667        -4.32412         5.13246
     2021.25941         3.33783         5.13531
     2021.26214        -2.39623         5.09453
     2021.26488        -3.76729         5.11919
     2021.26762         0.81566         5.21687
     2021.27036        -0.58340         5.16376
     2021.27310         0.03755         5.09738
     2021.27583        -2.02951         5.07841
     2021.27857        -3.24757         5.22351
     2021.28131        -0.87462         5.22730
     2021.28405         1.53332         5.23109
     2021.28679         3.11827         5.17135
     2021.28952         3.01221         5.19316
     2021.29226        -1.81285         5.17514
     2021.29500         3.45210         5.20359
     2021.29774         6.59704         5.34774
     2021.30047         5.93599         5.20549
     2021.30446        -4.01410        39.91032
     2021.30595         9.73587         5.30032
     2021.30869        14.44682         5.30317
     2021.31143         6.33776         5.11255
     2021.31416         5.68471         5.22066
     2021.31690         3.73565         5.12108
     2021.31964         3.18459         5.21307
     2021.32238         4.67454         5.22445
     2021.32512        -1.24252         5.11634
     2021.32785         0.62343         5.10212
     2021.33059        10.42437         5.19221
     2021.33333         9.08231         5.13341
     2021.33607         4.53426         5.15333
     2021.33880         1.33820         5.12014
     2021.34154         6.86715         5.13626
     2021.34428        -0.48791         5.25575
     2021.34702        -5.07796         5.10496
     2021.34976         0.83698         5.13436
     2021.35249         2.54492         5.15238
     2021.35523         6.66687         5.12488
     2021.35797         5.77681         5.12677
     2021.36071         2.74476         5.13531
     2021.36344         3.28670         5.13910
     2021.36618        -5.83536         5.15143
     2021.36892        -1.31641         5.34490
     2021.37166         6.70453         5.19031
     2021.37440        -0.50752         5.16092
     2021.37713         0.38342         5.15712
     2021.37987         0.41036         5.29084
     2021.38261        -2.47569         5.51275
     2021.38535         4.06325         5.32213
     2021.38809        -3.75480         5.26523
     2021.39082         0.60014         5.14574
     2021.39356        -2.56192         5.13910
     2021.39630        -2.20697         5.20359
     2021.39904         2.15397         5.19031
     2021.40177         2.08992         5.21118
     2021.40451         1.44186         5.33351
     2021.40725         6.52680         5.18557
     2021.40999         8.29975         5.15523
     2021.41273         6.76169         5.18842
     2021.41546         2.56664         5.20928
     2021.41820         0.63958         5.21592
     2021.42094         3.53352         5.19695
     2021.42368         4.78347         5.16376
     2021.42642         7.81441         5.19506
     2021.42915         7.09836         5.21876
     2021.43189         4.70730         5.20833
     2021.43463         2.55424         5.21118
     2021.43737        -4.08681         5.16850
     2021.44010        -0.01987         5.19411
     2021.44284        -1.94792         5.21402
     2021.44558        -1.89098         5.31075
     2021.44832         1.50396         5.27756
     2021.45106         9.59791         5.39516
     2021.45379         7.07385         5.28610
     2021.45653         0.56880         5.25954
     2021.45927         7.48574         5.17040
     2021.46201         6.28769         5.17135
     2021.46475         7.12263         5.19885
     2021.46748         7.17657         5.22920
     2021.47022         7.99152         5.29558
     2021.47296        11.99846         5.24058
     2021.47570         2.58841         5.26713
     2021.47843         6.04835         5.32308
     2021.48117         0.54629         5.18842
     2021.48391         2.32524         5.19031
     2021.48665         4.30318         5.18937
     2021.48939         0.69713         5.17704
     2021.49212         5.75607         5.21687
     2021.49486         6.15401         5.19980
     2021.49760         8.56596         5.30412
     2021.50034         6.79190         5.27567
     2021.50308         6.59985         5.21971
     2021.50581        14.49079         5.20738
     2021.50855         6.26273         5.18842
     2021.51129         7.87468         5.19316
     2021.51403         6.19762         5.14954
     2021.51676         8.01157         5.14385
     2021.51950         8.29851         5.32593
     2021.52224         6.56345         5.18747
     2021.52498         7.18240         5.20075
     2021.52772         6.00434         5.21023
     2021.53045         4.83529         5.21213
     2021.53319         3.01923         5.21307
     2021.53593         0.38117         5.33162
     2021.53867         8.84912         5.61897
     2021.54141         3.18706         5.36102
     2021.54414         0.43901         5.33731
     2021.54688        -2.58505         5.25480
     2021.54962         2.87689         5.29748
     2021.55236         4.96284         5.26713
     2021.55509         3.58578         5.35343
     2021.55783        -2.72227         5.33067
     2021.56057         6.19967         5.21782
     2021.56331         6.40862         5.18083
     2021.56605         1.79056         5.21497
     2021.56878         0.60050         5.23583
     2021.57152         1.12245         5.25670
     2021.57426         0.14039         5.20549
     2021.57700         4.64034         5.29084
     2021.57974         3.90328         5.22351
     2021.58247        -3.82778         5.24058
     2021.58521         0.86917         5.31550
     2021.58795         1.98911         5.20075
     2021.59069         4.15706         5.15902
     2021.59342        -1.86100         5.20359
     2021.59616         3.26494         5.35722
     2021.59890         3.31789         5.22825
     2021.60164         4.03783         5.22825
     2021.60438         1.61978         5.20075
     2021.60711        -0.37428         5.21118
     2021.60985         2.96366         5.20833
     2021.61259         3.93961         5.20549
     2021.61533        -0.40545         5.20644
     2021.61807         3.53250         5.20928
     2021.62080         3.62544         5.21497
     2021.62354         8.67538         5.17799
     2021.62628         8.30233         5.35817
     2021.62902         6.45027         5.20075
     2021.63175         3.23322         5.27472
     2021.63449        -1.28684         5.18652
     2021.63723         7.77210         5.47387
     2021.63997         4.86305         5.28420
     2021.64271         6.40199         5.27472
     2021.64544         6.48994         5.17230
     2021.64818         3.93388         5.15617
     2021.65092         9.23082         5.20549
     2021.65366         3.92577         5.18747
     2021.65639         5.13871         5.18842
     2021.65913         0.27266         5.13152
     2021.66187        11.58760         5.15333
     2021.66461         5.30655         5.14669
     2021.66735        10.37049         5.19031
     2021.67008         4.41143         5.31360
     2021.67282         6.43238         5.39326
     2021.67556         2.52032         5.50706
     2021.67830         2.41427         5.34015
     2021.68104         7.61621         5.19980
     2021.68377         9.56215         5.18462
     2021.68651         7.85010         5.22920
     2021.68925        11.96004         5.21118
     2021.69199         9.58699         5.28989
     2021.69472        10.84793         5.17419
     2021.69746         4.17187         5.22730
     2021.70020         9.37982         5.19885
     2021.70294         7.67576         5.18842
     2021.70568        10.46371         5.18652
     2021.70841        10.49065         5.17893
     2021.71115        10.99359         5.17609
     2021.71389         8.76854         5.19790
     2021.71663        10.38448         5.34490
     2021.71937         8.06443         5.24911
     2021.72210         0.99737         5.18747
     2021.72484         3.50531         5.16945
     2021.72758         7.25426         5.19600
     2021.73032         3.95720         5.44352
     2021.73305         9.19415         5.20928
     2021.73579        11.84609         5.23204
     2021.73853        12.32803         5.28799
     2021.74127         8.41698         5.20928
     2021.74401         7.06692         5.21876
     2021.74674         9.89987         5.22540
     2021.74948         6.73981         5.23394
     2021.75222         7.97475         5.20454
     2021.75496         8.97970         5.20264
     2021.75770         6.77564         5.23678
     2021.76043         7.67859         5.25101
     2021.76317         8.54253         5.25101
     2021.76591         4.27147         5.19790
     2021.76865         7.92342         5.19411
     2021.77138        11.15736         5.23773
     2021.77412        10.20531         5.27472
     2021.77686        13.88925         5.24627
     2021.77960        11.74120         5.21118
     2021.78234         7.91314         5.20833
     2021.78507        11.84708         5.19506
     2021.78781        12.81803         5.25101
     2021.79055        11.74097         5.24437
     2021.79329        13.28992         5.23109
     2021.79603        12.94486         5.14385
     2021.79876         8.46580         5.24532
     2021.80150         4.00975         5.50327
     2021.80424        15.32469         5.52603
     2021.80698         9.43864         5.29558
     2021.80971         2.05458         5.17988
     2021.81245        13.49052         5.25954
     2021.81519         9.84147         5.21497
     2021.81793         3.48741         5.22920
     2021.82067         1.29636         5.31644
     2021.82340         4.47430         5.28989
     2021.82614         4.74724         5.21402
     2021.82888        10.24419         5.22256
     2021.83162         9.47313         5.31834
     2021.83436         5.91608         5.32593
     2021.83709         4.26202         5.30222
     2021.83983         1.49196         5.19790
     2021.84257        10.74091         5.29843
     2021.84531         3.30585         5.20264
     2021.84804         4.88380         5.30981
     2021.85078         1.63974         5.28325
     2021.85352         3.56768         5.14954
     2021.85626        10.13263         5.19506
     2021.85900         1.55457         5.14385
     2021.86173         2.88652         5.14859
     2021.86447         1.04646         5.33541
     2021.86721         2.25840         5.46723
     2021.86995         1.31335         5.35912
     2021.87269         1.00629         5.24058
     2021.87542         0.84524         5.25385
     2021.87816        -1.29482         5.15617
     2021.88090        -1.31887         5.21876
     2021.88364         2.28907         5.13626
     2021.88637        -1.12799         5.12108
     2021.88911        -3.05904         5.12108
     2021.89185        -3.13510         5.12014
     2021.89459         1.81385         5.15712
     2021.89733        -2.36821         5.11350
     2021.90006        -3.01827         5.13152
     2021.90280         0.14268         5.15143
     2021.90554        -0.67338         5.15902
     2021.90828         7.07757         5.12962
     2021.91102         4.21751         5.12962
     2021.91375         3.43845         5.13341
     2021.91649         4.02740         5.13057
     2021.91923         5.35834         5.25765
     2021.92197        -3.58771         5.42456
     2021.92470        -4.66277         5.27946
     2021.92744         4.45017         5.26334
     2021.93018        -3.17588         5.29463
     2021.93292         5.29006         5.40464
     2021.93566         8.23301         5.45396
     2021.93839         5.87895         5.42645
     2021.94113         8.56289         5.48620
     2021.94387        11.28984         5.26334
     2021.94661         7.66578         5.28799
     2021.94935        15.27673         5.34869
     2021.95208        10.06867         5.34395
     2021.95482         6.80661         5.47766
     2021.95756        21.20356         5.43309
     2021.96030        13.70250         5.41887
     2021.96303        10.85745         5.46818
     2021.96577        -3.09261         5.45965
     2021.96851         1.29033         5.44921
     2021.97125         2.26428         5.41223
     2021.97399         9.51622         5.55733
     2021.97672         7.82217         5.35628
     2021.97946        10.79011         5.49379
     2021.98220         9.74606         5.51086
     2021.98494        16.48300         5.43594
     2021.98767        11.64994         5.37335
     2021.99041        18.23089         5.27092
     2021.99589         3.92378         5.33541
     2021.99863        -3.19128         5.33351
     2022.00136         0.96766         5.32024
     2022.00410        -4.72839         5.31265
     2022.00684        -1.17945         5.33162
     2022.00958        20.14550         5.76691
     2022.01232         6.60444         5.64647
     2022.01505        -0.96562         5.39800
     2022.01779         1.61733         5.47103
     2022.02053        -3.89373         5.33541
     2022.02327         0.13822         5.61897
     2022.02600        -6.29384         5.37145
     2022.02874        -9.51290         5.35533
     2022.03148       -11.53895         5.38567
     2022.03422        -3.14701         5.37335
     2022.03696        -5.96206         5.32213
     2022.03969       -13.50112         5.32593
     2022.04243        -7.80118         5.34395
     2022.04517        -6.02023         5.41033
     2022.04791        -4.42229         5.42361
     2022.05065         1.09066         5.39042
     2022.05338        -7.36540         5.31550
     2022.05612       -13.55446         5.35153
     2022.05886       -18.19351         5.35628
     2022.06160       -16.96357         5.43309
     2022.06433        -5.77862         5.29653
     2022.06707        -7.91168         5.32403
     2022.06981        -0.31074         5.34205
     2022.07255       -11.24879         5.24816
     2022.07529        -4.25285         5.24153
     2022.07802        -2.27590         5.22635
     2022.08076         2.00504         5.20075
     2022.08350        -1.36402         5.25860
     2022.08624        -2.75307         5.20454
     2022.08898        -0.72113         5.24816
     2022.09171        -2.21018         5.24911
     2022.09445        -8.12824         5.21687
     2022.09719        -8.74129         5.22540
     2022.09993        -5.87835         5.33731
     2022.10266       -10.24841         5.34110
     2022.10540        -0.95146         5.29463
     2022.10814         0.33548         5.26618
     2022.11088        -0.73857         5.16850
     2022.11362        -1.00763         5.14859
     2022.11635         3.17631         5.19031
     2022.11909        -4.04374         5.18178
     2022.12183        -4.56280         5.23109
     2022.12457         6.03615         5.26049
     2022.12731        -6.20391         5.16092
     2022.13004       -12.52797         5.16945
     2022.13278        -8.66002         5.17230
     2022.13552        -5.14908         5.15617
     2022.13826        -0.22713         5.16471
     2022.14099        -1.28019         5.14669
     2022.14373        -3.07125         5.10686
     2022.14647        -5.57030         5.14195
     2022.14921        -2.42036         5.45396
     2022.15195        -5.31841         5.44447
     2022.15468        -1.59647         5.17135
     2022.15742        -2.47453         5.15333
     2022.16016        -4.54858         5.15333
     2022.16290        -6.88564         5.19221
     2022.16564        -2.26769         5.17988
     2022.16837        -0.82175         5.17893
     2022.17111        -4.56481         5.16092
     2022.17385        -1.77186         5.14574
     2022.17659        -3.25692         5.14005
     2022.17932        -4.92197         5.16186
     2022.18206        -3.47103         5.19885
     2022.18480        -4.06709         5.18557
     2022.18754         0.13386         5.25480
     2022.19028        -6.25420         5.26998
     2022.19301         0.76775         5.19885
     2022.19575         7.48269         5.22825
     2022.19849        -2.64136         5.16566
     2022.20123        -4.06442         5.18273
     2022.20397         1.92452         5.17230
     2022.20670        -1.87553         5.32782
     2022.20944         2.11141         5.27946
     2022.21218         2.44736         5.19126
     2022.21492        -4.64570         5.15712
     2022.21765         1.66924         5.19885
     2022.22039        -3.59081         5.21592
     2022.22313        -2.87987         5.19790
     2022.22587        -4.85992         5.25954
     2022.22861         1.44402         5.24816
     2022.23134         6.58196         5.16755
     2022.23408         1.01991         5.16092
     2022.23682         5.11085         5.34679
     2022.23956         1.27880         5.23109
     2022.24230         4.79174         5.24627
     2022.24503         6.04268         5.15048
     2022.24777         9.20463         5.11729
     2022.25051        -0.48843         5.19790
     2022.25325         2.54652         5.18462
     2022.25598         6.03346         5.27472
     2022.25872         2.21040         5.20264
     2022.26146        -1.29065         5.16376
     2022.26420         4.87729         5.18462
     2022.26694         4.23424         5.30222
     2022.26967         3.09418         5.21971
     2022.27241         6.84012         5.23394
     2022.27515         8.46907         5.31929
     2022.27789         4.21401         5.21118
     2022.28062         0.70896         5.24627
     2022.28336         5.61290         5.29274
     2022.28610         4.44984         5.40559
     2022.28884        -2.98421         5.33446
     2022.29158        -4.55927         5.20264
     2022.29431        -3.71332         5.25006
     2022.29705        -7.75838         5.38662
     2022.29979        -0.58443         5.23299
     2022.30253         3.18651         5.37429
     2022.30527        -3.65855         5.35438
     2022.30800        -4.00560         5.22256
     2022.31074        -4.03666         5.29748
     2022.31348        -6.34671         5.28610
     2022.31622        -2.37477         5.27851
     2022.31895       -23.79983         5.29653
     2022.32169        -1.88688         5.33826
     2022.32443        -1.45894         5.24722
     2022.32717        -6.46899         5.28230
     2022.32991        -0.07805         5.25670
     2022.33264        -2.15911         5.40464
     2022.33538        -3.58716         5.50706
     2022.33812        -4.54622         5.52982
     2022.34086         2.96673         5.27756
     2022.34360        -2.12733         5.30032
     2022.34633        -0.91439         5.26239
     2022.34907        -3.47144         5.22351
     2022.35181        -1.66450         5.21307
     2022.35455        -3.82355         5.22445
     2022.35728        -6.03361         5.26618
     2022.36002        -2.13667         5.23394
     2022.36276        -2.24772         5.26049
     2022.36550        -7.57078         5.24247
     2022.36824        -3.30583         5.19980
     2022.37097         1.28411         5.27092
     2022.37371        -1.76195         5.24342
     2022.37645        -2.03800         5.26523
     2022.37919         0.74494         5.34869
     2022.38193        -1.82111         5.32498
     2022.38466        -3.46317         5.24911
     2022.38740       -17.27823         5.26618
     2022.39014        -2.52128         5.25670
     2022.39288         1.83066         5.26144
     2022.39561        -1.10239         5.20075
     2022.39835         0.55155         5.24627
     2022.40109         2.40149         5.28894
     2022.40383         3.18944         5.19316
     2022.40657         3.81638         5.16755
     2022.40930        -7.64467         5.31929
     2022.41204         3.59827         5.30032
     2022.41478        -0.95678         5.21023
     2022.41752         1.13616         5.38567
     2022.42026        11.34710         5.35438
     2022.42299        -0.45895         5.23868
     2022.42573         0.92299         5.26334
     2022.42847         2.04694         5.19790
     2022.43121         2.88188         5.30317
     2022.43394        14.08582         5.34584
     2022.43668         0.19877         5.19695
     2022.43942         2.57071         5.21687
     2022.44216        -0.99234         5.27756
     2022.44490        16.54360         5.36197
     2022.44763         6.62654         5.16755
     2022.45037         6.09949         5.17135
     2022.45311         1.22043         5.20833
     2022.45585         4.53338         5.27946
     2022.45859       -11.14668         5.18368
     2022.46132         2.01926         5.18652
     2022.46406         3.04421         5.15143
     2022.46680        -2.14185         5.18368
     2022.46954         1.70010         5.21971
     2022.47227       -12.74696         5.22825
     2022.47501         8.73598         5.19316
     2022.47775         5.40093         5.33920
     2022.48049         1.85687         5.18937
     2022.48323        12.50382         5.19885
     2022.48596        11.99176         5.16566
     2022.48870         0.31570         5.19411
     2022.49144        -2.40735         5.17799
     2022.49418         6.62359         5.32782
     2022.49692         2.71154         5.21213
     2022.49965        -3.85052         5.21782
     2022.50239       -10.62958         5.24722
     2022.50513        -0.89663         5.56396
     2022.50787         7.94831         5.52603
     2022.51060        -3.32074         5.39421
     2022.51334        -1.33080         5.24058
     2022.51608        -4.27485         5.30127
     2022.51882       -10.09791         5.23204
     2022.52156        -7.53597         5.21782
     2022.52429         6.80098         5.21213
     2022.52703         3.96292         5.24722
     2022.52977        12.41087         5.26523
     2022.53251        -2.35919         5.23394
     2022.53525        -5.89025         5.26713
     2022.53798        -1.60030         5.18368
     2022.54072        -2.49936         5.19316
     2022.54346         0.14859         5.20359
     2022.54620        -5.73347         5.17799
     2022.54893        -6.70653         5.14385
     2022.55167         1.06942         5.17514
     2022.55441         1.83836         5.17609
     2022.55715         5.31431         5.17893
     2022.55989        -2.49875         5.18368
     2022.56262        -0.41681         5.17799
     2022.56536       -15.90086         5.24816
     2022.56810         1.52708         5.19411
     2022.57084        -1.81597         5.18652
     2022.57357        12.58297         5.39611
     2022.57631        -7.48009         5.22161
     2022.57905        -6.71514         5.15617
     2022.58179         2.07480         5.19600
     2022.58453         2.65475         5.37050
     2022.58726        -7.34531         5.24627
     2022.59000         4.59663         5.27756
     2022.59274       -10.89442         5.15143
     2022.59548        -1.39748         5.23489
     2022.59822       -12.07353         5.22256
     2022.60095       -14.47659         5.16186
     2022.60369         1.40835         5.16661
     2022.60643        -3.41370         5.12203
     2022.60917        -2.21376         5.19221
     2022.61190         4.96919         5.21497
     2022.61464         4.99913         5.16092
     2022.61738         8.85107         5.13436
     2022.62012        -8.08898         5.11350
     2022.62286        -1.33304         5.12677
     2022.62559         2.24391         5.15807
     2022.62833        -2.29215         5.19695
     2022.63107         4.33680         5.20454
     2022.63381         7.29074         5.10307
     2022.63655         1.04968         5.11160
     2022.63928         7.11063         5.14954
     2022.64202         4.68557         5.58957
     2022.64476         8.72152         5.55733
     2022.64750         6.17146         5.24911
     2022.65023         0.82140         5.22351
     2022.65297         7.55935         5.26713
     2022.65571         8.72729         5.22540
     2022.65845         8.75524         5.17609
     2022.66119         8.71318         5.14669
     2022.66392         5.82712         5.11729
     2022.66666         4.78607         5.10970
     2022.66940        10.87201         5.13626
     2022.67214         6.31396         5.09453
     2022.67488         7.67990         5.12203
     2022.67761        11.99084         5.12393
     2022.68035        11.31579         5.16850
     2022.68309        12.15273         5.16471
     2022.68583        11.97368         5.38378
     2022.68856         7.76062         5.25480
     2022.69130        10.32056         5.24342
     2022.69404         6.31951         5.28041
     2022.69678        10.56445         5.27756
     2022.69952        -0.81860         5.28325
     2022.70225        10.92034         5.36481
     2022.70499        13.18528         5.35912
     2022.70773         2.26323         5.21592
     2022.71047         1.14417         5.11634
     2022.71321        11.25812         5.18462
     2022.71594         6.20706         5.18557
     2022.71868         5.07900         5.16850
     2022.72142         6.21295         5.09832
     2022.72416         1.81589         5.19885
     2022.72689         7.78784         5.21971
     2022.72963         6.45178         5.15143
     2022.73237         9.70373         5.20738
     2022.73511         9.68367         5.17514
     2022.73785         4.97461         5.10970
     2022.74058         7.31656         5.35533
     2022.74332        13.60750         5.34110
     2022.74606        13.44845         5.25480
     2022.74880        21.59539        12.23560
