# ================= DQRFIT RESULTS ================
# INPUT FILE: series/PCS2.rad
# OUTPUT: LDETRENDED
# FILTER FUNCTION: f(t)
# f(t)=+line(t)+annual(t)
# line(t)=+P 1+P 2*t
# annual(t)=+P 3*sin(2*pi*t+P 4)
# heav(t)=(t<0?0:1)
# TOTAL OBSERVATIONS MTOT= 2183
# INITIAL TIME INTERVAL= 2021.5136 - 2015.3030 =  6.2106
# TOTAL OBSERVATIONS AFTER PREFILTER M= 2174
# TIME-SPAN= 2021.5136 - 2015.3030 =  6.2106
# OBSERVATIONS: USED M=  2174 REJECTED MTOT-M=     9 %USED=   99.5877
# N=  4 PARAMETERS
# MAXSIG= 175.00000
# MAXRES=  21.71803
# SCALE FACTOR FOR LENGTHS: SCL=  10.00000
# SCALE FACTOR FOR SIGMAS: SCLSIG=   1.00000
# CHI^2=   2208.319 DOF=  2170 CHI^2/DOF=   1.01766
# RMS=      5.619 SDEV=      5.619 MEAN=   -0.09488
#  P #       PARAMETER +-    SIGMA %error PARAMETER NAME
# P 1 =      4829.90381 +-  134.719   2.79 YZERO                              
# P 2 =        -2.39686 +-    0.067   2.78 SLOPE                              
# P 3 =         4.20528 +-    0.169   4.02 ANNUAL AMPLITUDE                   
# P 4 =        -2.86088 +-    0.055   1.91 ANNUAL PHASE                       
#       T            LDETRENDED       SIG_OBS
     2015.30298        -2.32698        14.18158
     2015.30458        -7.94614         5.44041
     2015.30732        -5.23958         5.45554
     2015.31006       -14.61002         5.43234
     2015.31279        -5.41546         5.38392
     2015.31553        -9.25589         5.34558
     2015.31827       -10.24933         5.37181
     2015.32101        -6.02377         5.43839
     2015.32375       -13.72121         5.36374
     2015.32648        -7.02764         5.50396
     2015.32922        -5.05908         5.53019
     2015.33196         1.19948         5.37181
     2015.33470        -1.97296         5.40611
     2015.33744       -11.00640         5.36475
     2015.34017        -6.03883         5.41418
     2015.34291        -8.50727         5.37988
     2015.34565         0.11429         5.33953
     2015.34839        -1.31515         5.40207
     2015.35112        -9.32158         5.35567
     2015.35386        -4.82902         5.38997
     2015.35660        -3.38646         5.38190
     2015.35934        -8.51990         5.47874
     2015.36208        -2.26133         5.44041
     2015.36481        -4.43977         5.38089
     2015.36755        -4.22021         5.36172
     2015.37029        -4.83765         5.32440
     2015.37303        -6.48009         5.36172
     2015.37577        -1.50652         5.40712
     2015.37850        -7.71296         5.49791
     2015.38124        -7.34340         5.42326
     2015.38398       -10.26584         5.36777
     2015.38672        -6.68227         5.41620
     2015.38945        -4.22771         5.48580
     2015.39219         1.15085         5.34558
     2015.39493        -3.58259         5.36777
     2015.39767        -8.29903         8.16717
     2015.40041        -8.57746         5.43234
     2015.40314         0.18210         5.53523
     2015.40588        -3.54034         5.40106
     2015.40862        -4.47478         5.39501
     2015.41136        -0.20221         5.64317
     2015.41410        -8.13965         5.75212
     2015.41683        -6.62309         5.42023
     2015.41957        -7.51253         5.41115
     2015.42231         2.35503         5.38896
     2015.42505        -4.82640         5.53423
     2015.42778        -6.49784         5.42830
     2015.43052         1.33472         5.41519
     2015.43324        -1.41576         5.36576
     2015.43600         2.53785         5.39905
     2015.43874         1.21541         5.52817
     2015.44147        -3.34803         5.74405
     2015.44421        -2.62847         5.47168
     2015.44695        -6.12991         5.36273
     2015.44969        -4.28034         5.40510
     2015.45243         0.06222         5.52313
     2015.45516        -4.02722         5.41821
     2015.45790        -4.29566         5.73800
     2015.46064        -5.62409         5.64116
     2015.46338        -2.96453         5.55238
     2015.46611         1.60803         5.42528
     2015.46885         6.42159         5.48177
     2015.47159         2.17015         5.50295
     2015.47433        -3.87028         5.56045
     2015.47707        -0.06472         5.57962
     2015.47980         0.22784         5.55945
     2015.48254         3.69040         5.53927
     2015.48528        -2.36403         5.54230
     2015.48802        -4.73947         5.42830
     2015.49076        -1.76491         5.48883
     2015.49349         0.32365         5.57861
     2015.49623         0.33521         5.56449
     2015.49897        -2.99222         5.58466
     2015.50171         3.09834         5.40712
     2015.50444         0.06690         5.45453
     2015.50718        -3.14354         5.46462
     2015.50992         3.18503         5.59475
     2015.51266         3.69059         5.44444
     2015.51540        -1.63185         5.39602
     2015.51802         1.57645         5.68756
     2015.53550         0.81233        11.00187
     2015.53730        -1.73235         5.54028
     2015.54004         3.43021         5.59879
     2015.54277        -1.55523         5.60282
     2015.54551         9.92633         5.63712
     2015.54825         1.46290         5.58466
     2015.55099        -1.61254         5.54129
     2015.55373         6.59802         5.56348
     2015.55646        10.30258         5.56449
     2015.55920        12.45015         5.58265
     2015.56194         8.49271         5.58668
     2015.56468         0.31627         5.56348
     2015.56741         2.74783         5.46765
     2015.57015        11.17239         5.68252
     2015.57289         1.40596         5.75112
     2015.57563        -4.87748         5.54532
     2015.57837         3.84008         5.55037
     2015.58110         5.88264         5.58164
     2015.58384         7.93821         5.71177
     2015.58658         8.66277         5.58265
     2015.58932        -0.10667         5.68252
     2015.59206        -0.70711         5.59072
     2015.59479         6.08546         5.62098
     2015.59753         9.58402         5.68756
     2015.60027         8.02658         5.70673
     2015.60301        -2.81686         5.87015
     2015.60574         4.19770         5.77028
     2015.60848         1.24827         5.53019
     2015.61122        -1.83817         5.65629
     2015.61396         5.76039         5.55339
     2015.61670         7.21095         5.59475
     2015.61943         3.49952         5.55440
     2015.62217         3.77108         5.56348
     2015.62491        13.24464         5.41821
     2015.62765         6.97820         5.36475
     2015.63039         2.27576         5.41721
     2015.63312         7.26933         5.81366
     2015.63586        10.48689         5.64116
     2015.63860         0.98745         5.42931
     2015.64134         5.66601         5.42931
     2015.64407        -2.11042         5.38291
     2015.64681         4.60214         5.48278
     2015.64955         3.03870         5.43234
     2015.65229         5.79526         5.49186
     2015.65503         6.95582         5.42628
     2015.65776       -12.45961         5.78743
     2015.66050         2.22795         5.52515
     2015.66324        11.20851         5.36979
     2015.66598         8.71007         5.62502
     2015.66872         1.49164         5.66436
     2015.67145         5.61720         5.41821
     2015.67419         7.29476         5.40006
     2015.67693         7.40832         5.34558
     2015.67967        12.48688         5.50295
     2015.68240         6.92345         5.51708
     2015.68514        -1.38299         5.61695
     2015.68788         8.54557         5.46159
     2015.69062         7.16613         5.43637
     2015.69336         7.92770         5.55137
     2015.69609         7.32426         5.39905
     2015.69883         1.75482         5.89335
     2015.70157        12.37738         5.55440
     2015.70431        10.63794         5.39299
     2015.70705         2.36051         5.35970
     2015.70978         5.95307         5.53322
     2015.71252         4.38963         5.41519
     2015.71526         6.39919         5.39602
     2015.71800        12.07276         5.43335
     2015.72073        12.73932         5.52212
     2015.72307        11.67492         6.39271
     2015.72992        11.67533        10.16256
     2015.73169         4.31357         5.60081
     2015.73363       -10.45278         8.34572
     2015.73716         7.36169         5.40006
     2015.73990        14.68625         5.48177
     2015.74264        10.87682         5.55339
     2015.74538         7.04838         5.68857
     2015.74811         4.51094         5.59576
     2015.75085         3.20350         5.44444
     2015.75359         2.89006         5.45352
     2015.75633         8.90963         5.35567
     2015.75906        13.01819         5.39501
     2015.76180         5.57375         5.46664
     2015.76454        -2.72569         5.51203
     2015.76728         2.21888         5.56752
     2015.77002         5.39544         5.50194
     2015.77275         8.53200         5.60888
     2015.77549         0.70556         5.48479
     2015.77823        11.68912         5.42931
     2015.78097         8.02669         5.40712
     2015.78371         9.87325         5.39098
     2015.78644        10.29281         5.42528
     2015.78918        11.17737         5.42326
     2015.79192         3.13394         5.62502
     2015.79466         5.79950         5.42326
     2015.79739         5.93506         5.68252
     2015.80013         3.67562         5.68554
     2015.80287         6.20118         5.53120
     2015.80561         7.14275         5.43032
     2015.80835         2.66031         5.40914
     2015.81108         2.57787         5.52212
     2015.81382         4.20943         5.62703
     2015.81656         4.20900         5.74708
     2015.81930         4.87556         5.47975
     2015.82203         1.41712         5.60383
     2015.82477        10.66468         5.58466
     2015.82751         8.59125         5.71581
     2015.83036         9.32808         6.01239
     2015.83299       -10.27163         5.98011
     2015.83572         2.41193         5.58971
     2015.83846         0.76049         5.52817
     2015.84120         0.31406         5.51506
     2015.84394        -4.04738         5.49791
     2015.84668        -2.12282         5.52111
     2015.84941        -1.59026         5.58870
     2015.85215         0.33931         5.54734
     2015.85489         5.90187         5.49186
     2015.85763         0.86443         5.51909
     2015.86036        -4.32401         5.55945
     2015.86310        -0.08645         5.50598
     2015.86584        -2.59388         5.55541
     2015.86858         2.36468         5.55339
     2015.87132         2.18324         5.59778
     2015.87405        -2.93120         5.58164
     2015.87679       -10.11963         5.68857
     2015.87953        -4.36007         5.64721
     2015.88227        -3.07651         5.54129
     2015.88501        -6.35295         5.48177
     2015.88774         3.40861         5.48681
     2015.89048         4.35118         5.52716
     2015.89322         4.33074         5.46966
     2015.89596        -0.88070         5.49892
     2015.89869        -0.23014         5.45857
     2015.90143        -1.52057         5.45150
     2015.90417        -3.01301         5.45352
     2015.90691         0.21755         5.44243
     2015.90965         0.12511         5.53120
     2015.91238         0.69067         5.61392
     2015.91512        -4.34776         5.44343
     2015.91786        -4.71320         5.50497
     2015.92060        -0.67464         5.56247
     2015.92334        -1.77808         5.50699
     2015.92607       -10.27351         5.49387
     2015.92881       -10.59995         5.62199
     2015.93155        -6.48139         5.75919
     2015.93429         2.37217         6.28577
     2015.93702        -6.02027         5.98515
     2015.93976         3.56630         5.88730
     2015.94250        -5.80314         5.75919
     2015.94524         0.67642         5.62098
     2015.94798         1.48898         5.85502
     2015.95071        -5.49445         5.53221
     2015.95345        -6.32589         5.45453
     2015.95619        -0.30533         5.53523
     2015.95893        -5.34277         5.65932
     2015.97091        -3.91206        11.28332
     2015.97262         1.59504         5.48076
     2015.97535        -2.84639         5.62804
     2015.97809        -2.74483         5.49589
     2015.98083         0.81573         5.48782
     2015.98357        -9.75271         5.48883
     2015.98631        -7.45315         5.54028
     2015.98904        -3.41958         5.48379
     2015.99178        -8.90402         5.49690
     2015.99452        -6.71646         5.47572
     2015.99726        -2.18190         5.44747
     2016.00000        -2.06033         5.44545
     2016.00273        -5.72977         5.40308
     2016.00547        -2.98021         5.53322
     2016.00821         8.77335         5.79449
     2016.01095        -0.09909         5.54230
     2016.01368        -3.69252         5.51708
     2016.01642        -6.34096         5.60081
     2016.01916        -4.67940         5.73901
     2016.02190        -3.66784         5.60383
     2016.02464        -0.22527         5.53120
     2016.02737        -1.19671         5.65225
     2016.03011       -10.33515         5.64822
     2016.03285        -6.64559         5.48177
     2016.03559        -0.44703         5.49791
     2016.03833        -2.42646         5.62502
     2016.04106        -1.82890         5.52111
     2016.04380        -3.46634         5.48782
     2016.04654        -6.97978         5.51102
     2016.04928        -5.81121         5.42628
     2016.05201       -14.45065         5.58164
     2016.05475        -3.54609         5.41721
     2016.05749        -7.80153         5.52716
     2016.06023        -1.41996         5.44747
     2016.06297        -2.48740         5.42528
     2016.06570        -3.69184         5.55339
     2016.06844        -6.35528         5.65528
     2016.07118        -7.83772         5.53019
     2016.07392        -3.19215         5.69664
     2016.07666        -2.13959         5.72590
     2016.07939         8.57797         5.57760
     2016.08213        -6.58647         5.63611
     2016.08487        -1.98990         5.50295
     2016.08761        -5.66334         5.61594
     2016.09034        -5.33678         5.51304
     2016.09308       -13.64722         5.53523
     2016.09542       -16.99661         6.46433
     2016.10483       -15.93206         8.52630
     2016.10677       -12.02641         5.47773
     2016.10951        -8.40184         5.75717
     2016.11225        -7.72128         5.51909
     2016.11498       -12.12072         5.64822
     2016.11772       -14.34916         5.52615
     2016.12046       -14.90860         5.47067
     2016.12320        -8.76603         5.52111
     2016.12594        -5.64747         5.50396
     2016.12867         3.24809         5.48681
     2016.13141         5.65965         5.48076
     2016.13415        -0.92078         5.60081
     2016.13689        -7.40922         5.48883
     2016.13963        -5.96166         5.51304
     2016.14236       -14.14710         5.42729
     2016.14510        -7.81054         5.41620
     2016.14784        -3.09597         5.44444
     2016.15058        -4.34941         5.41519
     2016.15331        -1.79485         5.64620
     2016.15605       -12.14029         5.44142
     2016.15811       -13.43835         8.24787
     2016.16244        -4.07697        10.24225
     2016.16427        -4.85460         5.66436
     2016.16700        -1.79004         5.66839
     2016.16974        -4.67448         5.53120
     2016.17248       -11.88591         5.58971
     2016.17522        -6.90635         5.62401
     2016.17796         2.23521         5.57760
     2016.18069        -3.02723         5.60988
     2016.18343        -3.30166         5.66839
     2016.18617        -3.96210         5.46966
     2016.18891         1.79446         5.48076
     2016.19164        -1.59198         5.44747
     2016.19438         1.96158         5.51607
     2016.19712        -3.00485         5.36777
     2016.19986        -0.20829         5.52716
     2016.20260       -12.16673         5.56348
     2016.20533        -9.10717         5.63712
     2016.20807        -6.53560         5.59475
     2016.21081        -1.11004         5.50396
     2016.21355        -2.47748         5.43335
     2016.21629        -5.59392         5.49387
     2016.21902        -6.04536         5.43536
     2016.22176        -4.84979         5.41418
     2016.22450       -11.24223         5.33751
     2016.22724        -9.24067         5.46058
     2016.22997        -7.80311         5.33247
     2016.23271        -4.73154         5.37383
     2016.23545        -5.25898         5.48883
     2016.23819        -4.24842         5.35365
     2016.24093         0.79814         5.40712
     2016.24366        -0.96130         5.34861
     2016.24640         2.70127         5.31633
     2016.24914         1.66383         5.34659
     2016.25188        -2.75361         5.43436
     2016.25462        -0.91505         5.38190
     2016.25735        -5.71948         5.52010
     2016.26009        -7.62392         5.38190
     2016.26283        -5.71736         5.42225
     2016.26557         4.05620         5.37484
     2016.26830         0.57976         5.36878
     2016.27104        -2.94667         5.33751
     2016.27378         3.88289         5.39400
     2016.27652        -3.66455         5.47773
     2016.27926        -6.85999         5.42729
     2016.28142       -22.99279         7.15939
     2016.28815        -9.34166         8.29932
     2016.29021        -4.69874         5.41821
     2016.29295        -1.83818         5.40510
     2016.29568         1.61739         5.46159
     2016.29842         0.85095         5.50800
     2016.30116         0.35051         5.50295
     2016.30390        -6.86393         5.58466
     2016.30663         0.68264         5.55743
     2016.30937        -1.87180         5.43839
     2016.31211        -8.23324         5.43234
     2016.31485         1.18932         5.42628
     2016.31759        -2.53911         5.38795
     2016.32032        -9.00755         5.44848
     2016.32306       -10.69499         5.40409
     2016.32580        -6.60743         5.36777
     2016.32854         1.68913         5.38795
     2016.33128         2.85770         5.37282
     2016.33401         5.10326         5.48379
     2016.33675         1.86682         5.49690
     2016.33949        -1.74162         5.61493
     2016.34223         1.75195         5.42023
     2016.34496         6.72551         5.54230
     2016.34770         4.38807         5.47269
     2016.35044        -1.45437         5.72489
     2016.35318        -2.27981         5.36374
     2016.35592        -1.72224         5.33348
     2016.35865        -1.10768         5.36475
     2016.36133         2.37374         5.51405
     2016.36413         5.31944         5.38593
     2016.36687        -1.05299         5.51001
     2016.36961         4.05357         5.40308
     2016.37234         8.17013         5.43738
     2016.37508         8.02269         5.37181
     2016.37782        -1.44675         5.44444
     2016.38056         4.03582         5.52615
     2016.38329         0.40238         5.33045
     2016.38603        -3.78206         5.33045
     2016.38877         6.54850         5.43940
     2016.39151         2.06707         5.35264
     2016.40200         2.37922         6.73670
     2016.41438        -4.40011        10.65787
     2016.41615        -2.11487         5.53523
     2016.41889        -6.34931         5.35466
     2016.42162        -2.38375         5.45251
     2016.42436        -7.22419         5.38190
     2016.42710         3.25437         5.42124
     2016.42984         2.24694         5.44343
     2016.43258         1.56550         5.38291
     2016.43531         3.48106         5.50396
     2016.43805         4.07862         5.38190
     2016.44079        -1.89081         5.40106
     2016.44353        -7.32725         5.43234
     2016.44626        -3.33169         5.43032
     2016.44900        -1.98413         5.32541
     2016.45174        -4.61157         5.41721
     2016.45448         4.61800         5.37484
     2016.45722        -0.25144         5.37181
     2016.45995         6.94712         5.51506
     2016.46269        -0.84132         5.39098
     2016.46543        -1.84175         5.36475
     2016.46822         5.22594         5.62502
     2016.47096         0.28551         5.44444
     2016.47370        -2.49693         5.48580
     2016.47644        -1.79137         5.60888
     2016.47918         1.05619         5.56752
     2016.48191         0.66376         5.43133
     2016.48465         6.57932         5.40611
     2016.48739         0.31388         5.65528
     2016.49013        -1.15756         5.51405
     2016.49287         1.30800         5.46159
     2016.49560         0.06257         5.44243
     2016.49828        -0.70201         5.34962
     2016.50102         5.67755         5.41519
     2016.50376         7.48812         5.60484
     2016.50650        -3.71032         5.49892
     2016.50924         0.11624         5.41418
     2016.51197         0.84980         5.35264
     2016.51477         4.18550         5.48580
     2016.51751        -7.45394         5.72489
     2016.52024        -9.96137         6.70140
     2016.52298        -6.42681         5.56247
     2016.52572         0.31875         5.41115
     2016.52846         0.32231         5.41317
     2016.53120         0.67488         5.45756
     2016.53393        -3.43256         5.49286
     2016.53667         0.19600         5.68050
     2016.53941         7.44156         5.37484
     2016.54215         2.18113         5.36071
     2016.54488         8.00969         5.46159
     2016.54762        -1.03675         5.52111
     2016.55036         0.30281         5.63006
     2016.55310         4.68037         5.47672
     2016.55586         3.35800         5.68958
     2016.55857         2.63450         5.40914
     2016.56131         3.06206         5.53322
     2016.56405        -4.72738         5.66335
     2016.56679         4.78319         5.66940
     2016.56953         0.24875         5.59173
     2016.57226         5.41131         5.42931
     2016.57500         6.12487         5.59879
     2016.57774         5.33843         5.50497
     2016.58048        -1.52200         5.49186
     2016.58321        -0.79644         5.40712
     2016.58595         2.52112         5.40813
     2016.58869        -3.10332         5.42830
     2016.59137         0.38711         5.33045
     2016.59411        -0.98633         5.39905
     2016.59685         8.27923         5.31633
     2016.59958         6.11280         5.47773
     2016.60232         7.01336         5.37181
     2016.60506        -8.74108         5.56348
     2016.60780         5.09048         5.40106
     2016.61054         7.85304         5.29918
     2016.61327         1.24461         5.32137
     2016.61601         0.52517         5.37988
     2016.61875         7.04673         5.34760
     2016.62149         4.31429         5.34659
     2016.62423        14.10686         5.36979
     2016.62696         8.34142         5.39199
     2016.62970         5.90398         5.38392
     2016.63244         5.61954         5.45251
     2016.63518         8.81210         5.27497
     2016.63791        13.03967         5.39804
     2016.64060        14.16909         5.63107
     2016.64339         6.06779         5.58265
     2016.64613         7.09935         5.34558
     2016.64887        -0.03808         5.35567
     2016.65160         9.10848         5.43234
     2016.65434         8.40004         5.42225
     2016.65708         1.87660         5.34457
     2016.65982         6.00416         5.35063
     2016.66256         0.13173         5.32843
     2016.66529         0.25629         5.50295
     2016.66803         5.98385         5.39703
     2016.67077         6.57041         5.57659
     2016.67351         3.15998         5.35063
     2016.67624        10.55854         5.32440
     2016.67898         4.71810         5.32944
     2016.68172         8.20266         5.45857
     2016.68446        10.49722         5.53523
     2016.68720         7.50479         5.70269
     2016.68993         7.77535         5.39199
     2016.69267        10.53891         5.28102
     2016.69541         4.74947         5.44444
     2016.69815        10.62404         5.31027
     2016.70089        12.80360         5.26690
     2016.70362         5.68216         5.41418
     2016.70636         7.76572         5.56953
     2016.70910         9.41128         5.64721
     2016.71184        11.91885         5.45050
     2016.71457         8.20341         5.47471
     2016.71731         6.10097         5.27799
     2016.72005        12.26753         5.31734
     2016.72279         5.92510         5.32339
     2016.72553         9.16166         5.50598
     2016.72826         3.54022         5.53423
     2016.73100        -1.58822         5.34256
     2016.73374         7.73234         5.37383
     2016.73648        11.97191         5.31128
     2016.73921         7.17947         5.61392
     2016.74195        10.84803         5.32843
     2016.74469         5.44059         5.38291
     2016.74743        -0.09584         5.29212
     2016.75017         4.67272         5.38089
     2016.75290         3.53628         5.49387
     2016.75564         8.04784         5.77533
     2016.75838         8.10440         5.48076
     2016.76112         3.20697         5.47168
     2016.76386         3.29553         5.34356
     2016.76659         1.92409         5.46966
     2016.76933        -1.41835         5.42326
     2016.77207         8.61122         5.53019
     2016.77481         8.56978         5.48379
     2016.77754         4.89634         5.29514
     2016.78028         2.88190         5.36979
     2016.78302        -0.10253         5.38190
     2016.78576         2.24103         5.56146
     2016.78850         9.69259         5.45957
     2016.79123         8.08615         5.44444
     2016.79397        -0.11129         5.47874
     2016.79671         0.10328         5.35163
     2016.79945        -8.80416         5.35365
     2016.80219         4.60940         5.47067
     2016.80492        -1.45104         5.56247
     2016.80766         2.98953         5.36979
     2016.81040        -6.80691         5.46361
     2016.81314        -0.49935         5.40914
     2016.81587        -4.68879         5.38190
     2016.81861        -3.71323         5.39703
     2016.82135        -0.71366         5.37585
     2016.82409        -2.49810         5.84796
     2016.82683         0.08246         5.32641
     2016.82956        -3.80898         5.29514
     2016.83230        -8.08741         5.40308
     2016.83504        -5.79185         5.37484
     2016.83778         0.33571         5.37383
     2016.84052         1.44627         5.48681
     2016.84325        -1.90817         5.33852
     2016.84599       -13.08560         5.52414
     2016.84873        -2.06404         6.49157
     2016.85147        -1.93748         5.38190
     2016.85420         1.96208         5.43133
     2016.85694         6.90165         5.45251
     2016.85974        -1.86666         5.57256
     2016.86242        -3.70823         5.41115
     2016.86516         3.76933         5.57760
     2016.86789         9.05089         5.54633
     2016.87063        -0.20554         5.39501
     2016.87337         6.53702         5.63107
     2016.87611        -3.90842         5.39199
     2016.87885        -7.24786         5.33247
     2016.88158        -6.80029         5.37282
     2016.88432         3.30527         5.37080
     2016.88706         2.52383         5.44243
     2016.88980         1.19039         5.41418
     2016.89253        -5.03305         5.36071
     2016.89527       -10.01748         5.90849
     2016.89801        -3.58292         5.33448
     2016.90075        -8.61336         5.33953
     2016.90349        -4.64380         5.48580
     2016.90622         0.90177         5.49387
     2016.90896        -2.37767         5.53322
     2016.91170        -5.30811         5.34659
     2016.91444        -8.30155         5.61795
     2016.91718        -8.39199         5.48580
     2016.91991       -14.29342         5.49690
     2016.92265       -10.66486         5.45554
     2016.92539        -4.37830         5.38392
     2016.92813        -9.75774         5.53725
     2016.93086        10.23883         5.57357
     2016.93360        -3.50161         5.35769
     2016.93634        12.01795         5.58265
     2016.93908        17.46751         5.73296
     2016.94182        -1.66493         5.42830
     2016.94455        -9.08036         5.49286
     2016.94729        -2.10280         5.48076
     2016.95003       -10.13224         5.44444
     2016.95277        -2.56068         5.66436
     2016.95551        -3.25311         5.33751
     2016.95824        -2.53355         5.35769
     2016.96098        -2.89099         5.36071
     2016.96372        -6.01343         5.31734
     2016.96646        -7.98687         5.41519
     2016.96919         6.79470         6.01945
     2016.97170        -6.63129         5.95993
     2016.98327        -2.48256         6.30595
     2016.98562        -1.21193         5.42628
     2016.98836        -5.79837         5.50699
     2016.99110        -0.09781         5.38795
     2016.99384         0.54576         5.42326
     2016.99657        -6.67268         5.40106
     2016.99931         1.08688         5.37282
     2017.00205         3.17244         5.47067
     2017.00479        -0.16999         5.43436
     2017.00752        -6.26243         5.36071
     2017.01015        -5.02414         5.84594
     2017.03490        -5.94581         5.32944
     2017.03764        -3.21925         5.32339
     2017.04038        -6.42068         5.51001
     2017.04312        -2.12412         5.33045
     2017.04585         4.81444         5.61392
     2017.04859        -6.33700         5.78844
     2017.05133         4.73156         5.48681
     2017.05281        11.67212        22.17624
     2017.06616        -7.40589        12.72589
     2017.06776        -1.59006         5.41014
     2017.07049        -5.74250         5.42628
     2017.07323        -6.49894         6.49056
     2017.07597        -7.75338         5.31128
     2017.07871        -6.58181         5.40207
     2017.08145        -6.45825         5.40611
     2017.08418        -6.02369         5.37484
     2017.08692        -4.05813         5.36172
     2017.08966        -0.28856         5.29514
     2017.09240        -7.42399         5.41922
     2017.09514         1.69256         5.39905
     2017.09787        -5.94588         5.42427
     2017.10061        -1.18332         5.46765
     2017.10335        -8.61375         5.45251
     2017.10609        -2.35419         5.36071
     2017.10882         2.31337         5.52414
     2017.11156         0.24593         5.51909
     2017.11430        -7.65950         5.37685
     2017.11704       -14.92094         5.33751
     2017.11978         0.78162         5.30624
     2017.12251        -4.98882         5.40611
     2017.12531        -9.57712         5.53221
     2017.12805        -1.04656         5.52414
     2017.13078        -0.73999         5.42830
     2017.13347         2.31143         5.33348
     2017.13620        -3.89501         5.36576
     2017.13894        -1.06844         5.36979
     2017.14168       -11.16988         5.37685
     2017.14442       -12.35032         5.37080
     2017.14715       -10.99076         5.31734
     2017.14989        -3.53420         5.55844
     2017.15263        -1.81463         5.59274
     2017.15537        -6.01207         5.48782
     2017.15811        -0.60751         5.50396
     2017.16084        -2.70195         5.35668
     2017.16358       -10.31738         5.32339
     2017.16632        -9.94782         5.49690
     2017.16911        -3.02912         5.53423
     2017.17185        -5.08556         5.53423
     2017.17459       -12.91900         5.60181
     2017.18001        -4.44101         5.38392
     2017.18275         0.81255         5.44848
     2017.18548        -7.41289         5.43436
     2017.18822        -9.29232         5.51304
     2017.19096        -6.84676         5.48782
     2017.19370        -1.34220         5.36677
     2017.19644         0.02036         5.43940
     2017.19917        -5.23308         5.51506
     2017.20191        -9.96551         5.42830
     2017.20465        -5.90795         5.54230
     2017.20739        -4.41639         5.35466
     2017.21013         5.01617         5.47067
     2017.21286         0.17574         5.34962
     2017.21560        -7.52570         5.50194
     2017.21834         0.32786         5.43133
     2017.22108         0.48342         5.36374
     2017.22381        -1.30402         5.46765
     2017.22655        -1.00945         5.51001
     2017.22929        -7.79489         5.38593
     2017.23203        -9.35133         5.40611
     2017.23477        -7.66277         5.34457
     2017.23750        -0.33820         5.39501
     2017.24024        -7.91064         5.48580
     2017.24298         2.19792         5.46664
     2017.24572        -2.60152         5.39098
     2017.24846       -11.17195         5.41115
     2017.25119        -1.02439         5.35870
     2017.25393         0.75117         5.32541
     2017.25667        -3.87327         5.36979
     2017.25941        -5.64971         5.62098
     2017.26186        -7.57983         5.97204
     2017.26581         2.01665        10.18374
     2017.26762        -4.29502         5.47773
     2017.27036         1.69754         5.52414
     2017.27310        -9.03989         5.48681
     2017.27566       -11.04074         5.72993
     2017.29317       -22.22577        10.02637
     2017.29500        -8.89440         5.43536
     2017.29871       -10.24351        10.41879
     2017.30047       -10.39127         5.43133
     2017.30321        -6.43271         5.37080
     2017.30595         0.24085         5.46865
     2017.30869        -3.84459         5.33146
     2017.31143        -9.18902         5.35870
     2017.31416       -11.15046         5.40207
     2017.31690        -9.33290         5.43335
     2017.31964       -11.96134         5.57155
     2017.32238       -11.85377         5.47269
     2017.32512        -6.92721         5.37988
     2017.32785        -4.49365         5.37383
     2017.33059        -7.14109         5.35365
     2017.33333        -7.96953         5.33751
     2017.33607        -9.50496         5.33045
     2017.33880        -4.14940         5.36878
     2017.34154        -3.35884         5.72590
     2017.34428        -6.80728         5.32843
     2017.34702        -1.86871         5.37383
     2017.34976        -4.18515         5.37080
     2017.35249        -7.38959         5.29918
     2017.35523        -7.43403         5.35466
     2017.35797       -11.37947         5.50598
     2017.36071       -11.21290         5.37585
     2017.36344       -13.71434         5.46260
     2017.36618        -6.43978         5.33549
     2017.36892        -4.87022         5.38492
     2017.37166       -10.06665         5.40106
     2017.37440        -5.89809         5.35970
     2017.37713        -5.29853         5.46664
     2017.37987       -10.07297         5.46765
     2017.38261       -11.05741         5.39199
     2017.38535         0.88816         5.40813
     2017.38809        -0.69428         5.33650
     2017.39082        -5.29272         5.41115
     2017.39359        -0.02409         5.62603
     2017.39630        -1.28859         5.35063
     2017.39904         3.60397         5.31834
     2017.40177        -0.41547         5.38291
     2017.40451         0.84009         5.50094
     2017.40725        -4.92435         5.38694
     2017.40999        -6.30978         5.41418
     2017.41273         1.45478         5.31734
     2017.41546        -8.98466         5.41418
     2017.41820         2.65590         5.46462
     2017.42094        -0.28353         5.41216
     2017.42368        -1.25397         5.36172
     2017.42642        -2.22541         5.31229
     2017.42915         2.05315         5.42729
     2017.43189         0.75671         5.47370
     2017.43463        -3.69172         5.39400
     2017.43737        -3.20316         5.40006
     2017.44010        -0.30860         5.52515
     2017.44284        -4.08104         5.43536
     2017.44558        -1.63647         5.41721
     2017.44917        -3.50186         9.51996
     2017.45191         0.33270         9.45237
     2017.45379         1.52521         5.58366
     2017.45653         2.44177         5.63813
     2017.45927         1.52634         5.41519
     2017.46201         7.70490         5.41922
     2017.46475         7.06046         5.46462
     2017.46748        -8.10798         5.70875
     2017.47022         1.15559         5.47975
     2017.47296         6.38815         5.41821
     2017.47570        -6.28529         5.46563
     2017.47843        -0.89973         5.40106
     2017.48117        -2.02316         5.36677
     2017.48391        -5.27760         5.70774
     2017.48665        -2.65804         5.40611
     2017.48939         5.06652         5.33348
     2017.49212        -2.29392         5.36677
     2017.49486        -2.86835         5.40611
     2017.49760        -1.38779         5.39602
     2017.50034        -4.20623         5.38795
     2017.50308        -3.09667         5.40510
     2017.50581         1.90390         5.39703
     2017.50855        -6.41054         5.56348
     2017.51129        -4.83498         5.48984
     2017.51403        -2.25742         5.43839
     2017.51676        -4.10686         5.43335
     2017.51950        -6.10729         5.51607
     2017.52224         4.37227         5.51909
     2017.52498        -6.86217         5.43133
     2017.52772        -2.92461         5.51304
     2017.53045        -6.22404         5.39804
     2017.53319        -3.14348         5.39804
     2017.53593         2.25208         5.39400
     2017.53867         3.42464         5.46966
     2017.54141         4.47420         5.36374
     2017.54414        -0.19623         5.37282
     2017.54688         6.04433         5.44243
     2017.54962        -0.49711         5.38593
     2017.55236        -2.70955         5.48479
     2017.55509         5.24202         5.47269
     2017.55783         3.11558         5.43234
     2017.56057         2.41214         5.48479
     2017.56331        -2.17530         5.40006
     2017.56605         4.65326         5.38593
     2017.56878         0.44983         5.37383
     2017.57152         5.06139         5.33549
     2017.57426        -1.88605         5.35567
     2017.57700         2.92851         5.36374
     2017.57974         3.14608         5.33953
     2017.58247         1.52564         5.35769
     2017.58521        -3.06280         5.38997
     2017.58795         2.61476         5.47269
     2017.59069         5.31732         5.47168
     2017.59342         0.86489         5.45251
     2017.59616         1.29045         5.37988
     2017.59890         6.62501         5.39703
     2017.60164         4.02657         5.36273
     2017.60438        -2.98286         5.43536
     2017.60711         4.87270         5.48883
     2017.60985         1.04726         5.60081
     2017.61259         1.10882         5.46058
     2017.61533        12.57938         5.63813
     2017.61807         3.75695         5.46159
     2017.62080        -0.69449         5.37484
     2017.62354        10.78207         5.47672
     2017.62628        -2.19037         5.58366
     2017.62902         0.96120         5.71278
     2017.63175        -6.08224         5.43335
     2017.63449         2.59532         5.35970
     2017.63723         9.53888         5.41620
     2017.63997         4.98144         5.51001
     2017.64271        11.69701         5.41418
     2017.64544         2.86357         5.48883
     2017.64818         7.62013         5.42729
     2017.65092         8.38469         5.38392
     2017.65366         7.85926         5.36273
     2017.65639         6.74182         5.48479
     2017.65913         6.65138         5.42830
     2017.66187         3.89994         5.36979
     2017.66461         3.22950         5.48177
     2017.66735         9.57507         5.46865
     2017.67008        12.19963         5.33549
     2017.67282        13.39019         5.62300
     2017.67556         4.50475         5.38694
     2017.67830         5.29132         5.39804
     2017.68104         7.05788         5.39299
     2017.68377        10.42344         5.81063
     2017.68651         8.52300         5.56348
     2017.68925         4.64256         6.28577
     2017.69199         3.23813         5.41418
     2017.69472         6.53969         5.37484
     2017.69746        10.41425         5.48177
     2017.70020        13.07881         5.52111
     2017.70294        17.40638         5.64317
     2017.70568         1.69094         5.51405
     2017.70841         6.99550         5.35769
     2017.71115         8.19506         5.59374
     2017.71389         4.94763         5.53927
     2017.71663         5.88319         5.73699
     2017.71937         3.78575         5.59173
     2017.72210         4.29031         5.45453
     2017.72484        -1.31213         5.40409
     2017.72758         6.13444         5.39703
     2017.73032         8.10700         5.37383
     2017.73305        11.30456         5.39905
     2017.73579         3.91512         5.40611
     2017.73853         3.90969         5.34861
     2017.74127         5.58125         5.36374
     2017.74401        17.09981         5.65225
     2017.74674         5.86537         5.44545
     2017.74948        11.07593         5.48984
     2017.75222         6.90250         5.33247
     2017.75496         3.15806         5.33650
     2017.75770         5.04862         5.45655
     2017.76043         7.26018         5.37887
     2017.76317         8.47775         5.43032
     2017.76591         7.87431         5.56247
     2017.76865        10.81187         5.55238
     2017.77138         0.49643         5.35365
     2017.77412         0.82099         5.53019
     2017.77686        -5.40344         5.49085
     2017.77960         2.96512         5.50699
     2017.78234        -0.58632         5.46159
     2017.78507         0.30424         5.31834
     2017.78781         3.01081         5.35264
     2017.79055        -1.46963         5.32742
     2017.79329         2.13193         5.44545
     2017.79603         9.04049         5.43637
     2017.79876        12.86505         5.58971
     2017.80150         2.09362         5.55339
     2017.80424         9.69518         5.38896
     2017.80698        -4.77426         5.61695
     2017.80971        -0.95270         5.36374
     2017.81245        -2.00313         5.31532
     2017.81519        -0.09657         5.46462
     2017.81793         3.73699         5.35769
     2017.82067         4.64255         5.44646
     2017.82340         2.06911         5.32440
     2017.82614        -0.21432         5.31532
     2017.82888         3.23024         5.32843
     2017.83162         7.64680         5.31330
     2017.83436         3.90536         5.36979
     2017.83709       -10.75707         5.65629
     2017.83983        -5.64951         5.38795
     2017.84257        -3.64795         5.34155
     2017.84531        -7.20939         5.42023
     2017.84804        -5.98383         5.34962
     2017.85078        -2.42426         5.66537
     2017.85352        -1.80770         5.43839
     2017.85626        -3.11614         5.69664
     2017.85900         0.02942         5.45756
     2017.86173         4.16799         5.64015
     2017.86447         4.43955         5.32137
     2017.86721         3.18611         5.58466
     2017.86995        -5.80933         5.45251
     2017.87269         0.21823         5.34155
     2017.87542        -3.70820         5.35264
     2017.87816         0.54936         5.51203
     2017.88090         1.67092         5.33549
     2017.88364        -0.62552         5.35365
     2017.88637         0.29205         5.57659
     2017.88911        -1.94639         5.46159
     2017.89185        -5.76983         5.70068
     2017.89459         8.02873         5.64317
     2017.89733         1.99529         5.35870
     2017.90006        -7.04914         5.41115
     2017.90280        -0.22358         5.70673
     2017.90554         0.57098         5.40611
     2017.90828        -1.78646         5.47471
     2017.91102         2.50111         5.44848
     2017.91375        -1.81333         5.49993
     2017.91649        -0.25977         5.34861
     2017.91923        -4.39121         5.37786
     2017.92197         0.52835         5.36677
     2017.92470         1.76892         5.36777
     2017.92744        -7.38152         5.37181
     2017.93018        -1.31196         5.32742
     2017.93292        -5.66040         5.38291
     2017.93566        -5.63883         5.36677
     2017.93839        -2.33227         5.33751
     2017.94113        -1.63371         5.40914
     2017.94387        -2.73615         5.36273
     2017.94661         0.88742         5.37887
     2017.94935        -3.17402         5.39098
     2017.95207        -1.96349         5.53927
     2017.95482         3.14310         5.46260
     2017.95756        -0.59334         5.41418
     2017.96030         1.44223         5.39199
     2017.96303         2.33479         5.36475
     2017.96577         5.53735         5.53322
     2017.96851         1.57991         5.44243
     2017.97125        -4.52352         5.27497
     2017.97399         4.09604         5.34155
     2017.97672        -7.87040         5.30926
     2017.97946        -4.33184         5.35870
     2017.98220       -11.54828         5.36576
     2017.98494        -4.81271         5.31027
     2017.98767        -7.90015         5.34558
     2017.99041        -5.56459         5.35264
     2017.99315         0.92897         5.46260
     2017.99589        -2.24146         5.52313
     2017.99863        -0.47890         5.30826
     2018.00136        -8.15534         5.33045
     2018.00410        -1.04278         5.34457
     2018.00684        -7.03722         5.31128
     2018.00958        -3.55565         5.39501
     2018.01232        -7.37809         5.36576
     2018.01505        -6.66053         5.36979
     2018.01779         0.55303         5.34054
     2018.02053        -1.63340         5.38190
     2018.02327        -3.92584         5.33751
     2018.02600         0.96972         5.48479
     2018.02874        -6.12572         5.58567
     2018.03148        -3.43016         5.40813
     2018.03422        -4.05559         5.38089
     2018.03696        -9.99503         5.31734
     2018.03969        -3.61947         5.43738
     2018.04243       -14.29091         5.42427
     2018.04517        -5.36634         5.35970
     2018.04791        -2.54478         5.49286
     2018.05065        -1.34422         5.35668
     2018.05338        -6.28566         5.34558
     2018.05612         3.25190         5.46159
     2018.05886        -5.16753         5.36172
     2018.06160        -1.74997         5.35063
     2018.06433        -4.78141         5.48883
     2018.06707        -2.29685         5.54734
     2018.06981       -11.13628         5.43436
     2018.07255        -7.34872         5.54230
     2018.07529       -16.93716         5.52414
     2018.07802        -1.72460         5.55844
     2018.08076        -9.33004         5.66032
     2018.08350        -2.80947         5.42326
     2018.08624        -6.26591         5.46260
     2018.08898       -13.31735         5.63611
     2018.09171         3.15821         5.48984
     2018.09445        -3.47222         5.47672
     2018.09719        -2.94966         5.54532
     2018.09993        -2.58310         5.43436
     2018.10266       -10.59654         5.46966
     2018.10540        -6.00298         5.53725
     2018.10814         2.38159         5.40914
     2018.11088        -0.24285         5.41014
     2018.11362        -3.77029         5.44747
     2018.11635         0.43327         5.46462
     2018.11909        -5.43916         5.56449
     2018.12183         1.02340         5.58567
     2018.12457        -0.07804         5.41014
     2018.12731        -5.97348         5.43536
     2018.13004         2.80808         5.55541
     2018.13278        -0.11435         5.64721
     2018.13552         2.25121         5.40207
     2018.13826         0.59977         5.36979
     2018.14099        -5.24267         5.41620
     2018.14373        -5.16710         5.45050
     2018.14647         0.43346         5.75011
     2018.14921       -12.31498         5.65125
     2018.15195        -0.77842         5.45957
     2018.15468         2.31014         5.44142
     2018.15742         0.98171         5.40510
     2018.16016        -7.17473         5.43839
     2018.16290        -8.86617         5.60484
     2018.16564        -5.11761         5.50901
     2018.16837        -0.83004         5.43133
     2018.17111        -0.23948         5.40510
     2018.17385        -6.41892         5.42931
     2018.17659        -3.01136         5.45453
     2018.17932        -1.96979         5.42729
     2018.18206        -3.08223         5.68958
     2018.18480         0.51233         5.50699
     2018.18754        -3.23811         5.39905
     2018.19028        -0.39255         5.42225
     2018.19301        -1.08198         5.41922
     2018.19575         1.96858         5.48883
     2018.19849         1.46914         5.51808
     2018.20123         2.01970         5.49791
     2018.20397         5.30827         5.39299
     2018.20670        -0.21517         5.39804
     2018.20944        -0.64861         5.47370
     2018.21218        -3.98505         5.43234
     2018.21492       -10.28849         5.42023
     2018.21765        -0.05592         5.34962
     2018.22039         0.50764         5.37383
     2018.22587       -12.88724         5.34155
     2018.22861        -4.12967         5.39199
     2018.23134        -9.57211         5.34155
     2018.23408        -7.57955         5.39703
     2018.23682        -0.76299         5.33247
     2018.23944        -6.44970         5.57861
     2018.24230        -5.15186         5.41418
     2018.24503        -1.58530         5.32238
     2018.24777        -2.96674         5.43436
     2018.25051         4.74782         5.41216
     2018.25325         1.32139         5.39501
     2018.25598        -1.54905         5.36677
     2018.25872        -4.67049         5.61291
     2018.26146        -7.09993         5.53423
     2018.26420         4.50263         5.63208
     2018.26694        -3.11280         5.40611
     2018.26967       -11.82724         5.29312
     2018.27241         0.35132         5.53523
     2018.27515         6.13688         5.35264
     2018.27789         1.57845         5.51708
     2018.28062        -8.70399         5.51909
     2018.28336         2.63557         5.34457
     2018.28610       -12.42287         5.33045
     2018.28884         2.13569         5.32137
     2018.29158         4.51326         5.45655
     2018.29431         1.81982         5.40813
     2018.29705         3.39638         5.27900
     2018.29979         1.69494         5.29010
     2018.30253        -2.80849         5.35163
     2018.30527         3.06807         5.25580
     2018.30800         0.60363         5.24672
     2018.31017        -1.92717         6.95965
     2018.43485        -3.42733         9.73786
     2018.43668        -0.32994         6.57126
     2018.43942        -5.37438         5.84594
     2018.44216        -5.91282         5.29716
     2018.44490         2.22574         5.30624
     2018.44763         0.00330         5.46462
     2018.45037         3.19187         5.27698
     2018.45311         4.68843         5.26084
     2018.45585         1.90999         5.34457
     2018.45859         3.53055         5.37484
     2018.46132        -3.16588         5.46563
     2018.46406         5.30568         5.30220
     2018.46680         3.88324         5.33852
     2018.46954         3.16280         5.28808
     2018.47227         3.47736         5.40006
     2018.47501         6.18393         5.31229
     2018.47775         4.70849         5.33852
     2018.48049        -1.04595         5.55440
     2018.48323         0.67161         5.33348
     2018.48596        -0.87382         5.30725
     2018.48870        -3.42526         5.40510
     2018.49144         4.74430         5.26690
     2018.49418         2.52686         5.40409
     2018.49692        13.67042         5.46361
     2018.49965         2.40599         5.44545
     2018.50239         2.32755         5.27799
     2018.50513         2.80011         5.36878
     2018.50787         1.96967         5.37383
     2018.51060         1.05124         5.46361
     2018.51334         0.13780         5.38593
     2018.51608         2.59736         5.34457
     2018.51882         5.02592         5.38593
     2018.52156         3.79948         5.29312
     2018.52429         1.16405         5.30321
     2018.52703         5.03061         5.30624
     2018.52977        10.30417         5.31935
     2018.53251         3.23973         5.31128
     2018.53525         6.04930         5.43637
     2018.53798         6.52286         5.33448
     2018.54072         6.33042         5.33146
     2018.54346         6.23998         5.48177
     2018.54620         5.33354         5.27799
     2018.54893         4.48611         5.29111
     2018.55167         4.26767         5.30119
     2018.55441         8.89523         5.29111
     2018.55715         7.86479         5.33348
     2018.55989         3.46336         5.45554
     2018.56262         3.02992         5.34861
     2018.56536         6.15848         5.34861
     2018.56810         8.40104         5.35970
     2018.57084         2.45960         5.33650
     2018.57267         6.28000         9.17092
     2018.57631         5.98273         8.17524
     2018.57905         5.03629         5.62098
     2018.58179         6.90085         5.39804
     2018.58453         5.83642         5.49186
     2018.58726         7.12098         5.29615
     2018.59000        10.26754         5.29212
     2018.59274        10.34010         5.28304
     2018.59548         6.86266         5.41418
     2018.59822        10.34423         5.34155
     2018.60095        13.13079         5.32641
     2018.60369         8.98435         5.28909
     2018.60643         6.90891         5.49791
     2018.60917         8.67348         5.40914
     2018.61208        11.12545         5.69361
     2018.61464        11.29460         5.76524
     2018.61738        11.74616         5.28606
     2018.62012        15.61372         5.30119
     2018.62286        17.80029         5.48782
     2018.62559         9.09985         5.48479
     2018.62850         8.41482         5.82173
     2018.63107         9.01097         5.33247
     2018.63381        15.61554         5.45150
     2018.63655        11.08710         5.34558
     2018.63928        14.35566         5.51808
     2018.64202        10.55322         5.70572
     2018.64476         9.09579         5.36979
     2018.64750         8.56435         5.39905
     2018.65023        10.99891         5.47572
     2018.65297        14.16947         5.24874
     2018.65571        12.09103         5.30926
     2018.65845        10.02460         5.35769
     2018.66119        18.13716         5.53221
     2018.66392         8.97272         5.32843
     2018.66666         7.39728         5.36777
     2018.66940         9.47785         5.35769
     2018.67214        11.23641         5.45352
     2018.67488         9.43097         5.40006
     2018.67761        11.57253         5.40813
     2018.68035         8.37509         5.47067
     2018.68309        -0.75034         5.42023
     2018.68583        13.27222         5.39501
     2018.68856         5.22678         5.40914
     2018.69130         9.78734         5.45453
     2018.69404         6.12291         5.57659
     2018.69678         3.85247         5.43032
     2018.69952         7.87903         5.37887
     2018.70225         1.17159         5.51405
     2018.70499         3.18715         5.33751
     2018.70773         0.84272         5.46966
     2018.71047        -1.31172         5.35970
     2018.71321         5.24584         5.36475
     2018.71594         3.80340         5.36172
     2018.71868         2.17397         5.40006
     2018.72142         7.28253         5.42326
     2018.72416        17.45909         5.74809
     2018.72689         6.61765         5.35870
     2018.72963         7.45321         5.35769
     2018.73237         0.99878         5.36777
     2018.73511         6.24934         5.34962
     2018.73785         8.03390         5.30119
     2018.74058         6.96846         5.36273
     2018.74332         2.64803         5.33348
     2018.74606         3.85959         5.39400
     2018.74880        -1.36385         5.36172
     2018.75154         5.47971         5.42225
     2018.75427         2.15027         5.51304
     2018.75701         8.30684         5.54633
     2018.75975         6.81840         5.44041
     2018.76249         2.77996         5.35970
     2018.76522         3.34452         6.97074
     2018.76796        -1.86691         5.43335
     2018.77070         6.14065         5.40106
     2018.77344         1.59521         5.32843
     2018.77618         5.26477         5.32339
     2018.77891         7.65033         5.43436
     2018.78165         3.20390         5.48379
     2018.78439         8.26346         5.32036
     2018.78713         8.78802         5.31027
     2018.78987         0.52458         5.41216
     2018.79260        -1.55885         5.32238
     2018.79534         9.72071         5.35870
     2018.79808         1.23327         5.35970
     2018.80082         5.16283         5.27799
     2018.80355         3.32939         5.32238
     2018.80629         8.08996         5.45352
     2018.80903         5.17352         5.41922
     2018.81177         5.02308         5.69261
     2018.81451        -6.08436         5.51808
     2018.81724         1.74221         5.52111
     2018.81998         8.75277         5.40813
     2018.82272        11.32633         5.64015
     2018.82546         8.45289         5.46563
     2018.82820         0.42845         5.33751
     2018.83093         0.19902         5.36071
     2018.83367         3.40058         5.38089
     2018.83641        18.71914         5.52918
     2018.83915         3.58870         5.40308
     2018.84188         1.88927         5.67344
     2018.84462         5.86583         5.36374
     2018.84736        -5.58161         5.33448
     2018.85010        -1.81405         5.35163
     2018.85284         2.68951         5.32238
     2018.85557         0.38908         5.37282
     2018.85831         3.69164         5.47572
     2018.86105        -2.46580         5.31633
     2018.86379        -1.21324         5.41922
     2018.86653         2.65733         5.37786
     2018.86926         3.08589         5.38190
     2018.87200         3.44445         5.35466
     2018.87474         1.74001         5.34356
     2018.87748         3.95757         5.43637
     2018.88021         0.44914         5.39098
     2018.88295         1.66670         5.39804
     2018.88569         1.04826         5.39804
     2018.88843         9.39382         5.46865
     2018.89117         5.31539         5.55238
     2018.89390        -4.15705         5.49993
     2018.89664        -3.24849         5.60484
     2018.89938         1.77007         5.45655
     2018.90212        -1.57236         5.52010
     2018.90485         6.93320         5.53423
     2018.90759         2.11376         5.52615
     2018.91033         4.60332         5.41721
     2018.91307         3.04288         5.54532
     2018.91581         4.66545         5.54734
     2018.91854         6.56801         5.42628
     2018.92128         3.34757         5.37484
     2018.92402         0.49413         5.34760
     2018.92676         7.88670         5.32137
     2018.92950         0.40626         5.39703
     2018.93223         2.07182         5.55945
     2018.93497        -0.23362         5.54532
     2018.93771        -1.25006         5.38593
     2018.94045         3.01351         5.35063
     2018.94318         7.40807         5.41418
     2018.94592        -2.13437         5.53927
     2018.94866         4.87619         5.39501
     2018.95140         7.03576         5.56852
     2018.95414         9.83432         5.38392
     2018.95687         4.27788         5.38593
     2018.95961         3.31944         5.39804
     2018.96235         4.52200         5.53826
     2018.96509         9.61557         5.47975
     2018.96783         5.44513         5.53927
     2018.97056         4.40469         5.39804
     2018.97330         4.36125         5.33751
     2018.97604        -5.86218         5.63006
     2018.97878         2.01938         5.47874
     2018.98151        -0.23606         5.35567
     2018.98425         3.33150         5.67243
     2018.98699        -5.03094         5.52313
     2018.98973        -1.93737         5.39804
     2018.99247         4.02719         5.43032
     2018.99520         0.55475         5.75515
     2018.99794        -2.04069         5.38089
     2019.00068        -9.20912         5.39400
     2019.00342        -1.95156         5.49892
     2019.00616        -0.31200         5.41317
     2019.00889         6.99856         5.40611
     2019.01163         4.46612         5.35769
     2019.01437         3.89569         5.40106
     2019.01711         7.88125         5.41115
     2019.01984        -3.45419         5.31431
     2019.02258        -1.26663         5.32440
     2019.02532        -5.34106         5.50295
     2019.02806         0.23050         5.44545
     2019.03080        -2.09394         5.52010
     2019.03353         3.78362         5.30826
     2019.03627        -4.26582         5.29716
     2019.03901         3.86475         5.30220
     2019.04175         1.05131         5.33045
     2019.04449         1.94487         5.52010
     2019.04722        -2.99957         5.56953
     2019.04996        -6.65000         5.51304
     2019.05270        -3.49244         5.54028
     2019.05544        -3.80988         5.45957
     2019.05817        -1.98132         5.59980
     2019.06091        -3.19976         5.59677
     2019.06365        -1.92619         5.45554
     2019.06639        -0.99963         5.38392
     2019.06913         3.15493         5.49387
     2019.07186        -2.09651         5.51506
     2019.07460        -2.29894         5.38089
     2019.07734         4.97162         5.35063
     2019.08008         5.71218         5.29615
     2019.08282         6.70674         5.49488
     2019.08555         0.70230         5.37080
     2019.08829         6.75887         5.31330
     2019.09103         1.50943         5.38795
     2019.09377         3.80099         5.37282
     2019.09650         8.67455         5.34962
     2019.09924         2.84612         5.30019
     2019.10198         1.56068         5.31935
     2019.10472         2.14524         5.36172
     2019.10746         3.28180         5.51506
     2019.11019         6.76336         5.31128
     2019.11293         1.15393         5.49387
     2019.11567         7.47849         5.63309
     2019.12115        18.08661         5.47672
     2019.12388         7.09018         5.54633
     2019.12662         5.14774         5.35365
     2019.12936         3.66230         5.41620
     2019.13210         4.33586         5.33650
     2019.13483         1.27043         5.33247
     2019.13757         2.26899         5.41216
     2019.14031         7.08055         5.36777
     2019.14305         2.91111         5.33247
     2019.14579        -1.25733         5.32541
     2019.14852         1.22724         5.35668
     2019.15126         9.55380         5.37786
     2019.15400         4.53436         5.32036
     2019.15674         0.75692         5.39602
     2019.15948        -1.95751         5.32541
     2019.16221        -2.76295         5.49690
     2019.16495         2.94761         5.32541
     2019.16769        -1.01283         5.34356
     2019.17043        -0.14127         5.30321
     2019.17316        -3.19570         5.30624
     2019.17590         8.96686         5.39299
     2019.17864        -3.63858         5.45554
     2019.18138         0.90198         5.35466
     2019.18412        -9.67745         5.33348
     2019.18685         2.62011         5.29111
     2019.18959         1.94867         5.32339
     2019.19233         2.80823         5.47370
     2019.19507         2.66679         5.41821
     2019.19780        -5.07564         5.35063
     2019.20054        -0.31908         5.47572
     2019.20328        -2.12152         5.33348
     2019.20602        -2.71396         5.33045
     2019.20876        -1.70139         5.30926
     2019.21149        -4.37583         5.33953
     2019.21423        -1.33527         5.38997
     2019.21697        -6.02671         5.29010
     2019.21971        -6.87915         5.57054
     2019.22245        -0.85558         5.35870
     2019.22518        -2.21602         5.33751
     2019.22792         2.26854         5.36777
     2019.23066        -2.80990         5.36172
     2019.23340        -4.60733         5.29413
     2019.23613        -0.73577         5.38392
     2019.23887        -1.25721         5.34457
     2019.24161        -1.99565         5.47471
     2019.24435        -2.54809         5.44949
     2019.24709        -2.29252         5.41620
     2019.24982        -3.40996         5.50699
     2019.25256         0.23860         5.47067
     2019.25530        -1.63684         5.37181
     2019.25804        -1.12127         5.57861
     2019.26078         0.85529         5.42528
     2019.26351       -11.78015         5.44949
     2019.26625         0.64541         5.46966
     2019.26899         6.68897         5.53019
     2019.27173        -1.01246         5.76322
     2019.27446        -5.27690         5.35063
     2019.27720         0.89666         5.42023
     2019.27994        -2.23278         5.35668
     2019.28268        -0.59521         5.40712
     2019.28542         4.05435         5.39098
     2019.28815        -3.83609         5.42830
     2019.29089        -2.02153         5.33146
     2019.29363         0.34803         5.33348
     2019.29637         4.64160         5.44343
     2019.29911         0.60816         5.38291
     2019.30184        -1.03728         5.34558
     2019.30458        -5.29672         5.38392
     2019.30732        -0.14215         5.41922
     2019.31006         9.81841         5.47672
     2019.31279         2.00997         5.45050
     2019.31553         9.90653         5.59980
     2019.31827        -1.18191         5.38492
     2019.32101         0.37666         5.32339
     2019.32375        -5.36078         5.42729
     2019.32648        -1.00822         5.31734
     2019.32922        -0.33066         5.34962
     2019.33196        -0.00209         5.45957
     2019.33470        -0.14253         5.43335
     2019.33744         5.33903         5.34054
     2019.34017         0.85559         5.41115
     2019.34291         5.90615         5.37685
     2019.34565         7.59472         5.42729
     2019.34839        -1.37172         5.37685
     2019.35112         3.80484         5.33650
     2019.35386         3.23740         5.34558
     2019.35660         8.02997         5.36475
     2019.35934         2.33553         5.39299
     2019.36208         3.79509         5.44646
     2019.36481         4.36565         5.35063
     2019.36755        -1.29178         5.35970
     2019.37029         3.69378         5.35567
     2019.37303         2.49134         5.59778
     2019.37577         3.31890         5.55945
     2019.37850        11.55846         5.45857
     2019.38124         8.63303         5.45857
     2019.38398         5.86859         5.37988
     2019.38672         3.26515         5.39905
     2019.38945         3.39171         5.47672
     2019.39219         9.44428         5.79248
     2019.39493         3.07084         5.33953
     2019.39767         4.14940         5.32238
     2019.40041         6.04796         5.35264
     2019.40314         4.26252         5.30019
     2019.40588         8.39809         5.35668
     2019.40862         8.71065         5.34962
     2019.41136         3.92221         5.35163
     2019.41410         2.65077         5.39602
     2019.41683         5.57434         5.40813
     2019.41957         0.99990         5.54532
     2019.42231         2.57746         5.33247
     2019.42505        -6.32298         5.43839
     2019.42778         3.95158         5.54028
     2019.43052        11.55615         5.40006
     2019.43326        -1.60429         5.37181
     2019.43600        -0.22473         5.48681
     2019.43874         0.47983         5.42124
     2019.44147         0.72940         5.43536
     2019.44421         4.51196         5.58366
     2019.44695         1.34952         5.54028
     2019.44969         2.12908         5.45050
     2019.45243         5.54564         5.40510
     2019.45516        -2.52679         5.48379
     2019.45790         0.70977         5.48782
     2019.46064        -0.49167         5.44848
     2019.46338         1.72589         5.67344
     2019.46611         9.41646         5.71883
     2019.46885         9.75202         5.58265
     2019.47159         4.16758         5.48278
     2019.47433         4.59614         5.45453
     2019.47707         7.00370         5.45352
     2019.47980         3.68627         5.47168
     2019.48254         0.28583         5.48076
     2019.48528         2.06339         5.44343
     2019.48802        -3.56005         5.45453
     2019.49076        -3.03548         5.37685
     2019.49349         3.82608         5.35063
     2019.49623         5.17764         5.29111
     2019.49897         6.79320         5.32238
     2019.50171         4.24576         5.33953
     2019.50444        -2.37767         5.38694
     2019.50718        -0.88011         5.41115
     2019.50992         4.80345         5.43032
     2019.51266         4.88401         5.32641
     2019.51540         6.06258         5.34256
     2019.51813         2.14814         5.38089
     2019.52087        -0.73430         5.39299
     2019.52361         7.85026         5.36777
     2019.52635         8.64582         5.39299
     2019.52908         6.10939         5.55037
     2019.53182         3.55395         5.47471
     2019.53456         1.35551         5.59072
     2019.53730        11.26807         5.59778
     2019.54004         7.10564         5.49085
     2019.54277        12.56920         5.50901
     2019.54551         6.95576         5.66234
     2019.54825        11.96332         5.31330
     2019.55099         5.34188         5.40409
     2019.55373        10.74245         5.51708
     2019.55646         8.50101         5.49387
     2019.55920         2.75257         5.58769
     2019.56194         5.34013         5.32641
     2019.56468         0.10870         5.53826
     2019.56741         8.48226         5.49186
     2019.57015         8.64582         5.34457
     2019.57289         9.08138         5.44142
     2019.57563         7.70094         5.30523
     2019.57837         5.02151         5.51203
     2019.58110        10.79107         5.36071
     2019.58384         7.91763         5.96397
     2019.58658         6.35119         5.52817
     2019.58932        14.15076         5.35063
     2019.59206        12.54132         5.68050
     2019.59479         9.38588         5.55440
     2019.59753        14.90644         5.58567
     2019.60027         6.40901         5.59980
     2019.60301         5.13057         5.34155
     2019.60574         5.61413         5.61594
     2019.60848         2.85069         5.71278
     2019.61122         8.31525         5.31431
     2019.61396         9.49582         5.43738
     2019.61670         9.54538         5.37383
     2019.61943         9.56494         5.60787
     2019.62217         8.96450         5.49892
     2019.62491        10.54607         5.37786
     2019.62765        16.65563         5.33247
     2019.63039        15.55519         5.46361
     2019.63312         9.34775         5.35264
     2019.63586        13.57631         5.95186
     2019.63860         6.69988         5.49286
     2019.64407         2.98000         5.49791
     2019.64681         4.48456         5.40207
     2019.64955         9.08813         5.36777
     2019.65229        12.86569         5.32944
     2019.65503         9.87625         5.44444
     2019.65776         1.25981         5.54734
     2019.66050        10.70737         5.40510
     2019.66324         5.87194         5.43032
     2019.66598         4.22150         5.46966
     2019.66872         2.86006         5.37484
     2019.67145         4.60262         5.34356
     2019.67419         9.98219         5.32238
     2019.67693         4.94975         5.54835
     2019.67967         6.07031         5.56752
     2019.68240         2.92887         5.37383
     2019.68514        10.53743         5.61089
     2019.68788         9.89800         5.69866
     2019.69062         2.12656         5.48580
     2019.69336         6.36112         5.40409
     2019.69609        -4.09332         5.56247
     2019.69883        -4.34875         5.47874
     2019.70157         1.27081         5.35567
     2019.70431        12.48837         5.55137
     2019.70705         5.21993         5.38593
     2019.70978         3.05749         5.54633
     2019.71252         1.50306         5.52615
     2019.71526         0.14162         5.31935
     2019.71800         8.51618         5.59980
     2019.72073         4.36874         5.58870
     2019.72347         0.26731         5.48580
     2019.72621         4.45187         5.43436
     2019.72895         5.15643         5.48580
     2019.73169        11.15599         5.44041
     2019.73442        -1.31045         5.47874
     2019.73716         9.16412         5.49286
     2019.73990         4.77968         5.56449
     2019.74264         4.72324         5.47773
     2019.74538         7.14380         5.36576
     2019.74811         5.03437         5.42427
     2019.75085         3.54993         5.46664
     2019.75359         1.70349         5.66436
     2019.75633         1.21205         5.49286
     2019.75906         4.75161         5.36071
     2019.76180         2.59318         5.38997
     2019.76454         6.66474         5.41519
     2019.76728        10.90430         5.71581
     2019.77002         6.38686         5.44545
     2019.77275         4.96343         5.55743
     2019.77549         7.62799         5.47168
     2019.77823         4.99255         5.42427
     2019.78097         6.32111         5.38896
     2019.78371         5.96967         5.40813
     2019.78644         9.66724         5.49488
     2019.78918         0.76480         5.69059
     2019.79192         6.03536         5.60888
     2019.79466        15.23292         5.63712
     2019.79739         0.43149         5.66638
     2019.80013        10.84705         5.50194
     2019.80287         7.99261         5.69664
     2019.80561        15.40217         5.90143
     2019.80835         4.06673         5.49488
     2019.81108         4.62630         5.44444
     2019.81382        10.37586         5.56247
     2019.81656         6.83842         5.52414
     2019.81930         1.78698         5.42830
     2019.82203         4.82355         5.78642
     2019.82477        -1.20589         5.44444
     2019.82751        -3.00833         5.42830
     2019.83025         2.17523         5.57559
     2019.83299         6.38580         5.54129
     2019.83572         2.27036         5.43436
     2019.83846         2.19892         5.56852
     2019.84120         3.99648         5.46361
     2019.84394         6.68904         5.63611
     2019.84668        -1.37039         5.45857
     2019.84941         4.35517         5.45655
     2019.85215         0.46273         5.40510
     2019.85489        -4.10271         5.55137
     2019.85763         2.73386         5.43536
     2019.86036         3.49142         5.44243
     2019.86310        -1.20402         5.72489
     2019.86584         9.26754         5.61291
     2019.86858         5.83310         5.57659
     2019.87132         2.95167         5.59576
     2019.87405         5.77723         5.37484
     2019.87679         7.70779         6.62473
     2019.87953        13.72935         5.47370
     2019.88227        14.95592         5.56550
     2019.88501        10.08748         5.47874
     2019.88774        11.54204         5.56045
     2019.89048        13.11760         5.46159
     2019.89322        14.27716         5.43839
     2019.89596         8.70273         5.58668
     2019.89869         5.89529         5.49589
     2019.90143         7.59185         5.49589
     2019.90417         9.14141         5.40409
     2019.90691         7.37998         5.35163
     2019.90965         3.48754         5.36273
     2019.91238         8.70210         5.44848
     2019.91786        12.58122         5.47067
     2019.92060        13.41379         5.44444
     2019.92334        11.96935         5.53322
     2019.92607         6.64191         5.50396
     2019.92881         4.29847         5.51405
     2019.93155        12.96704         5.47168
     2019.93429         7.71760         5.43032
     2019.93702        10.79716         5.38492
     2019.93976         9.54372         5.50094
     2019.94250         4.23728         5.52010
     2019.94524         2.36385         5.73397
     2019.94798        -0.05259         5.46260
     2019.95071         3.28997         5.68151
     2019.95345         6.84553         5.38694
     2019.95619         9.12910         5.37887
     2019.95893         9.54666         5.43738
     2019.96167         5.24522         5.45957
     2019.96440         6.23878         5.65528
     2019.96714        13.21634         5.82879
     2019.96988        -0.32909         5.39400
     2019.97262         3.70747         5.36777
     2019.97535         4.83003         5.42225
     2019.97809         2.85459         5.37383
     2019.98083         1.27116         5.38291
     2019.98357        -0.15428         5.37887
     2019.98631         4.45928         5.40006
     2019.98904         3.13884         5.37484
     2019.99178        -1.22060         5.55541
     2019.99452         7.43097         5.45251
     2019.99726        13.02453         5.63309
     2020.00000        14.27809         5.58769
     2020.00273         8.69365         5.46159
     2020.00547        12.54022         5.57256
     2020.00821         2.79178         5.63712
     2020.01095         3.46134         5.58164
     2020.01368        -4.27610         5.49488
     2020.01642         6.34546         5.56146
     2020.01916        -0.99597         5.49791
     2020.02190         2.29759         5.52010
     2020.02464        -5.70985         5.66436
     2020.02737         5.53671         5.59677
     2020.03011        -2.84172         5.48883
     2020.03285        -6.17816         5.46159
     2020.03559         0.21240         5.36071
     2020.03833         0.64696         5.35769
     2020.04106         0.09452         5.45655
     2020.04380         2.97609         5.59576
     2020.04654        -4.30735         5.32238
     2020.04928        -1.35879         5.34861
     2020.05201        -0.65423         5.30019
     2020.05475        -4.41166         5.42830
     2020.05749        -3.81810         5.35466
     2020.06023         0.42646         5.34356
     2020.06297        -8.49398         5.29514
     2020.06570         5.56659         5.45756
     2020.06844        -0.91885         5.41317
     2020.07118         0.06571         5.28707
     2020.07392        -2.81173         5.55541
     2020.07666         0.91783         5.28606
     2020.07939        -1.07360         5.32440
     2020.08213         2.34896         5.41519
     2020.08487         4.46852         5.58466
     2020.08761         6.60808         5.30826
     2020.09034         9.91265         5.28203
     2020.09308         1.91321         5.34861
     2020.09582         1.37777         5.30321
     2020.09856        12.67733         5.32238
     2020.10130         9.65889         5.34457
     2020.10403         0.98346         5.54633
     2020.10677         3.93702         5.29010
     2020.10951        -0.40942         5.32036
     2020.11225        -0.34286         5.34356
     2020.11498         0.03871         5.36677
     2020.11772        -4.60773         5.47269
     2020.12046        -0.45517         5.45655
     2020.12320        -3.03961         5.28102
     2020.12594        -4.38005         5.36878
     2020.12867         1.73752         5.33348
     2020.13141         2.76408         5.25883
     2020.13415         6.36664         5.29817
     2020.13689         6.39020         5.38291
     2020.13963         3.80577         5.40611
     2020.14236         5.56933         5.35769
     2020.14510         4.65289         5.43133
     2020.14784        -0.09755         5.32440
     2020.15058         3.39001         5.30422
     2020.15331        -2.52242         5.32137
     2020.15600         1.91500         5.48379
     2020.15832       -10.51943         7.04943
     2020.16153        -5.75474         5.45554
     2020.16427        -2.05017         5.33650
     2020.16700        -3.24661         5.27194
     2020.16974        -7.01105         5.29514
     2020.17248        -7.47949         5.34054
     2020.17522        -7.38393         5.34256
     2020.17796        -7.47736         5.25883
     2020.18069       -11.07180         5.27900
     2020.18343       -13.46824         5.24470
     2020.18617        -8.85968         5.26387
     2020.18891        -6.54311         5.37988
     2020.19164        -9.73955         5.39098
     2020.19438        -4.55099         5.36475
     2020.19712        -8.69743         5.37282
     2020.19986       -11.37087         5.43335
     2020.20260        -8.70130         5.34356
     2020.20533        -9.23074         6.93846
     2020.20807        -3.42018         5.35264
     2020.21081        -9.53162         5.44243
     2020.21355       -13.16605         5.88730
     2020.21629       -10.05349         5.58265
     2020.21902       -11.16193         5.44848
     2020.22176       -10.99037         5.35769
     2020.22450        -4.70181         5.44949
     2020.22724       -10.05724         5.38089
     2020.22997        -8.84968         5.33953
     2020.23271        -7.76112         5.37080
     2020.23545       -10.56456         5.35163
     2020.23819       -12.41799         5.40611
     2020.24093        -0.75443         7.97852
     2020.24366         6.89413         7.95835
     2020.24640        -1.25931         8.05923
     2020.24914        -9.59975         7.94826
     2020.25188       -12.40218         7.89379
     2020.25462        -0.02462         7.92506
     2020.25735        -2.43506         7.90690
     2020.26009        -0.41750         7.85848
     2020.26283         1.74207         7.90690
     2020.26557       -14.55537         7.95431
     2020.26830        -9.37881         7.82620
     2020.27104        -5.90325         8.24686
     2020.27378        -7.59469         8.54143
     2020.27652        -2.78212         8.38103
     2020.27926        -5.33856         8.26200
     2020.28199        -7.09100         8.31344
     2020.28473       -10.14544         8.01484
     2020.28747        -3.47387         8.06528
     2020.29021        -2.98931         7.97146
     2020.29295        -6.36275         7.99467
     2020.29568        -0.28219         8.12278
     2020.29842         4.58538         7.81510
     2020.30116        -1.63606         7.92405
     2020.30390        -1.12250         7.94120
     2020.30663       -11.91594         8.10361
     2020.30937       -12.58738         7.94322
     2020.31211        -6.43781         7.88572
     2020.31485        -6.96425         8.39415
     2020.31759       -15.26269         7.99265
     2020.32032         3.02587         8.15002
     2020.32306        -7.04456         8.30336
     2020.32580       -13.46400         8.37599
     2020.32854       -11.74744         8.12682
     2020.33128        -7.35088         8.22568
     2020.33401        -5.36232         8.32555
     2020.33675       -17.82875         8.29529
     2020.33949       -15.63519         8.14498
     2020.34223       -11.08963         8.30436
     2020.34496       -27.85907         8.70889
     2020.34770       -18.26850         8.22164
     2020.35044       -14.66894         8.54950
     2020.35318       -15.41338         8.29529
     2020.35592       -15.01482         8.14094
     2020.35865         3.84574         8.43046
     2020.36139        -5.35569         8.28721
     2020.36413        -7.35313         8.20954
     2020.36687       -14.28357         8.15305
     2020.36961        -9.34001         8.16818
     2020.37234        -2.92944         8.30436
     2020.37508       -10.19288         5.46865
     2020.37782        -0.44932         5.33146
     2020.38056       -12.98476         5.36979
     2020.38329       -14.55820         5.47773
     2020.38603       -10.25163         5.34659
     2020.38877        -6.69507         5.47672
     2020.39151        -8.28851         5.38089
     2020.39425        -9.29495         5.42124
     2020.39698        -9.11138         5.33247
     2020.39972       -12.01682         5.45655
     2020.40246        -7.16626         5.39804
     2020.40520       -15.29270         5.44747
     2020.40794        -7.04214         5.34558
     2020.41067        -7.27157         5.36071
     2020.41341        -8.70601         5.42528
     2020.41615       -14.36545         5.29918
     2020.41889        -8.18389         5.39905
     2020.42162       -21.22232         5.46260
     2020.42436        -7.99176         5.76120
     2020.42710        -5.35820         5.61695
     2020.42927        -0.77700         7.09886
     2020.43531        -7.96651         5.94480
     2020.43805       -11.76995         5.79449
     2020.44079       -11.79939         5.41418
     2020.44353       -16.69983         5.66638
     2020.44626       -14.66426         5.37383
     2020.44900        -7.53170         5.39804
     2020.45174        -7.51214         5.47067
     2020.45448       -12.30158         5.44444
     2020.45722       -17.58102         5.31431
     2020.45995       -13.55745         5.30119
     2020.46269       -15.46489         5.49387
     2020.46543        -7.10733         5.37484
     2020.46817         6.24223         5.46058
     2020.47091        -8.47620         5.29413
     2020.47364        -9.75264         5.30321
     2020.47638        -9.30808         5.40207
     2020.47912        -2.61552         5.46966
     2020.48186         2.43804         5.53725
     2020.48459        -5.27439         5.59374
     2020.48733        -6.94783         5.64418
     2020.49007        -0.17827         5.42528
     2020.49281        -4.29871         5.43738
     2020.49555        -6.47914         5.52414
     2020.49828        -3.84058         5.36777
     2020.50102        -9.55102         5.31330
     2020.50376       -10.68646         5.33852
     2020.50650        -7.28590         5.39199
     2020.50924       -11.50033         5.30019
     2020.51197        -9.38877         5.32137
     2020.51471        -6.39121         5.35970
     2020.51745        -6.16565         5.30926
     2020.52019        -2.49208         5.53826
     2020.52292        -4.37752         5.43335
     2020.52566        -6.34596         5.43637
     2020.52840        -3.56240         5.49892
     2020.53114        -2.11983         5.44545
     2020.53388        -3.11927         5.46563
     2020.53661        -4.87971         5.47874
     2020.53935       -10.54315         5.50699
     2020.54209        -1.95159         5.52615
     2020.54483        -1.47002         5.47773
     2020.54757        -0.77546         5.45655
     2020.55030        -1.60690         5.42427
     2020.55304        -5.40834         5.52111
     2020.55578        -6.70577         5.63410
     2020.55852         5.65779         5.63712
     2020.56125         1.82635         5.42931
     2020.56399        -4.77609         5.54734
     2020.56673        -3.83653         5.42931
     2020.56947         1.13004         5.38593
     2020.57221        -1.80140         5.68554
     2020.57494        -3.13184         5.58769
     2020.57768         4.49772         5.51203
     2020.58042        -4.68771         5.58265
     2020.58316        -4.76715         5.70168
     2020.58590        -8.50859         5.50598
     2020.58863        -2.40603         5.58769
     2020.59137        -2.74347         5.53322
     2020.59411         2.69010         5.46159
     2020.59685        -4.30334         5.68756
     2020.59958        -2.13078         5.53725
     2020.60232         1.18178         5.43839
     2020.60506        -4.68265         5.47370
     2020.60780         1.30191         5.41418
     2020.61054         6.94947         5.76524
     2020.61327        -3.69597         5.60686
     2020.61601        -0.46341         5.47269
     2020.61875        -7.05284         5.47269
     2020.62109        -4.94124         6.59749
     2020.62696        -9.39416         5.60081
     2020.62970        -5.48959         5.60081
     2020.63244        -1.20703         5.60484
     2020.63518        -0.85047         5.52817
     2020.63791         8.35009         6.18893
     2020.64065        -4.66135         5.41519
     2020.64339        -2.38578         5.43637
     2020.64613         0.88278         5.49892
     2020.64887        -1.41566         5.55642
     2020.65160        -1.57410         5.45756
     2020.65434        -0.01453         5.51808
     2020.65708        -0.52097         5.39098
     2020.65982        -7.49041         5.55642
     2020.66256        -0.24485         5.51506
     2020.66529         6.95871         5.65225
     2020.66803         7.20828         5.66436
     2020.67077         0.72584         5.48681
     2020.67351        -3.42160         5.49993
     2020.67624        -5.46104         5.54129
     2020.67898        -8.02647         5.45251
     2020.68172        -0.96391         5.44747
     2020.68446        -3.42835         5.60585
     2020.68720        -0.19779         5.50497
     2020.68993        -3.82823         5.45352
     2020.69267        -1.79566         5.52615
     2020.69541        -2.76310         5.69261
     2020.69815        -4.11554         5.50396
     2020.70089        -5.21898         5.41620
     2020.70362        -1.10441         5.63006
     2020.70636       -11.54585         5.76927
     2020.70910        -9.07929         5.75515
     2020.71184        -0.06473         5.62603
     2020.71457         2.16383         5.91353
     2020.71731        -5.02060         5.64822
     2020.72005       -11.76504         5.56449
     2020.72279        -1.70248         5.42931
     2020.72553         2.08508         5.61695
     2020.72826        -7.48635         6.04266
     2020.73100        -3.46079         5.85603
     2020.73374         5.03277         5.60988
     2020.73648        -1.81367         5.58668
     2020.73921       -12.03911         5.50699
     2020.74195        -5.07854         6.64793
     2020.74469        -3.96398         5.44142
     2020.74743        -4.15442         5.47067
     2020.75017        -4.94686         5.43133
     2020.75290       -10.71529         5.49690
     2020.75564       -10.56273         5.48379
     2020.75838         0.67283         5.49387
     2020.76112         4.52439         5.61392
     2020.76386        -2.00004         5.56550
     2020.76659        -1.09848         5.41721
     2020.76933        -0.03892         5.60988
     2020.77207         7.46864         5.44545
     2020.77481         1.44920         5.76221
     2020.77754        -3.70123         5.56045
     2020.78028         0.48433         5.77734
     2020.78302         0.64789         5.71883
     2020.78576         2.05345         5.55137
     2020.78850        -0.14198         5.58971
     2020.79123        -1.62142         5.79651
     2020.79397        -5.55786         5.77028
     2020.79671        -3.78530         5.50094
     2020.79945        -6.95174         5.48479
     2020.80219         4.32883         5.70975
     2020.80492         4.00339         5.66940
     2020.80766        -7.11305         5.57559
     2020.81040        -0.45949         5.53523
     2020.81314         4.81808         5.52716
     2020.81587        -7.26836         5.41821
     2020.81861        -2.29380         5.56045
     2020.82135        -3.55524         5.50497
     2020.82409        -7.18968         5.46966
     2020.82683        -3.38511         5.45655
     2020.82956        -7.33855         5.75414
     2020.83230        -2.00299         5.68655
     2020.83504        -2.61143         5.63208
     2020.83778        -2.59086         5.40611
     2020.84052       -20.07630         6.18389
     2020.84325         2.15026         5.89739
     2020.84599        -9.10818         6.04972
     2020.84873         1.83038         5.69261
     2020.85147         2.88495         5.73800
     2020.85694         6.31307         5.45352
     2020.85968         0.04663         5.68958
     2020.86242         5.27320         5.67445
     2020.86516         4.33176         5.60787
     2020.86789         5.09532         5.86713
     2020.87063         8.54988         5.52918
     2020.87337         2.06144         5.70673
     2020.87611         3.90501         5.70269
     2020.87885        10.57157         5.72388
     2020.88158         1.88113         5.58567
     2020.88432         3.81469         5.66436
     2020.88706         0.17926         5.68050
     2020.88980         2.03282         5.50699
     2020.89253         3.94438         5.49286
     2020.89527         3.42794         5.68050
     2020.89801         7.08350         5.59173
     2020.90075         6.08907         5.53523
     2020.90349        -1.42737         5.80963
     2020.90622         2.10419         5.50598
     2020.90896         1.35275         5.78340
     2020.91170         2.15332         5.72388
     2020.91444         2.00088         6.30898
     2020.91718        -5.80256         5.61997
     2020.91991        -2.22000         5.46765
     2020.92265        -3.01844         5.77634
     2020.92539        -3.17787         5.72993
     2020.92813        -5.38731         5.71581
     2020.93086        -6.42075         5.58164
     2020.93360        -3.15119         5.57861
     2020.93634        -5.44962         5.56852
     2020.93908         2.47994         5.82274
     2020.94182        -4.09250         5.66133
     2020.94455        -5.55894         5.45352
     2020.94729        -5.87638         5.47269
     2020.95003        -7.69981         5.74405
     2020.95277       -11.88625         5.74809
     2020.95551       -11.86269         5.59778
     2020.95824        -3.82013         5.51909
     2020.96098       -11.12856         5.63107
     2020.96372        -5.37300         5.55945
     2020.96646        -7.48344         5.76322
     2020.96919        -0.00488         5.53624
     2020.97193        -8.27932         5.41721
     2020.97467        -5.34075         5.78037
     2020.97741        -8.39419         5.84897
     2020.98015        -5.47863         5.80256
     2020.98288        -5.94307         5.57357
     2020.98562        -5.47050         5.45957
     2020.98836         7.74206         5.46058
     2020.99110         4.61462         5.35466
     2020.99384         0.02818         5.47975
     2020.99657        -2.49926         5.55137
     2020.99931        -3.31169         5.55339
     2021.00205        -8.36813         5.44545
     2021.00479        -3.67757         5.46765
     2021.00752         1.28199         5.53221
     2021.01026        -0.90944         5.69664
     2021.01300        -5.79788         5.53019
     2021.01574        -6.40632         5.50295
     2021.01848        -5.12176         5.40611
     2021.02121        -2.48219         5.64620
     2021.02395         0.42237         5.48479
     2021.02669        -4.04307         5.61896
     2021.02943        -2.06051         5.54330
     2021.03216        -6.11195         5.74506
     2021.03450        -0.23534         6.79723
     2021.04038        -1.68926         5.57357
     2021.04312        -4.85770         5.47672
     2021.04585        -5.19513         5.84695
     2021.04859        -4.12457         5.52414
     2021.05133        -0.14601         5.57659
     2021.05407         4.38055         5.91555
     2021.05681        -0.73089         5.81164
     2021.05954        -4.87732         5.57861
     2021.06776         1.97336         5.66133
     2021.07049         3.03293         5.60585
     2021.07597        10.74805         5.61190
     2021.07871        -2.65639         5.41519
     2021.08145        -6.48183         5.56247
     2021.08418        -3.88726         5.56752
     2021.08692        -9.66370         5.36677
     2021.08966        -4.06114         5.63208
     2021.09240       -11.38158         5.51909
     2021.09514        -8.69601         5.60383
     2021.09787        -6.71645         5.71984
     2021.10061        -8.21289         5.59677
     2021.10335        -4.68833         5.52111
     2021.10609        -7.36277         5.47874
     2021.10882        -0.10220         5.86006
     2021.11156        -4.97664         5.50295
     2021.11430       -11.31808         5.54532
     2021.11704        -5.69652         5.88730
     2021.12525        -4.33183         5.57559
     2021.12799        -2.55527         5.50497
     2021.13073        -7.17971         5.57155
     2021.13347       -11.32714         5.77734
     2021.13620       -14.41258         5.60787
     2021.13894        -3.97002         5.56348
     2021.14168        -7.69646         5.49488
     2021.14442         1.04511         5.43133
     2021.14715        -1.88333         5.67243
     2021.14989       -11.10977         5.51405
     2021.15263        -6.51421         5.58971
     2021.15537        -8.35365         5.68252
     2021.15811        -1.53508         5.71581
     2021.16084        -0.89152         5.48076
     2021.16358        -7.21396         5.65932
     2021.16632         2.08360         5.75515
     2021.16906        -0.07583         5.43234
     2021.17180        -5.09427         5.66537
     2021.17453        -2.70871         5.59374
     2021.17727        -7.21615         5.57155
     2021.18001        -5.51059         5.64418
     2021.18275        -8.91002         5.92967
     2021.18548        -6.05246         5.66335
     2021.18822       -11.10890         5.38190
     2021.19096        -4.28134         5.45957
     2021.19370        -4.65477         5.45050
     2021.19644        -7.65421         5.35567
     2021.19917       -13.85065         5.54633
     2021.20191        -4.97909         5.41418
     2021.20465         0.07547         5.45957
     2021.20739        -5.71896         5.46462
     2021.21013        -1.48940         5.58971
     2021.21286         0.53716         5.77936
     2021.21560       -10.56628         5.53927
     2021.21834        -8.98071         5.77634
     2021.22108        -4.93115         5.46260
     2021.22381        -6.94859         5.43738
     2021.22655        -7.20103         5.49387
     2021.22929         6.25153         5.47067
     2021.23203         0.56310         5.38392
     2021.23477       -10.24134         5.50094
     2021.23750       -12.52378         5.70370
     2021.24024       -10.00622         5.54431
     2021.24298        -3.23365         5.37383
     2021.24572        -8.82609         5.36071
     2021.25119        -4.86997         5.61392
     2021.25393        -0.66340         5.41014
     2021.25667        -9.21484         5.43335
     2021.25941        -8.59728         5.50194
     2021.26214        -4.33972         5.36172
     2021.26488        -3.28316         5.42729
     2021.26762        -3.99659         5.65528
     2021.27036        -2.88103         5.56045
     2021.27310        -6.95847         5.48177
     2021.27583        -7.01791         5.40611
     2021.27857        -1.90934         5.57256
     2021.28131         1.14222         5.60282
     2021.28405        -2.89122         5.71177
     2021.28679         1.99034         5.46058
     2021.28952         0.56590         5.49387
     2021.29226        -0.27853         5.55945
     2021.29500        -0.45997         5.63914
     2021.29774         3.14659         5.81568
     2021.30047         2.36415         5.64519
     2021.30321         3.63972         5.69765
     2021.30595        -6.74972         5.75919
     2021.30869        11.01884         5.86410
     2021.31143        -3.23360         5.81669
     2021.31416        -1.27104         5.64217
     2021.31690        -0.72547         5.50901
     2021.31964         0.53409         5.61795
     2021.32238        -5.12035         5.63914
     2021.32512       -14.60179         5.59173
     2021.32785        -0.86422         5.65427
     2021.33059        -6.97366         5.81265
     2021.33333         2.85590         5.56651
     2021.33607        -1.00154         5.47370
     2021.33880        -5.19398         5.40712
     2021.34154        -2.21741         5.53927
     2021.34428        -1.01585         5.95086
     2021.34702       -15.06529         5.73800
     2021.34976         4.03127         5.66133
     2021.35249        -4.21616         5.74304
     2021.35523        -3.34560         5.73296
     2021.35797        -3.31404         5.74910
     2021.36071         2.00952         5.74405
     2021.36344        -5.53992         5.62703
     2021.36618        -3.72535         5.54936
     2021.36892        -9.05979         6.02752
     2021.37166         2.50977         5.81669
     2021.37440        -3.64167         5.80862
     2021.37616         2.70257        10.38953
     2021.37987        -5.48154         5.57659
     2021.38261        -2.73098         6.08402
     2021.38535        -5.03642         5.70673
     2021.38809        -1.30386         6.17582
     2021.39082         9.54471         6.19297
     2021.39356       -11.75673         5.78340
     2021.39630        -4.38917         5.72186
     2021.39904        -5.96461         5.46159
     2021.40177         8.88796         6.00533
     2021.40451        -0.43948         5.79954
     2021.40725        -1.90692         5.66032
     2021.40999         1.28864         5.84594
     2021.41273        -2.82380         5.60383
     2021.41546         7.00577         5.45655
     2021.41820        -6.41967         5.53624
     2021.42094         3.07689         5.57256
     2021.42368        -2.98055         5.91656
     2021.42642         2.16802         5.73699
     2021.42915        -0.66842         6.15261
     2021.43189         6.04214         5.75616
     2021.43463        -4.53030         5.60383
     2021.43737        -5.66574         5.58870
     2021.44010        -3.94817         5.71278
     2021.44284       -11.53361         5.83384
     2021.44558         3.87295         5.72388
     2021.44832        -3.62249         5.57155
     2021.45106        -2.31592         5.91454
     2021.45379        -2.58836         5.64418
     2021.45653         5.68320         5.49589
     2021.45927         1.02576         5.56651
     2021.46201         7.82732         5.51102
     2021.46475        -0.50511         5.51203
     2021.46748         5.36845         5.49286
     2021.47022        -0.25299         5.80055
     2021.47296         7.15657         5.58668
     2021.47570        -1.13686         5.53624
     2021.47843         4.41670         5.72590
     2021.48117         3.40826         5.49892
     2021.48391        -7.05418         5.66638
     2021.48665         6.03439         5.55945
     2021.48939         6.52095         5.81971
     2021.49212         5.57451         5.53019
     2021.49486         1.14907         5.87318
     2021.49760         2.72063         5.89840
     2021.50034         2.56920         6.04266
     2021.50308         1.83776         5.58567
     2021.50581        -2.91468         5.59173
     2021.50855         1.51588         5.57861
     2021.51129         3.19945         5.64418
     2021.51363         4.90305         6.71148
