# ================= DQRFIT RESULTS ================
# INPUT FILE: series/PER1.rad
# OUTPUT: LDETRENDED
# FILTER FUNCTION: f(t)
# f(t)=+line(t)+annual(t)
# line(t)=+P 1+P 2*t
# annual(t)=+P 3*sin(2*pi*t+P 4)
# heav(t)=(t<0?0:1)
# TOTAL OBSERVATIONS MTOT= 1821
# INITIAL TIME INTERVAL= 2011.9906 - 2006.6010 =  5.3897
# TOTAL OBSERVATIONS AFTER PREFILTER M= 1819
# TIME-SPAN= 2011.9863 - 2006.6010 =  5.3854
# OBSERVATIONS: USED M=  1819 REJECTED MTOT-M=     2 %USED=   99.8902
# N=  4 PARAMETERS
# MAXSIG= 175.00000
# MAXRES=  54.83349
# SCALE FACTOR FOR LENGTHS: SCL=  10.00000
# SCALE FACTOR FOR SIGMAS: SCLSIG=   1.00000
# CHI^2=   4504.346 DOF=  1815 CHI^2/DOF=   2.48173
# RMS=     11.328 SDEV=     11.327 MEAN=   -0.29650
#  P #       PARAMETER +-    SIGMA %error PARAMETER NAME
# P 1 =     18041.38441 +-  339.250   1.88 YZERO                              
# P 2 =        -8.95778 +-    0.169   1.88 SLOPE                              
# P 3 =         6.42152 +-    0.369   5.75 ANNUAL AMPLITUDE                   
# P 4 =        -2.74551 +-    0.075   2.72 ANNUAL PHASE                       
#       T            LDETRENDED       SIG_OBS
     2006.60095         2.80939         9.64588
     2006.60369        -5.24909         9.89006
     2006.60643         5.70444         9.97040
     2006.60917         2.91696         9.54663
     2006.61190         7.77749         9.82074
     2006.61464         4.99401         9.55136
     2006.61738         2.03154         9.70102
     2006.62012         5.30106         9.78293
     2006.62286         4.01859         9.68841
     2006.62559        -0.06189         9.63800
     2006.75154         8.29327        10.00506
     2006.75975        12.24284         9.81759
     2006.76249        15.83837        10.04602
     2006.76522         7.29789        10.16732
     2006.76796         8.46042        10.24766
     2006.77070         9.56994         9.89006
     2006.77344        -0.05153         9.87431
     2006.77618         9.81699         9.87273
     2006.77891        16.46552        10.03657
     2006.78165        12.76804         9.62855
     2006.78439         5.69357         9.66478
     2006.78713         8.78909        10.06020
     2006.78987         6.64862        10.08383
     2006.79260         8.04614         9.82704
     2006.79534         9.13867        10.11848
     2006.79808        -4.30081        10.04602
     2006.80082         5.54572        10.29020
     2006.80355         1.73524         9.50882
     2006.80629         6.69877         9.57341
     2006.80903         5.47429         9.67581
     2006.81177        -0.99418         9.75143
     2006.81451         2.75534         9.87588
     2006.81724         3.77687         9.99246
     2006.81998         1.86139         9.45684
     2006.82272         7.25292         9.60650
     2006.82546        -3.95456        10.05074
     2006.82820         1.71097         9.39067
     2006.83093        -0.48951         9.38595
     2006.83367         5.36502         9.51513
     2006.83641         4.49554         9.59704
     2006.83915        -8.09393         9.90581
     2006.84188        -8.52041        10.13739
     2006.84462         0.32212         9.79869
     2006.84736        -7.00436         9.88848
     2006.85010         7.14817        10.54541
     2006.85284        14.14569        10.32486
     2006.85557         6.98622        10.22876
     2006.85831        -7.39726         9.64903
     2006.86105         7.19027        10.10431
     2006.86379         8.15679        10.05862
     2006.86653         3.32432        10.12321
     2006.86926       -12.53116         9.68841
     2006.87200         0.41737         9.57184
     2006.87474        -4.80211         9.73095
     2006.87748        10.20942         9.53718
     2006.88021         4.68194         9.53560
     2006.88295         9.14747        10.20355
     2006.88569        -4.36301         9.78136
     2006.88843        -7.97048         9.96883
     2006.89117        -3.43096         9.65848
     2006.89390        -1.31943         9.99561
     2006.89664         7.92410         9.82074
     2006.89938        -0.97638         9.60807
     2006.90212        -2.47585         9.49937
     2006.90485       -24.34933        10.56588
     2006.90759         8.05520         9.55766
     2006.91033        -4.07628         9.51197
     2006.91295        -5.39778        10.12164
     2006.91581       -17.03223         9.66951
     2006.91854       -11.63370         9.46314
     2006.92128        -5.80218         9.48047
     2006.92402        -6.03765         9.50252
     2006.92676        -4.32413         9.69156
     2006.92950        -0.12860         9.64745
     2006.93223        -0.29408         9.62698
     2006.93497         4.41645        10.02869
     2006.93771        16.68997         9.90109
     2006.94045        13.99850         9.82862
     2006.94318         4.58502         9.85383
     2006.94592         8.66855         9.99088
     2006.94866        11.50007        10.01924
     2006.95140         3.87960         9.81287
     2006.95414         1.16512        10.22561
     2006.95687        12.84965         9.58287
     2006.95961         2.08317         9.56869
     2006.96235         8.82170         9.62855
     2006.96509        12.24022        10.01766
     2006.96783        10.49975        10.15157
     2006.97056         4.21127         9.79081
     2006.97330         0.32780         9.78609
     2006.97604        -0.09468         9.63485
     2006.97878        15.73785         9.95307
     2006.98151         5.42437         9.86800
     2006.98425         4.44190         9.59074
     2006.98699         4.01042         9.88218
     2006.99794         7.42152         9.83177
     2007.00616         0.28210         9.98931
     2007.00889        -6.52038        10.01924
     2007.01163         8.22015         9.83177
     2007.01437        -1.17933         9.81129
     2007.01984        -9.76128         9.70889
     2007.02258        -1.39275         9.62855
     2007.02504        -0.36978        11.05897
     2007.05544         3.69055         9.26937
     2007.05817        -8.47593         9.66793
     2007.06091        -1.37340         9.55293
     2007.06365        -3.36488         9.05040
     2007.06639        -3.07935         9.53245
     2007.06913        -3.80883         9.35917
     2007.07186       -12.03230         9.06615
     2007.07460       -13.90378         9.30403
     2007.07734         0.31375         9.40170
     2007.08008        -9.20473         9.16382
     2007.08282         2.52880         9.20793
     2007.08555        -1.57168         9.46471
     2007.08829        -5.48615         9.45526
     2007.09103         2.51437         9.58129
     2007.09377         6.90990         9.57499
     2007.09650         4.09042         9.52300
     2007.09924        -5.78405         9.49622
     2007.10198        -6.39753         9.33869
     2007.10472        -2.21100         9.60019
     2007.10746         6.30252         9.83177
     2007.11019        10.25905         9.38752
     2007.11293        -2.71743         9.43951
     2007.11567        -4.05490         9.46786
     2007.11841        -3.35738         9.42848
     2007.12115        -2.14585         9.49622
     2007.12388         7.74967         9.66321
     2007.12662         0.96420         9.64430
     2007.12936        -2.83128         9.60492
     2007.13210         4.22325         9.90109
     2007.13466         9.72924        10.06965
     2007.13757        19.88230         9.64745
     2007.14031         5.37382         9.48992
     2007.14305        12.21135         9.75300
     2007.14579        -4.74413         9.48519
     2007.14852        -3.56560         9.55766
     2007.15126         5.75993         9.52300
     2007.15400         6.46645         9.49780
     2007.15674        11.22998         9.37334
     2007.15948         4.56750         9.30088
     2007.16221        -1.69097         9.84910
     2007.16495         2.11055         9.73882
     2007.16769        -5.91492        10.05390
     2007.17043         7.58060         9.84595
     2007.17316         1.35513         9.83492
     2007.17590         3.40765         9.56711
     2007.17864         9.73018         9.84437
     2007.18138        -2.76330         9.79396
     2007.18412         1.05823         9.55766
     2007.18685         7.04975        10.06335
     2007.18959        -3.03172         9.87588
     2007.19233       -14.01120         9.77033
     2007.19507        -5.02067         9.55608
     2007.19780         5.43385         9.41115
     2007.20054        -0.56362         9.51828
     2007.20328         1.18590         9.42060
     2007.20602         4.30843         9.64745
     2007.20876        -6.99905         9.56869
     2007.21149         0.58748         9.51828
     2007.21423         0.75100         9.81602
     2007.21697         1.97953         9.53560
     2007.21971         3.97305         9.47417
     2007.22245        -2.14042         9.44108
     2007.22518        -4.24690         9.67581
     2007.22792         3.33863         9.95780
     2007.23066         9.93915         9.40958
     2007.23340        -0.51532         9.66478
     2007.23613       -14.32680         9.56081
     2007.23887        -4.05227         9.29300
     2007.24161         5.36325        10.03657
     2007.24435        -2.14022        10.68561
     2007.24709        -7.34070        10.60212
     2007.24982       -11.12817        11.38664
     2007.25256        -0.83965        10.58951
     2007.25530        -3.10112        10.51390
     2007.25804         6.50140        11.04637
     2007.26078        -7.80007        10.96760
     2007.26351         6.24145        10.90931
     2007.26625        11.24998        11.32835
     2007.26899        -0.42650        10.74390
     2007.27173         3.46303        11.09205
     2007.27446        -4.76745        11.18027
     2007.27720         6.36508        10.58321
     2007.27994        -4.34340        10.91246
     2007.28268         0.86113        11.16609
     2007.28542        -2.51735        10.81006
     2007.31553        -1.62257        10.38157
     2007.31827        -7.97105        10.82109
     2007.32101        -6.09652        10.79589
     2007.32375        -4.98900        10.61157
     2007.32648        -0.83947        10.78643
     2007.32922       -14.31595        10.56904
     2007.33196         3.16058        11.19918
     2007.33470       -10.33890        11.08890
     2007.33744        -0.59437        10.81794
     2007.34017       -10.39285        10.67458
     2007.34291       -14.62032        10.97705
     2007.34565       -11.45780        10.73130
     2007.34839         0.17773        10.42568
     2007.35112         1.89725        11.18027
     2007.35392        -9.80171        12.02466
     2007.35660         4.23930        11.61192
     2007.35934        -6.49217        11.20705
     2007.36208        -7.53865        10.87465
     2007.36481       -16.48712        11.17712
     2007.36755       -15.15360        10.60999
     2007.37029         4.26793        10.86363
     2007.37303        -7.90755        11.41342
     2007.37577        -4.46202        10.77226
     2007.37850       -14.54850        11.10466
     2007.38124        -7.32297        10.96602
     2007.38398        -5.42745        11.04637
     2007.38672       -16.61692        10.37369
     2007.38945        -3.50840        10.65095
     2007.39219       -18.99687        10.87150
     2007.39493        -3.50635        10.80061
     2007.39767       -10.21582        10.74705
     2007.40041         0.51670        11.18342
     2007.40314       -11.57777        10.92506
     2007.40588        -9.90324        10.62890
     2007.40856        -3.31723        11.04007
     2007.41136        -1.14119        10.95027
     2007.41410        -0.65767        10.73445
     2007.41683        -5.81914        10.78958
     2007.41957        -4.80262        11.07315
     2007.42231         1.70191        11.14404
     2007.42505        10.24243        11.02589
     2007.42778        -1.50404        11.19445
     2007.43052         1.20148        10.79274
     2007.43326        -0.47799        10.76280
     2007.43600         2.74853        12.49727
     2007.43874        -0.98094        10.94397
     2007.44147         1.20158        11.27637
     2007.44426       -13.61147        12.44370
     2007.44695       -12.83837        11.28267
     2007.44969       -10.09784        11.06527
     2007.45243        -3.91132        11.07787
     2007.45516        -0.65879        10.43828
     2007.45790         3.07373        11.07157
     2007.46064        -4.92974        11.46384
     2007.46338        -5.62122        10.93767
     2007.46611       -15.20269        10.62417
     2007.46885         1.53883        10.81479
     2007.47159         6.00636        11.13301
     2007.47433         0.65788        10.87308
     2007.47707        -1.71959        11.24014
     2007.47980       -12.55907        10.96287
     2007.48254       -15.25754        10.61472
     2007.48528         0.39098        10.83685
     2007.48802        -5.66249        10.53910
     2007.49076         7.81703        10.90931
     2007.49349        -2.37144        10.78328
     2007.49623       -10.72192        10.94239
     2007.49897        -0.96939        11.06055
     2007.50171        -8.57387        10.72657
     2007.50444         0.42766        10.49027
     2007.50718        -3.98382        10.54541
     2007.50992        -4.03429        10.89986
     2007.51266        -1.61777        10.72184
     2007.51540        -6.87124        10.94082
     2007.51813        -2.34072        10.62260
     2007.52087         4.79581        10.98178
     2007.52350         6.77831        11.56938
     2007.52635        -6.30814        10.52177
     2007.52908        20.20038        11.42130
     2007.53182         5.64891        11.27479
     2007.53456         6.71343        11.08418
     2007.53730        -1.49604        10.65726
     2007.54004        14.09548        10.91246
     2007.54277        11.51101        10.85732
     2007.54551         7.50053        10.72657
     2007.54825        11.64806        10.85890
     2007.55099         0.08258        10.80376
     2007.55373        -2.84589        11.07315
     2007.55646         9.89563        10.82739
     2007.55920        13.84516        10.40677
     2007.56194         8.79568        10.53753
     2007.56468         2.81021        10.60842
     2007.56741         5.90773        10.85732
     2007.57015         6.54726        11.12356
     2007.57289        10.15678        10.71554
     2007.57563        14.40331        10.50602
     2007.57837         0.71983        10.76280
     2007.58110        12.85236        10.76911
     2007.58384         7.12188        10.61630
     2007.58658         0.90541        10.65726
     2007.58932        16.05293        10.55171
     2007.59206        13.15446        10.71397
     2007.59479        12.22298        10.97390
     2007.59753        11.69151        10.86205
     2007.60027         7.05503        10.81794
     2007.60301         7.81156        10.66671
     2007.60574         5.61708        10.89041
     2007.60848        12.87961        10.75335
     2007.61122         9.54713        10.67773
     2007.61396         9.39066        10.59897
     2007.61670        15.01118        11.64658
     2007.61943         8.99071        12.06562
     2007.62217        -0.06177        11.21650
     2007.62491         7.10176        11.46384
     2007.62765        17.18428        11.58671
     2007.63039        14.61481        11.36301
     2007.63312         5.85633        11.46226
     2007.63586         3.15586        11.26849
     2007.63860        -2.61462        11.02116
     2007.64134        10.26191        10.78328
     2007.64407        25.89143        11.35829
     2007.64681        25.01996        11.36616
     2007.64955        12.44648        12.04672
     2007.65229         5.62001        11.56781
     2007.65503         6.67554        11.01959
     2007.65776         8.81706        10.87780
     2007.66050        18.07059        11.03534
     2007.66324        22.38911        11.20705
     2007.66598         8.78164        11.21808
     2007.66872        23.03816        11.51110
     2007.67145        12.53069        11.15034
     2007.67419        28.65021        12.25781
     2007.67693        11.92574        11.05582
     2007.67967        16.74826        11.23698
     2007.68240        24.05379        11.49534
     2007.68514        12.66331        11.30945
     2007.68788        10.96984        11.79623
     2007.69062        12.38836        10.86363
     2007.69336        13.92389        10.82267
     2007.69609        14.10541        10.82897
     2007.69883        13.75994        11.24014
     2007.70157        25.75046        11.31733
     2007.70431        18.20999        11.09993
     2007.70705        17.95051        11.74267
     2007.70978        18.76804        11.35514
     2007.71252         7.23056        11.07000
     2007.71526         8.04609        10.75650
     2007.71800        13.54961        10.58164
     2007.72073        21.98214        11.18027
     2007.72347        24.83266        10.59424
     2007.72621        14.76119        10.59897
     2007.72895        17.65171        10.84630
     2007.73169        19.97524        10.98808
     2007.73442        14.31676        11.40397
     2007.73716         5.58229        10.98808
     2007.73990        11.70881        10.95657
     2007.74264        20.33434        10.55643
     2007.74538         7.74086        10.94239
     2007.74811        10.65839        11.18815
     2007.75085         0.73691        11.45123
     2007.75359        -0.76456        11.63870
     2007.75633         8.31696        11.09678
     2007.75906        10.29449        10.74075
     2007.76180         7.72501        11.18500
     2007.76454        14.25854        10.88568
     2007.76728         2.27706        11.90651
     2007.77002        -1.45141        11.79939
     2007.77275        11.30511        10.89828
     2007.77549        12.64964        11.06685
     2007.77823         5.94816        10.75650
     2007.78097         3.39369        10.90931
     2007.78371        -1.49679        10.60527
     2007.78644        11.72774        11.14246
     2007.78918         3.27126        10.85417
     2007.79192        15.74579        11.12198
     2007.79466         8.27731        11.09835
     2007.79739        11.69084        11.25116
     2007.80013         3.23136        10.85890
     2007.80276        -9.33213        11.22438
     2007.80561         6.32141        10.85732
     2007.80835         9.49094        11.35671
     2007.81108         2.93246        11.78993
     2007.81382        -6.94101        11.10781
     2007.81656       -12.48349        11.53788
     2007.81930        -7.08896        11.23383
     2007.82203        -9.83544        11.00383
     2007.82477         0.08209        11.69384
     2007.82751       -12.51839        11.35829
     2007.83025       -11.78786        10.98965
     2007.83299         6.33866        10.97390
     2007.83572        -7.36181        10.79274
     2007.83846         0.44171        10.91404
     2007.84120        12.04124        11.18972
     2007.84394       -10.36724        10.68089
     2007.84668       -12.57871        10.95972
     2007.84941        -6.91519        10.90143
     2007.85215        -7.15866        11.36144
     2007.85489        -9.68914        11.79623
     2007.85763        -0.59161        10.92034
     2007.86036         6.73691        10.66041
     2007.86310        10.39844        11.11726
     2007.86584        -1.65504        10.99596
     2007.86858        -5.61751        10.72184
     2007.87132        -9.78899        11.15349
     2007.87405        -9.74546        11.19130
     2007.87679         3.89206        10.94712
     2007.87953        -5.44141        11.00698
     2007.88227        -8.90089        10.95342
     2007.88501        -7.32936        11.14246
     2007.88774       -14.19384        10.83842
     2007.89048        -6.49331        10.98020
     2007.89322        -7.84979        11.21020
     2007.89596        -2.59426        12.01678
     2007.89869       -15.74874        10.61787
     2007.90132        -5.17423        11.37719
     2007.90948        -8.06817        12.18535
     2007.91238        -5.56711        10.95342
     2007.91512         1.27542        10.74075
     2007.91786         6.93894        10.96130
     2007.92060        -7.35853        11.75370
     2007.92334       -14.83901        11.15664
     2007.92607         8.69452        11.06055
     2007.92881        -7.27896        10.64465
     2007.93155         6.82257        10.62732
     2007.93429         1.97609        11.03376
     2007.93702        -1.94638        11.18500
     2007.93971       -12.56837        13.73864
     2007.94136        -3.54055        24.04302
     2007.95448        -7.72504        25.69556
     2007.95619        -8.50571        11.03691
     2007.95887         4.22731        12.04987
     2007.96167       -14.41366        17.06579
     2007.96440         4.99187        11.14089
     2007.96714        18.40839        14.56098
     2007.96988        -7.38008        10.90616
     2007.97262       -17.71956        11.57884
     2007.97535        -6.90403        11.35829
     2007.97809         0.15649        11.25904
     2007.98083        -5.25398        11.08575
     2007.98357         1.83254        11.44493
     2007.98631        -2.70793        11.00068
     2007.98904       -13.27841        12.15857
     2007.99178        -7.40988        12.32240
     2007.99452        -3.98736        12.60912
     2007.99726        -3.60283        11.75055
     2008.00000       -10.50431        11.78048
     2008.00273        -3.79478        12.02939
     2008.00547        -8.98126        11.60719
     2008.00821        -6.22473        11.60562
     2008.01095         8.68479        12.09240
     2008.01368         2.21332        11.54575
     2008.01642        -1.39716        11.58986
     2008.01916       -16.74363        12.25309
     2008.02190       -17.24411        11.59301
     2008.02464        -5.56958        11.32363
     2008.02737        -4.62106        11.93014
     2008.03011       -14.36353        11.43863
     2008.03285       -11.62001        11.13774
     2008.03559        -1.02348        11.96480
     2008.03833       -27.10196        11.47329
     2008.04106       -21.11843        11.64500
     2008.04380       -18.39591        11.69226
     2008.04654       -26.71138        11.84665
     2008.04928       -12.51886        11.75685
     2008.05201       -22.86833        11.69069
     2008.05475       -18.14181        11.48274
     2008.05749        -7.43328        11.63870
     2008.06023       -15.91176        11.34253
     2008.06297       -10.83223        11.45438
     2008.06570        -2.39971        11.25589
     2008.06844        -4.47418        11.74110
     2008.07118       -15.44566        12.12706
     2008.07392       -10.81813        11.71747
     2008.07666        -1.96661        12.11130
     2008.07939       -14.83908        11.88445
     2008.08213        -5.69756        11.84980
     2008.08487        -2.36803        11.37877
     2008.08761       -16.00151        11.44020
     2008.09034       -23.07398        11.37089
     2008.09308       -16.07746        11.39294
     2008.09582       -11.00593        13.10535
     2008.09856        -3.30341        11.62767
     2008.10130         5.37412        12.28302
     2008.10403       -10.57736        11.32520
     2008.10677       -16.12283        11.99630
     2008.10951       -18.60631        11.94274
     2008.11225       -15.48378        11.35829
     2008.11498       -11.28526        11.45438
     2008.11772        -2.90273        11.17712
     2008.12046       -37.06621        12.09398
     2008.12320       -23.11468        11.46068
     2008.12594        -8.28116        11.83404
     2008.12867       -16.60463        11.34411
     2008.13141       -16.47111        11.15664
     2008.13415        -9.06058        11.46226
     2008.13689        -4.60906        11.76788
     2008.13963       -13.65753        11.38664
     2008.14236        -3.82301        11.32363
     2008.14510        -9.81448        11.96165
     2008.14784       -12.19696        10.98808
     2008.15058       -17.05243        11.45596
     2008.15331       -20.76991        11.39137
     2008.15605       -15.68538        11.57726
     2008.15879        -7.89686        11.56623
     2008.16421        -7.70232        14.97214
     2008.16605        -0.28984        36.13227
     2008.16974       -20.68675        11.90808
     2008.17248       -22.83523        11.61664
     2008.17522       -20.66470        11.89548
     2008.17796       -21.10318        11.37404
     2008.18069       -24.36165        11.45911
     2008.18271         3.56940        17.58093
     2008.19439       -30.71799        17.10675
     2008.19712       -15.14550        11.35986
     2008.19986         7.07302        11.67178
     2008.20260       -27.20945        12.10343
     2008.20533       -12.66993        10.97705
     2008.20807       -16.97940        11.79308
     2008.21081       -14.21088        11.29370
     2008.21355        -2.20135        11.52212
     2008.21629        -7.49383        11.39452
     2008.21902       -21.07630        11.74582
     2008.22176       -25.35278        11.40240
     2008.22450       -28.65025        11.91281
     2008.22724       -29.10473        11.22438
     2008.22997       -15.98920        11.48747
     2008.23271       -14.60468        11.77103
     2008.23545       -21.37115        11.85295
     2008.23819       -16.10363        11.58199
     2008.24093       -27.86410        11.93959
     2008.24366        -4.41358        15.15173
     2008.24640        -1.60505        11.38192
     2008.24914       -22.70353        11.85925
     2008.25188       -17.74000        11.40240
     2008.25462       -27.23448        11.43705
     2008.25735       -21.25295        11.58514
     2008.26009       -12.56143        11.60877
     2008.26283        -9.47390        11.70644
     2008.26557        -9.29938        11.68281
     2008.26830       -22.30385        11.58356
     2008.27104       -27.48933        11.27007
     2008.27378       -15.47480        12.09083
     2008.27652       -16.90228        11.45281
     2008.27926        -3.92375        11.57096
     2008.28199       -27.69223        12.35391
     2008.28473       -21.58470        12.15541
     2008.28747       -18.63718        11.36144
     2008.29021        -9.84465        11.78363
     2008.29295        -4.69813        11.06370
     2008.29568        -9.36660        11.51267
     2008.29836        -5.69559        12.38384
     2008.30116       -34.90955        11.83247
     2008.30390       -21.36103        11.26219
     2008.30663       -12.56850        11.43390
     2008.30937        -2.88998        11.50952
     2008.31211       -17.72445        12.00576
     2008.31485       -19.41593        11.35356
     2008.31759       -11.98240        11.64973
     2008.32032         3.36512        11.43548
     2008.32306         1.18265        11.73952
     2008.32580        -5.58083        12.00733
     2008.32854        -7.52130        11.26692
     2008.33128       -26.44478        11.49219
     2008.33401       -12.61925        11.16924
     2008.33675        -9.94173        11.15664
     2008.33949        -9.20420        11.28109
     2008.34223        -6.05768        11.16609
     2008.34496       -15.17015        11.08890
     2008.34770       -16.76963        10.83212
     2008.35044       -11.43610        11.33151
     2008.35318        -3.27758        11.12671
     2008.35592        -0.69305        10.96760
     2008.35865       -21.25553        11.38979
     2008.36139       -12.68900        10.82897
     2008.36413        -5.45148        11.07315
     2008.36687       -12.81395        11.48431
     2008.36961       -22.45743        11.47329
     2008.37234       -17.05190        11.18815
     2008.37508       -11.02038        11.12671
     2008.37782        10.10115        11.47014
     2008.38056        -6.90433        11.02589
     2008.38329         4.98520        11.50795
     2008.38603        -4.56928        11.78206
     2008.38877        -8.20875        11.32363
     2008.39151        -5.40123        11.39925
     2008.39425        -1.88770        11.04479
     2008.39698         0.52482        11.18657
     2008.39972         1.34735        10.99596
     2008.40246        -4.72913        11.00541
     2008.40520        -6.56960        10.95342
     2008.40794        -2.83608        11.13931
     2008.41067         2.54945        10.95185
     2008.41341        -2.08202        11.24959
     2008.41615        -9.97850        10.80376
     2008.41889       -14.69197        11.29527
     2008.42162       -19.16945        12.10815
     2008.42436        -7.85192        11.93171
     2008.42710        -4.89040        12.45001
     2008.42984        -5.08387        11.16452
     2008.43258        -3.81435        11.94589
     2008.43531       -13.45582        11.49849
     2008.43805        -4.71230        11.79151
     2008.44079        -9.70277        11.51740
     2008.44353        -0.32625        11.87185
     2008.44626       -15.65572        11.16294
     2008.44900       -18.00820        10.93924
     2008.45174        -9.37967        11.32520
     2008.45448        -2.07815        11.07787
     2008.45722        -1.80162        11.63397
     2008.45995       -13.77310        12.50514
     2008.46269       -29.28157        12.48781
     2008.46543        -8.17805        11.47959
     2008.46817        -7.56052        11.37246
     2008.47091        -1.20300        11.29212
     2008.47364       -10.42647        11.03849
     2008.47638        -3.44195        11.47171
     2008.47912       -13.02142        10.94397
     2008.48186        -3.95890        11.10781
     2008.48459         0.38463        11.31418
     2008.48733         0.24515        10.88568
     2008.49007       -12.25132        11.08575
     2008.49287        -5.49329        11.74425
     2008.49555        -3.07227        11.26849
     2008.49828       -12.07675        11.97582
     2008.50102         0.89778        11.20705
     2008.50376         6.24330        12.04199
     2008.50650         3.93283        11.37877
     2008.50924        -2.83765        11.34726
     2008.51197         0.64488        10.75020
     2008.51471        -3.13360        10.61157
     2008.51745        -3.68507        11.02274
     2008.52019       -11.35455        11.65288
     2008.52292       -10.23302        11.58199
     2008.52566        -9.87450        11.90021
     2008.52840        -3.50997        11.29212
     2008.53108        -2.60996        11.49219
     2008.53388        -0.34492        11.88918
     2008.53661        -3.77540        11.05424
     2008.53935         3.58713        10.98020
     2008.54209        -2.93835        11.20705
     2008.54483         2.67618        11.32835
     2008.54757        -0.40030        11.01013
     2008.55030         4.65923        10.75650
     2008.55304        -3.28225        11.25274
     2008.55578         8.69328        10.76280
     2008.55852        -6.90120        10.90774
     2008.56125        -0.03967        10.92191
     2008.56399         7.25585        10.94554
     2008.56673         9.89038        11.37719
     2008.56947         3.71590        11.10466
     2008.57221         6.13843        11.40712
     2008.57494        11.83295        11.81041
     2008.57768         1.67748        11.01644
     2008.58042        10.88000        10.81952
     2008.58316        17.70753        11.15507
     2008.58590        -3.10295        10.67773
     2008.58863         9.88058        11.10308
     2008.59137         5.13810        10.88883
     2008.59411        11.63663        10.91246
     2008.59685        -3.32685        11.05267
     2008.59958        -1.95932        11.45438
     2008.60232        12.55920        11.61034
     2008.60506         8.07573        11.20548
     2008.60780         1.94725        11.03376
     2008.61054         0.95278        11.19287
     2008.61327         2.25730        11.23068
     2008.61601         0.77283        11.20390
     2008.61875         9.24335        11.17240
     2008.62149         6.86388        11.35671
     2008.62423         8.56040        11.22438
     2008.62696         3.99893        11.38664
     2008.62970        11.65345        11.46699
     2008.63244        22.29298        11.59144
     2008.63518         3.28450        12.32713
     2008.63791         6.31603        11.22596
     2008.64065         3.74255        11.02274
     2008.64339        -0.59192        11.43548
     2008.64613         4.80160        12.13966
     2008.64887        11.04013        11.38192
     2008.65160         8.17865        12.01048
     2008.65434         5.42118        11.61507
     2008.65708         1.69370        11.13616
     2008.65982        -2.10277        11.57411
     2008.66256        19.66475        11.36774
     2008.66529        12.58128        11.35041
     2008.66803        -7.29219        11.12986
     2008.67077         0.11933        11.20075
     2008.67351        -0.27914        11.19760
     2008.67624         6.50938        13.73392
     2008.67899        11.80495        11.34253
     2008.68172        -1.64857        11.44336
     2008.68446         5.00296        11.71904
     2008.68720         9.48948        11.10623
     2008.68993        11.81801        11.08418
     2008.69267         2.35153        11.20075
     2008.69541         8.06906        11.38349
     2008.69815        24.73758        11.71589
     2008.70089         2.13911        11.00856
     2008.70362         1.95363        11.45438
     2008.70636        20.32816        11.37404
     2008.70910         6.17568        11.19445
     2008.71184        15.71821        11.75685
     2008.71457         8.83373        12.07035
     2008.71731        -4.28274        11.58199
     2008.72005        11.37178        11.13459
     2008.72279         8.89731        11.74582
     2008.72553         2.09383        11.78993
     2008.72826         2.41536        11.97110
     2008.73100         7.11988        11.56308
     2008.73374        -1.97659        12.14281
     2008.73648        -2.96107        10.89828
     2008.73921        -2.15354        11.29527
     2008.74469        -1.57549        11.16924
     2008.74743        -3.19697        11.36616
     2008.75017        11.89056        11.42445
     2008.75290         4.63108        11.52685
     2008.75564         2.87861        12.39802
     2008.75838        -5.02587        11.69226
     2008.76112        -6.14134        11.85610
     2008.76386         7.80518        12.19952
     2008.76659        -3.96129        12.04041
     2008.76933         0.76323        11.90966
     2008.77207        -2.89524        11.33466
     2008.77481         1.87828        11.31103
     2008.77754        -0.79919        11.29212
     2008.78028         7.57633        11.39137
     2008.78302         3.70186        11.37404
     2008.78576        -7.03262        11.40082
     2008.78850       -11.13709        11.80254
     2008.79123        -6.85257        11.94117
     2008.79397         0.12996        11.48747
     2008.79665        -1.68503        11.44336
     2008.79945       -17.06599        11.12513
     2008.80219        11.28753        11.68596
     2008.80492         2.10706        11.98213
     2008.80766        -2.58342        11.38349
     2008.81040         1.67411        11.63870
     2008.81314         2.10763        11.09520
     2008.81587         1.48616        11.80254
     2008.81861       -11.73532        10.93137
     2008.82135         1.08421        11.65288
     2008.82409        -9.49927        11.38192
     2008.82683        -9.01474        11.01644
     2008.82956       -14.21422        11.73795
     2008.83230        -1.28369        11.20075
     2008.83504         2.86283        11.35829
     2008.83778         9.95436        12.05774
     2008.84052        -1.41212        11.97582
     2008.84325         8.36741        11.77733
     2008.84599        10.46593        11.32520
     2008.84873        11.81046        11.83719
     2008.85147        -3.26102        12.18692
     2008.85420         3.49151        11.85767
     2008.85700         7.46354        11.75528
     2008.85974        -6.35893        11.84665
     2008.86242         6.09608        11.42603
     2008.86516        -4.79939        12.18692
     2008.86789        -4.19587        11.53945
     2008.87063         3.20466        11.51110
     2008.87337         5.63818        11.34096
     2008.87611         9.15871        11.03219
     2008.87913         7.47679        12.62172
     2008.88158         4.55576        11.41342
     2008.88432        -5.36572        11.77418
     2008.88706        -7.47019        11.86555
     2008.88980         6.42233        11.92541
     2008.89253        17.90586        11.62767
     2008.89527        19.07638        11.87500
     2008.89801         9.89591        11.99315
     2008.90075        13.73043        11.46699
     2008.90349         7.03096        11.58199
     2008.90622        17.25948        11.32993
     2008.90896         8.95701        11.74582
     2008.91170        -2.09447        11.98055
     2008.91444         1.18906        12.11761
     2008.91718         6.84358        11.48747
     2008.91991        11.49011        11.99000
     2008.92265        17.84963        11.85295
     2008.92539         5.64616        11.56151
     2008.92813        -0.70931        11.69384
     2008.93115         1.24276        13.25974
     2008.93360        -0.36326        11.50322
     2008.93634         6.51226        11.99000
     2008.93908        -8.00821        12.15226
     2008.94182        -6.38969        11.32993
     2008.94455        -2.88316        11.82459
     2008.94729        -4.60864        11.72534
     2008.95003       -10.99411        11.97740
     2008.95271        -4.50410        12.93679
     2008.95551        -0.02906        11.92856
     2008.95824         0.21646        11.81986
     2008.96098        -3.24501        12.54768
     2008.96372         0.11151        12.03884
     2008.96646         5.17204        12.46418
     2008.96919       -14.60344        12.72254
     2008.97193        -0.65991        11.87343
     2008.97467        -8.45739        11.44020
     2008.97741       -11.71686        12.00733
     2008.98927        12.41241        21.74301
     2008.99110       -17.25024        13.10693
     2008.99384        -6.22171        12.60912
     2008.99657       -11.03519        11.92226
     2008.99931       -16.43366        12.09555
     2009.00479        11.13439        12.65323
     2009.00752        -7.60809        12.00891
     2009.01026       -14.48156        11.96637
     2009.01300       -17.48904        11.71904
     2009.01574        -6.93851        11.53630
     2009.01848        -2.51499        11.48904
     2009.02121        -0.29546        12.56973
     2009.02395       -24.82994        12.11130
     2009.02669       -18.93241        11.81514
     2009.02943       -13.22989        21.35232
     2009.03130       -13.31715        41.45696
     2009.03844        -4.55816        18.16538
     2009.04038       -19.29579        11.63082
     2009.04312       -26.52226        11.64500
     2009.04585       -20.07674        11.85295
     2009.04859       -25.80621        11.79466
     2009.05133       -19.07369        11.64185
     2009.05407       -28.72816        11.84665
     2009.05681       -13.95764        11.48431
     2009.05954       -14.87611        11.68754
     2009.06228       -21.31359        11.75370
     2009.06502       -12.82406        11.81671
     2009.06776        -6.79554        11.78836
     2009.07049       -13.24001        11.76158
     2009.07323        -5.20549        12.02466
     2009.07597       -21.82396        11.54890
     2009.07871       -10.89144        11.28740
     2009.08145       -12.76091        11.39610
     2009.08418         0.06761        11.51110
     2009.08692       -17.34986        11.54103
     2009.08966        -4.69634        11.59459
     2009.09240        -7.35581        11.36301
     2009.09514        -6.81029        11.81514
     2009.09787         1.96124        11.91596
     2009.10061         1.43076        11.37719
     2009.10335       -10.46871        11.33938
     2009.10609       -16.72519        11.78678
     2009.10882        -2.87666        11.50637
     2009.11156         0.67886        11.83877
     2009.11430        -1.95361        11.53315
     2009.11704        -1.43009        11.71432
     2009.11978        -2.43356        12.22000
     2009.12251       -10.44004        11.18657
     2009.12525       -10.37551        12.21528
     2009.12799         4.92301        11.36144
     2009.13073        -2.36446        10.89513
     2009.13347       -17.15594        11.48116
     2009.13620       -16.01741        11.49692
     2009.13894       -10.39789        11.54575
     2009.14168         1.16164        11.20390
     2009.14442        -6.12984        11.29842
     2009.14715        -7.66531        11.79151
     2009.14989       -12.09779        11.66863
     2009.15263        -7.22626        11.17240
     2009.15537        -4.97974        11.75212
     2009.15811       -11.68721        11.66233
     2009.16083       -11.02481        11.32678
     2009.16358        -8.46616        11.65130
     2009.16632        -9.60864        11.57884
     2009.16906        -5.65011        11.33623
     2009.17180        -1.45159        11.04952
     2009.17453        -0.01306        11.22911
     2009.17727       -13.24153        11.55048
     2009.18001       -20.40201        11.21966
     2009.18275        -5.45148        11.47329
     2009.18548        -9.51496        11.50322
     2009.18822         3.85557        11.43233
     2009.19096         0.11009        11.63870
     2009.19370       -10.73038        11.36301
     2009.19644       -11.39586        11.52527
     2009.19917         1.66667        11.61822
     2009.20191       -16.63381        11.54260
     2009.20465       -21.49328        12.69576
     2009.20739        -0.39876        12.82179
     2009.21013        -8.53823        12.17904
     2009.21286       -17.06471        11.97425
     2009.21560        -1.42718        11.78678
     2009.21834       -11.44866        11.78678
     2009.22119         1.92189        12.14596
     2009.22381       -16.33061        11.72219
     2009.22667        -9.83306        12.54295
     2009.22923        -1.29607        13.37946
     2009.23203       -17.24303        12.99980
     2009.23477        -5.00851        11.89076
     2009.23750       -12.03998        11.90808
     2009.24024        -5.39346        12.32398
     2009.24298       -22.77093        11.64185
     2009.24572       -11.47641        14.91071
     2009.24846       -11.27688        12.07035
     2009.25119       -28.30036        12.70994
     2009.25393       -19.06983        14.19550
     2009.25667       -10.57031        11.72534
     2009.25941       -13.59978        11.90808
     2009.26214        -4.88026        11.50007
     2009.26488        -3.49873        11.65760
     2009.26762         4.81979        11.51425
     2009.27036         0.50132        11.63870
     2009.27310       -11.51616        11.23383
     2009.27583       -16.21963        11.65130
     2009.27857        -5.75711        11.60719
     2009.28131        -8.07358        12.18535
     2009.28405        -7.86006        12.09398
     2009.28679        -2.68653        11.52527
     2009.28952       -11.74601        11.24801
     2009.29226        -9.52648        11.73165
     2009.29500        -5.92496        11.30630
     2009.29774        -2.72943        11.44336
     2009.30047        -9.97291        11.44178
     2009.30321        -8.86038        11.55048
     2009.30595         6.55414        11.90336
     2009.30869         2.74267        11.43548
     2009.31143       -10.28981        11.38034
     2009.31416        -3.62728        11.56151
     2009.31690        -1.67076        11.63870
     2009.31964        -5.34023        11.70801
     2009.32238        -1.15671        11.95692
     2009.32512        -7.48218        12.34761
     2009.32785        -5.80666        11.57411
     2009.33059         1.65587        11.73952
     2009.33333         1.95539        11.67808
     2009.33607        11.46892        12.16329
     2009.33880         4.43944        11.59774
     2009.34154       -14.59003        12.72727
     2009.34428         2.85249        12.28144
     2009.34702       -16.21398        11.51267
     2009.34976        -7.12346        11.85925
     2009.35249        -0.66193        11.35041
     2009.35523        -7.51241        11.54260
     2009.35797         4.56612        11.81986
     2009.36076       -13.63985        12.01363
     2009.36350       -10.66632        11.40555
     2009.36618         9.77069        12.16329
     2009.36892        -0.24878        11.81356
     2009.37166         4.02374        12.46576
     2009.37440         0.99727        12.06562
     2009.37713        -2.12721        12.34288
     2009.37987        10.97632        12.62329
     2009.38261         4.66484        12.32555
     2009.38535        -3.68963        11.30945
     2009.38809        -9.87611        11.61822
     2009.39082       -12.87658        11.88760
     2009.39356         2.79994        11.57411
     2009.39630         4.66747        11.27952
     2009.39904         7.66099        13.05021
     2009.40177        -7.99648        11.17712
     2009.40451        -2.18296        11.91281
     2009.40725         0.95957        11.97898
     2009.40999         3.09209        11.74740
     2009.41273         4.49862        11.68754
     2009.41546         2.31314        11.45123
     2009.41820        -9.48533        11.72534
     2009.42094        -6.08481        11.72377
     2009.42368         4.80272        11.54103
     2009.42642        -0.39376        11.42760
     2009.42915        10.93077        11.53630
     2009.43189         2.98230        11.33151
     2009.43463         4.45382        11.51110
     2009.43737         0.29235        11.09678
     2009.44010       -15.76513        11.10150
     2009.44284         1.10740        11.36774
     2009.44558         9.35992        11.15507
     2009.44832        21.34645        11.38664
     2009.45106         7.27897        11.60719
     2009.45379        -0.41550        11.34883
     2009.45653        -2.13298        11.09678
     2009.45927         0.28755        11.25431
     2009.46201        21.87907        11.35671
     2009.46475        11.26160        11.87028
     2009.46748         1.34412        11.86082
     2009.47022        -3.46835        11.23383
     2009.47296        -1.84883        11.50479
     2009.47570        10.39370        11.29055
     2009.47843        20.72722        11.57726
     2009.48117         8.11275        11.49377
     2009.48391         9.83727        11.59301
     2009.48665        -1.15120        11.92856
     2009.48939        15.32432        12.15384
     2009.49212        21.14085        11.91281
     2009.49486        21.08337        11.99630
     2009.49760         0.68690        11.23541
     2009.50034         1.22442        11.16924
     2009.50308         7.22295        11.80569
     2009.50581        -0.37453        12.15857
     2009.50855         5.14600        11.92699
     2009.51129         7.31652        11.78206
     2009.51408        10.70656        11.29842
     2009.51676         8.93557        11.91124
     2009.51950        20.08610        11.55205
     2009.52224         6.53162        11.40555
     2009.52498        -2.98185        11.54575
     2009.52772        18.56167        11.75843
     2009.53045        -6.08380        12.37596
     2009.53319         0.40572        12.12391
     2009.53593        -2.35275        12.98720
     2009.53867        -5.71923        11.31733
     2009.54141         7.43630        11.23856
     2009.54414         2.60582        11.56466
     2009.54688         5.36735        12.79816
     2009.54962        10.74987        11.34253
     2009.55236         0.22140        11.39294
     2009.55509        14.65092        11.87343
     2009.55783        18.21945        11.60877
     2009.56057        17.69497        12.24048
     2009.56331         5.06650        11.98843
     2009.56605         4.33602        11.88445
     2009.56878         3.76855        11.13144
     2009.57152         5.85107        11.35514
     2009.57426         9.61260        11.42288
     2009.57700        -6.09388        11.83089
     2009.57974        12.57665        11.86555
     2009.58247         1.35917        11.93644
     2009.58521        21.65870        12.09398
     2009.58795         8.13622        11.53000
     2009.59069        13.47075        12.25151
     2009.59342        15.46827        11.58514
     2009.59616        17.60780        11.20863
     2009.59890        29.11032        11.37562
     2009.60164        15.08385        11.02431
     2009.60438        18.66937        11.07157
     2009.60711        17.96290        11.16137
     2009.60985        26.76942        11.73322
     2009.61259         8.98595        10.94870
     2009.61533        16.49447        11.77733
     2009.61807        14.70700        11.21335
     2009.62080        21.80952        11.46384
     2009.62354        12.92405        10.89986
     2009.62628        13.40857        11.07630
     2009.62902        26.40410        12.43898
     2009.63175        13.60662        11.22438
     2009.63449        17.83115        11.54890
     2009.63723        24.20167        11.52370
     2009.63997        18.37920        11.04322
     2009.64271         8.68172        11.64815
     2009.64544        21.56225        12.05302
     2009.64818        22.18277        11.99000
     2009.65092        22.97630        11.23068
     2009.65360         9.32331        11.27322
     2009.65639        17.79835        11.35986
     2009.65913        32.95187        11.79466
     2009.66187        27.05740        11.62610
     2009.66461        22.37792        11.58356
     2009.66729        25.45794        11.61664
     2009.67008        17.41397        11.37089
     2009.67282        14.97650        12.34761
     2009.67556         4.95202        11.07787
     2009.67830        24.85555        12.57131
     2009.68104        22.46707        11.82302
     2009.68377         5.47560        11.09835
     2009.68651        21.53213        11.29212
     2009.68925        14.87665        11.59774
     2009.69199        23.62718        11.36301
     2009.69472        17.69370        11.62137
     2009.69746        26.22823        11.26534
     2009.70020        23.14275        10.97705
     2009.70294        22.35128        11.11411
     2009.70568        14.97480        11.11883
     2009.70841        12.71933        11.35199
     2009.71115        12.35485        11.12671
     2009.71389        18.72138        11.81356
     2009.71663        20.66790        11.81356
     2009.71937         2.18343        11.22438
     2009.72210        10.57895        11.22281
     2009.72484        14.57848        11.22911
     2009.72758        13.36300        11.06212
     2009.73032        19.57553        11.25746
     2009.73305         5.15805        11.20863
     2009.73579        24.94358        12.05144
     2009.73853        18.70410        10.92191
     2009.74127        34.64563        12.05459
     2009.74401        16.44215        11.26061
     2009.74652        -3.10637        12.54768
     2009.74940        17.37243        13.47871
     2009.75167        22.16183        16.18044
     2009.75501        16.18276        11.15034
     2009.75770        16.40678        12.06719
     2009.76043        17.97430        10.74705
     2009.76317        14.43983        10.91089
     2009.76591         0.18435        10.77068
     2009.76865        16.38388        11.46384
     2009.77138        14.12640        11.11726
     2009.77412        16.43293        11.58356
     2009.77686         7.04945        10.81637
     2009.77960        22.25598        11.35199
     2009.78234        22.18350        11.15822
     2009.78507        30.45203        11.39452
     2009.78781        17.70755        11.91281
     2009.79055         8.97108        13.04864
     2009.79323        -2.38491        12.40432
     2009.79603        -6.82387        11.43705
     2009.79876         6.21065        11.69541
     2009.80139        11.45416        12.43268
     2009.80424        16.77470        11.83719
     2009.80698         6.10823        13.83159
     2009.80971        32.91675        13.81426
     2009.81245         0.32528        12.41220
     2009.81821        26.42088        15.48728
     2009.82340        19.71538        11.15822
     2009.82544         0.14360        18.34970
     2009.82784        26.64310        21.85486
     2009.83070        36.50978        20.02272
     2009.83430         9.87397        13.92611
     2009.83645        33.64425        17.66915
     2009.83995        24.82155        13.66618
     2009.84188        14.22292        18.80025
     2009.84531        21.89458        13.46296
     2009.84804        40.56210        12.53035
     2009.85529        35.33199        19.46662
     2009.85813        21.52141        18.88689
     2009.86143        17.08305        12.97932
     2009.86447        23.39025        11.58199
     2009.86721        29.59878        12.97932
     2009.86995         6.56830        11.64500
     2009.87269        11.54583        13.15576
     2009.87514        17.33780        13.90563
     2009.93678       -45.28805        32.01903
     2009.93839        10.96943        11.86240
     2009.94113        13.89796        11.32678
     2009.94387        13.55748        10.89671
     2009.94661         7.41301        11.35829
     2009.94935        -2.66347        11.46226
     2009.95208        -3.05694        11.35514
     2009.95482        11.22758        11.43863
     2009.95756         2.01611        11.58829
     2009.96030         0.06963        11.21335
     2009.96303        -6.64284        11.41657
     2009.96577        -4.01932        12.11603
     2009.96851         1.37021        12.25781
     2009.97125         3.16673        12.40117
     2009.97399        10.19026        11.94747
     2009.97672       -11.60822        11.42288
     2009.97946       -10.08569        11.21020
     2009.98220         1.84383        10.87780
     2009.98494         9.72036        10.84000
     2009.98767        12.04788        11.03061
     2009.99041         5.47941        11.16609
     2009.99315         4.78793        11.41657
     2009.99589        -1.14954        11.28425
     2009.99863         2.84598        11.42445
     2010.00410        18.16703        11.25904
     2010.00684         0.60356        11.24644
     2010.00958        -4.45192        11.76315
     2010.01232        18.04261        11.68754
     2010.01505       -10.60587        11.37089
     2010.01779         5.16766        11.07472
     2010.02053        12.84618        11.23698
     2010.02287        -8.81687        15.11865
     2010.10266        20.28193         9.92314
     2010.10540         6.96146        10.12636
     2010.10814        25.20998         9.94520
     2010.11088        14.22351        10.18465
     2010.11362        16.10003        10.12794
     2010.11635        12.85456         9.82704
     2010.11909        11.12708         9.79711
     2010.12183        10.03061         9.87273
     2010.12457         7.31413         9.91999
     2010.12731        12.63766        10.27602
     2010.13004         5.06118         9.96410
     2010.13278         5.55271         9.64115
     2010.13552         7.91823         9.61122
     2010.13826         8.14576         9.57814
     2010.14099         4.68528         9.50252
     2010.14373        -0.05119         9.97040
     2010.14647        13.87333        10.10431
     2010.14921        -2.25214         9.86170
     2010.15195        22.19138         9.79711
     2010.15468         9.33791         9.66006
     2010.15742        27.13443        10.01766
     2010.16016        14.92796         9.80499
     2010.16290         8.00848         9.68054
     2010.16564        15.61001         9.57026
     2010.16837        19.10053         9.86485
     2010.17111        12.34306         9.71677
     2010.17385         5.62258         9.66163
     2010.17659         0.34811         9.72622
     2010.17932        13.95363         9.56554
     2010.18206        24.48616         9.68526
     2010.18480        23.51068         9.88218
     2010.18754        13.13121         9.58917
     2010.19028        22.41174         9.80657
     2010.19301        10.39226         9.51985
     2010.19575        18.22779         9.53560
     2010.19849        21.51731         9.78766
     2010.20123         9.78284         9.63328
     2010.20397        15.96036         9.86800
     2010.20670        11.23489        10.00663
     2010.20944        14.89941         9.58444
     2010.21218         3.99794         9.65848
     2010.21492        12.16746         9.93732
     2010.21765        18.29699        10.11848
     2010.22039         9.78751         9.77506
     2010.22313        12.86904         9.57971
     2010.22587        19.61456        10.15314
     2010.22861        14.67109         9.97198
     2010.23134         9.55261        10.03342
     2010.23956        22.98319        10.12636
     2010.24230         8.44071        10.37212
     2010.24503        11.25224         9.89163
     2010.24777        12.56976         9.88061
     2010.25051        19.96929        10.22561
     2010.25325        14.76181         9.79711
     2010.25598        13.45234         9.88218
     2010.25872        14.18886         9.77978
     2010.26146        22.51739        10.74075
     2010.26420        14.96391        10.22876
     2010.26694        24.10144        10.23033
     2010.26967        12.42796         9.98458
     2010.27241         4.17549        10.03184
     2010.27515        19.20201        10.10273
     2010.27789        18.52354        10.12636
     2010.28062        12.46806         9.93889
     2010.28336         2.85059         9.87588
     2010.28610         5.07111        10.03972
     2010.28884         9.72564         9.54821
     2010.29158        20.97916         9.96725
     2010.29431        23.21469         9.96568
     2010.29705        22.61721         9.87903
     2010.29979        19.95374         9.70732
     2010.30253        13.74726         9.96095
     2010.30527        19.72079        10.48712
     2010.30800        18.80831         9.89321
     2010.31074        24.41884        10.06335
     2010.31348        18.75636         9.77821
     2010.31622        19.32089         9.73725
     2010.31895        20.69341        10.24609
     2010.32169        28.91394        10.12794
     2010.32443        27.56046        10.20198
     2010.32717        19.46999        10.03972
     2010.32991        11.73151        10.06492
     2010.33264        20.86504         9.76403
     2010.33538        33.69556        10.29965
     2010.33812         9.53709         9.65848
     2010.34086        17.31161        10.04287
     2010.34360        -3.93486        11.25589
     2010.34633       -33.77734        11.95377
     2010.34907       -29.70881        11.61980
     2010.35181       -19.43729        11.93014
     2010.35455       -21.04376        11.83089
     2010.35728       -25.04424        11.53945
     2010.36002       -16.10771        11.34726
     2010.36276       -19.10019        11.39452
     2010.36550       -12.77466        12.05459
     2010.36824        -5.76714        12.01678
     2010.37097       -20.30761        11.51110
     2010.37371        -5.18509        11.36144
     2010.37645       -12.78756        11.32835
     2010.37919       -26.37704        11.93959
     2010.38193       -10.28851        12.32083
     2010.38466        -9.52599        11.89863
     2010.38740        -9.36046        10.99911
     2010.39014         0.99706        11.44020
     2010.39288        -9.54941        11.49219
     2010.39561       -20.45289        11.52055
     2010.39835       -19.77136        11.67808
     2010.40109        -1.36484        11.14561
     2010.40383        -7.16431        11.91754
     2010.40657       -19.56279        11.50952
     2010.40930       -14.55026        12.14754
     2010.41204        -6.95074        11.25904
     2010.41478       -16.25021        11.63555
     2010.41752        -3.31169        11.57884
     2010.42026        -7.11216        11.31575
     2010.42299        -1.84764        11.30472
     2010.42573        -7.58211        11.58199
     2010.42847       -18.04359        11.46384
     2010.43121       -26.37306        11.85925
     2010.43394       -26.20654        11.53315
     2010.43668       -17.47001        12.10500
     2010.43942         1.99251        11.92699
     2010.44216        -4.94696        11.93487
     2010.44490       -18.76943        11.17712
     2010.44763       -15.43391        11.73952
     2010.45037        -9.89438        11.44651
     2010.45311        -7.89186        11.53473
     2010.45585        -3.03433        11.35671
     2010.45859        -2.23081        11.62925
     2010.46132       -21.32228        11.75212
     2010.46406       -13.56976        11.37877
     2010.46680       -22.18323        11.53630
     2010.46954        -9.95771        11.98528
     2010.47227       -18.25818        11.31575
     2010.47501         6.90434        11.17870
     2010.47775       -13.55713        11.68438
     2010.48049       -12.85961        11.38349
     2010.48323        -5.56708        11.59774
     2010.48596        -1.18056        11.44336
     2010.48870         6.28197        11.35514
     2010.49144        -5.04951        11.16294
     2010.49418        -7.88498        11.41973
     2010.49692       -13.20246        11.38349
     2010.49965         2.01307        10.87465
     2010.50239         2.89759        11.18500
     2010.50513        -1.61288        11.21178
     2010.50787         0.75864        10.95342
     2010.51060        -4.95883        11.07315
     2010.51334         0.77469        11.11096
     2010.51608         0.79022        10.78643
     2010.51882        -0.57826        10.82897
     2010.52156         7.73527        11.55048
     2010.52429         8.14279        11.17870
     2010.52703        -5.10468        11.15192
     2010.52977         3.27084        11.23383
     2010.53251        -1.17163        10.87308
     2010.53525         4.22289        11.07630
     2010.53798         7.96342        11.06842
     2010.54072        -2.66806        11.40397
     2010.54346         8.77147        11.50795
     2010.54620        -4.87901        11.29212
     2010.54893         6.35152        11.38979
     2010.55167         6.91704        11.00698
     2010.55441        12.08657        11.76473
     2010.55715        14.57109        11.32678
     2010.55989         8.88862        11.20863
     2010.56262         3.29514        11.02904
     2010.56536         8.47167        10.94712
     2010.56810         8.66219        11.66390
     2010.57084        11.13972        11.15664
     2010.57357        14.76024        11.45438
     2010.57631        -3.27223        11.43075
     2010.57905        16.20729        11.53000
     2010.58179        -1.36418        11.57411
     2010.58453        -2.41366        11.20548
     2010.58726         4.96587        11.46699
     2010.59000        12.33839        11.59774
     2010.59274         3.14992        11.16452
     2010.59548         4.65944        11.14876
     2010.59822         9.62997        11.43863
     2010.60095        17.23449        11.50007
     2010.60369         7.93202        11.26849
     2010.60643        -3.25846        11.03376
     2010.60917         4.74507        10.77856
     2010.61190         3.36859        11.09048
     2010.61464         3.47212        11.04007
     2010.61738        -2.67236        11.16452
     2010.62012        -0.70983        11.14404
     2010.62286         2.88169        11.20233
     2010.62559         8.17722        11.17240
     2010.62833         3.54274        11.09678
     2010.63107        18.51327        11.50952
     2010.63381        15.33379        10.87938
     2010.63655         3.07232        11.02746
     2010.63928        13.58584        11.27794
     2010.64202       -14.49463        11.02431
     2010.64476         7.19289        11.37877
     2010.64750         7.12442        10.94712
     2010.65023         8.04194        11.83089
     2010.65297         3.11747        12.87535
     2010.65571       -15.31401        11.53000
     2010.65845        -7.90348        11.25589
     2010.66119        -7.75796        11.43075
     2010.66392        -0.41643        11.79623
     2010.66666        -4.48391        11.84350
     2010.66940       -14.04138        11.35514
     2010.67214        -5.53686        11.31260
     2010.67488        -3.78633        11.20705
     2010.67761        -5.81081        11.12513
     2010.68035         2.84472        11.54890
     2010.68309        -5.16076        11.76000
     2010.68583        -1.90923        11.10466
     2010.68856        -5.56771        10.99438
     2010.69130       -16.85118        11.03061
     2010.69404        -6.13866        11.33781
     2010.69678       -15.19813        11.42445
     2010.69952       -23.13560        11.45123
     2010.70225       -15.49308        11.21650
     2010.70499        -8.00855        11.40397
     2010.70773         0.76897        12.06719
     2010.71047        -6.34850        11.48904
     2010.71321        11.05502        11.96952
     2010.71594        10.02955        11.88603
     2010.71868        -6.10193        11.11883
     2010.72142         7.93960        11.97267
     2010.72416       -13.94988        11.29527
     2010.72689        -4.09635        11.48589
     2010.72963       -17.66583        11.55205
     2010.73237       -32.83830        11.41973
     2010.73511        -6.15878        11.81041
     2010.73785        -2.90725        11.71589
     2010.74058       -18.14673        11.50637
     2010.74332        -9.12720        10.99281
     2010.74606       -11.42468        11.32205
     2010.74880       -20.19915        11.46856
     2010.75154        -4.32563        11.33623
     2010.75416        -0.27413        11.95850
     2010.75701        -6.38258        11.30945
     2010.75975       -22.09705        11.54733
     2010.76249       -12.30253        11.12198
     2010.76522       -14.90900        10.84315
     2010.76796       -10.45548        11.55521
     2010.77070        -4.65595        12.31610
     2010.77344        18.28157        12.87850
     2010.77618       -15.29790        11.35986
     2010.77891       -24.41638        11.11726
     2010.78165        -4.56785        10.94397
     2010.78439       -10.15433        11.30472
     2010.78713        -2.09880        11.70171
     2010.78987        -8.45428        11.17870
     2010.79260       -18.52175        11.41815
     2010.79534       -20.86423        10.95027
     2010.79808        -5.48170        11.22911
     2010.80082       -13.24218        11.34253
     2010.80355        -9.94465        11.18027
     2010.80629        -5.27213        11.74425
     2010.80903        -3.70660        11.42130
     2010.81177         2.58792        11.83719
     2010.81451        10.30645        11.33151
     2010.81724         3.65497        11.28425
     2010.81998        16.49250        10.97390
     2010.82272        -1.38298        11.15349
     2010.82546       -10.67745        11.47959
     2010.82820         0.22207        11.24014
     2010.83093         7.63260        12.12076
     2010.83367        10.83712        12.28774
     2010.83641        -9.70235        10.88096
     2010.83915       -23.37983        11.20390
     2010.84188        -4.22330        10.98335
     2010.84462        -6.90178        11.30788
     2010.84736        10.44975        11.40870
     2010.85010         7.66027        11.63240
     2010.85284        10.46380        11.13144
     2010.85557       -10.52468        11.16924
     2010.85831        -4.84715        11.07787
     2010.86105       -17.11863        11.16924
     2010.86379       -11.54510        11.37246
     2010.86653         0.39142        11.17082
     2010.86926        -3.90205        11.61507
     2010.87200        -0.50953        11.01959
     2010.87474       -12.36000        11.84192
     2010.87748         2.58152        11.61034
     2010.88021        -4.61095        10.96130
     2010.88295        -7.39343        10.98178
     2010.88569         1.70310        11.14246
     2010.88843        -8.76938        11.07945
     2010.89117       -12.65685        11.38034
     2010.89390        -7.13133        11.09993
     2010.89664         0.72320        10.81164
     2010.89938        -6.34028        10.75650
     2010.90212         4.18325        11.10150
     2010.90485        -4.35023        10.74232
     2010.90759       -11.26970        11.30157
     2010.91033         1.75182        11.02116
     2010.91307        -5.07865        11.20075
     2010.91581       -15.66813        11.70014
     2010.91854        -5.97760        10.95815
     2010.92128       -10.75208        11.10938
     2010.92402       -17.84055        10.89198
     2010.92676       -17.01003        11.38979
     2010.92950        -6.68550        10.91246
     2010.93223       -12.59498        11.14089
     2010.93497        -0.23745        11.77733
     2010.93771         0.91307        11.64027
     2010.94045       -18.11340        11.31890
     2010.94318        -7.09188        10.76280
     2010.94592        -6.23235        11.19287
     2010.94866       -13.41483        10.94712
     2010.95140       -14.08430        11.49534
     2010.95414        -2.46577        11.01171
     2010.95687       -17.06025        11.06370
     2010.95961       -12.95472        11.15192
     2010.96235         1.56280        11.05424
     2010.96509        -6.29867        11.35199
     2010.96783        -6.23615        11.14876
     2010.97056        -4.93662        11.15664
     2010.97330       -19.16610        11.09048
     2010.97604         0.41843        10.91719
     2010.97872       -12.61856        11.80254
     2010.98151        -8.66852        11.15822
     2010.98425        -9.41400        11.14246
     2010.98699         1.03453        11.10150
     2010.98973        -8.90295        12.10185
     2010.99247         0.64758        11.25274
     2010.99520         2.96010        11.27322
     2010.99794       -16.52137        11.33466
     2011.00342        -6.71932        11.04952
     2011.00616         8.53620        10.93767
     2011.00889       -12.97227        10.96602
     2011.01163       -14.44675        11.30788
     2011.01437        -8.92222        11.41185
     2011.01711        -9.47170        12.54295
     2011.01984        -4.65917        11.28425
     2011.02258       -17.54665        13.07384
     2011.02532       -26.79312        11.97582
     2011.02806       -22.00860        11.76158
     2011.03080       -18.16607        11.47801
     2011.03353       -19.24955        11.64500
     2011.03627        -5.23802        11.18342
     2011.03901       -17.45950        10.98650
     2011.04175        -5.34997        11.46384
     2011.04449       -27.96045        11.40555
     2011.04722       -13.25592        11.85767
     2011.04996       -10.65240        11.51425
     2011.05270       -24.77887        11.18342
     2011.05544       -17.00035        12.06089
     2011.05817       -17.27482        11.58199
     2011.06091        -3.38130        11.57726
     2011.06365       -13.53577        11.50795
     2011.06639        -2.74125        11.66706
     2011.06913       -34.38772        12.40590
     2011.07187       -29.08216        11.66706
     2011.07460       -33.94067        11.54418
     2011.07734        -6.82415        11.40397
     2011.08008       -25.90062        11.38192
     2011.08282       -37.63110        11.32205
     2011.08555       -29.33457        11.48904
     2011.08829       -18.57105        11.41185
     2011.09103       -28.79652        11.32363
     2011.09377        -9.69500        12.43740
     2011.09650       -19.58047        11.09048
     2011.09924       -17.15695        11.89863
     2011.10198       -34.66342        11.83562
     2011.10472       -15.88490        11.82932
     2011.10746       -22.54737        11.25431
     2011.11019       -20.39185        10.79589
     2011.11293       -11.49732        11.10308
     2011.11567       -17.70780        11.73480
     2011.11841       -25.25927        10.82267
     2011.12115       -18.27875        11.98685
     2011.12388        -5.02622        11.57096
     2011.12662         1.66030        11.29527
     2011.12936        -8.64717        11.89076
     2011.13210       -20.85265        11.21020
     2011.13483       -13.24812        10.90931
     2011.13757       -17.23260        11.21966
     2011.14031       -12.67307        11.05109
     2011.14305       -19.64055        11.83089
     2011.14579       -16.48302        11.57884
     2011.14852       -30.21250        11.21966
     2011.15086       -16.83155        13.19357
     2011.15400       -10.72045        11.06842
     2011.15674       -18.98892        11.11726
     2011.15948       -18.67340        11.21808
     2011.16221        -5.31587        11.26534
     2011.16495       -13.04535        11.15664
     2011.16769       -25.91782        10.82897
     2011.17043       -10.96930        11.19918
     2011.17316       -27.40177        11.69384
     2011.17590       -14.83525        11.32205
     2011.17864       -18.45172        11.11411
     2011.18138        -8.96820        11.27007
     2011.18412        -6.10167        11.66075
     2011.18685        -1.96515        11.55048
     2011.18959       -23.28962        11.47486
     2011.19233        -2.42710        11.80726
     2011.19507        -3.95457        11.60404
     2011.19780       -15.34405        12.07507
     2011.20054        -9.38252        11.35041
     2011.20328       -14.10299        11.52527
     2011.20602       -12.87547        12.49412
     2011.20876        -7.32994        11.05109
     2011.21149        -5.08442        11.84665
     2011.21423       -12.80389        10.68561
     2011.21697        -6.46237        11.33623
     2011.21971       -14.97484        11.97582
     2011.22245       -20.46832        11.05267
     2011.22518        -0.72979        10.78958
     2011.22792         0.58773        11.20390
     2011.23066        -7.56874        11.11883
     2011.23340       -22.74822        11.32520
     2011.23613       -15.56969        10.74547
     2011.23887        -5.62517        11.10150
     2011.24161       -11.30464        12.18535
     2011.24435        -8.93712        12.89268
     2011.24709        -7.39659        11.42445
     2011.24982        -9.10807        11.80411
     2011.25256        -8.46054        10.66198
     2011.25530         3.85498        11.22438
     2011.25804         0.32251        11.62610
     2011.26078         5.58003        11.89233
     2011.26351        -7.73444        10.95500
     2011.26625       -16.37792        11.05739
     2011.26899         1.89261        10.87150
     2011.27173         2.23513        11.37562
     2011.27446       -11.51734        11.95219
     2011.27720        -3.26982        11.69541
     2011.27994       -12.80929        10.77541
     2011.28268        -2.12877        11.41500
     2011.28542        -0.29424        11.76788
     2011.28815       -21.29172        11.34726
     2011.29089       -12.19419        11.04952
     2011.29363       -17.11167        11.01486
     2011.29637         6.21786        11.11568
     2011.29911        -2.36762        10.92822
     2011.30184        -3.35709        11.38349
     2011.30458        -4.93057        10.96287
     2011.30732        -3.15204        10.80061
     2011.31006        -0.16052        10.83527
     2011.31279         0.06301        11.34096
     2011.31553         3.99053        11.65760
     2011.31827       -12.79794        11.23383
     2011.32101        -3.50642        10.72027
     2011.32375        -6.22089        11.20233
     2011.32648        -8.50037        10.69506
     2011.32922        -8.94184        11.05109
     2011.33196       -11.53432        11.28897
     2011.33470       -16.66279        11.63555
     2011.33744       -21.79827        11.01644
     2011.34017        -6.98874        12.40590
     2011.34291       -13.23822        11.65288
     2011.34565        13.04231        11.68911
     2011.34839        -4.87817        11.05424
     2011.35112       -11.70964        10.97390
     2011.35386       -25.46812        11.17082
     2011.35660        -4.29359        11.32993
     2011.35934       -15.01507        11.28109
     2011.36208       -18.11754        11.09520
     2011.36481        -3.83602        11.42445
     2011.36755         3.36051        11.92384
     2011.37029        -6.02097        11.35356
     2011.37303        -6.51244        11.51110
     2011.37577        -8.14792        11.32520
     2011.37850       -19.96139        11.30945
     2011.38124        -6.24487        10.96760
     2011.38398       -11.87934        11.25431
     2011.38672        -7.11182        11.33308
     2011.38945       -11.75829        11.19130
     2011.39219       -14.38677        11.13616
     2011.39493        -9.37324        11.26061
     2011.39767        10.55328        11.27794
     2011.40041        -8.26519        11.35829
     2011.40314        -2.58767        11.52055
     2011.40588       -15.28214        11.47644
     2011.40862        -5.61662        11.18027
     2011.41136       -17.52109        11.39452
     2011.41410         8.77143        11.35671
     2011.41683        -7.16404        11.64027
     2011.41957       -11.73752        11.59301
     2011.42231       -21.65099        11.30945
     2011.42505        -3.42847        11.60719
     2011.42778         3.20906        11.42445
     2011.43052       -15.31142        11.84192
     2011.43326        -6.83589        12.26569
     2011.43600       -17.13537        10.94082
     2011.43874        -6.58384        11.64343
     2011.44119        -4.17987        12.69576
     2011.44421       -13.09379        11.19603
     2011.44695       -14.24327        12.09398
     2011.44969       -27.51074        11.56466
     2011.45243       -10.60022        11.31733
     2011.45516        -0.95769        11.18342
     2011.45790        -2.58817        11.88760
     2011.46064        -5.06564        11.86082
     2011.46338         3.29189        11.59616
     2011.46611       -12.55259        11.22596
     2011.46885        -1.52606        11.53473
     2011.47159        -2.59054        11.53158
     2011.47433         0.77399        11.72062
     2011.47707         0.36651        12.45946
     2011.47980         0.19504        11.58671
     2011.48254        -6.94644        11.28109
     2011.48528        -1.05091        11.43390
     2011.48802        11.70661        11.64185
     2011.49076        19.40214        11.56466
     2011.49349         4.05066        12.18850
     2011.49623         0.28219        11.33623
     2011.49897        -3.08729        11.50322
     2011.50171         7.85824        12.01836
     2011.50444        11.08076        11.58986
     2011.50718        20.64429        11.73165
     2011.50992        -2.43419        11.02274
     2011.51266        -5.43566        11.39137
     2011.51540        -0.88414        11.24329
     2011.51813         8.89239        11.24486
     2011.52087         5.50291        11.43233
     2011.52361         6.88044        11.17870
     2011.52635        -1.83004        11.33151
     2011.52908         0.22449        11.59616
     2011.53182        13.40701        11.73007
     2011.53456         9.21154        11.59301
     2011.53730         9.19306        11.16137
     2011.54004        -3.56041        11.29370
     2011.54277        -7.25989        11.17240
     2011.54551        -5.46936        11.62295
     2011.54825        -2.29584        11.93644
     2011.55099        11.32469        12.04829
     2011.55373         8.36221        11.33151
     2011.55646       -10.20726        11.23226
     2011.55806        40.42004        33.45732
     2011.56194         8.98879        11.84034
     2011.56468         2.21831        11.61664
     2011.56741        13.31984        11.09678
     2011.57015        -5.28364        11.59144
     2011.57289         8.04489        11.31260
     2011.57563        15.40641        11.05267
     2011.57837        13.11894        12.08925
     2011.58110         7.59646        11.72534
     2011.58384        19.63699        11.22911
     2011.58658        12.93851        11.71117
     2011.58932        -5.22196        11.48589
     2011.59206        10.52856        11.64658
     2011.59479         7.60809        11.32048
     2011.59753        13.32461        11.74110
     2011.60027        14.16314        11.57411
     2011.60301        19.18266        11.47329
     2011.60574         3.75619        11.37877
     2011.60848         6.76471        12.31768
     2011.61122        27.25224        12.36336
     2011.61396        16.18476        11.77575
     2011.61670         2.41429        11.67178
     2011.61943        -3.93219        11.91596
     2011.62217        10.86334        11.70959
     2011.62491         5.60986        12.28617
     2011.62765        18.10439        11.56151
     2011.63039        14.06491        11.58514
     2011.63312        12.26544        11.60404
     2011.63586        12.87596        12.14754
     2011.63860         7.23049        11.84822
     2011.64134        34.96201        13.05179
     2011.64407        18.87154        11.91281
     2011.64681        13.34106        11.35986
     2011.64955        21.60959        12.14596
     2011.65229         6.59511        11.59774
     2011.65503        16.85764        11.71117
     2011.65776         5.53816        11.96322
     2011.66050        15.73769        11.75685
     2011.66324        12.18821        11.70329
     2011.66598        21.57474        12.27357
     2011.66872        15.17126        12.20898
     2011.67145        -0.79821        11.57569
     2011.67419         7.26831        11.56151
     2011.67693        35.83484        11.55205
     2011.67967        24.68736        11.90021
     2011.68240        -4.19911        11.57411
     2011.68514         4.87141        12.07035
     2011.68788         8.45094        11.69069
     2011.69062        19.99146        12.04672
     2011.69336        24.24999        11.70644
     2011.69609        -2.83749        11.60247
     2011.69883        -5.37796        12.07035
     2011.70157         6.83456        11.61822
     2011.70431         3.97409        11.58514
     2011.70705         7.53061        11.80726
     2011.70978        11.35414        11.67808
     2011.71252        12.14866        12.10185
     2011.71526         5.20819        11.77891
     2011.71800        -3.08028        11.61664
     2011.72073         6.95424        11.86082
     2011.72347        35.65577        12.82179
     2011.72621        23.13129        12.06247
     2011.72895        24.30582        11.68754
     2011.73157         9.77832        12.56028
     2011.73442        10.34787        11.69069
     2011.73716        32.04139        12.07980
     2011.73939        14.16932        14.40659
     2011.75359        14.72154        12.14439
     2011.75623        10.08517        12.17274
     2011.76021        60.58585        40.99381
     2011.76180        27.19712        12.45158
     2011.76454        28.17064        12.47836
     2011.76728        17.07717        12.19795
     2011.77002        14.51069        12.07665
     2011.77275        22.29622        12.27514
     2011.77549        17.47274        11.98370
     2011.77823        14.05827        11.87185
     2011.78097        11.06979        11.53945
     2011.78371        11.19332        11.54418
     2011.78644        19.45284        11.16294
     2011.78918         7.83737        11.46384
     2011.79192        18.67789        11.47014
     2011.79466        17.70742        11.58356
     2011.79739        27.48194        11.66233
     2011.80013        36.29547        11.65760
     2011.80287         9.50199        11.96637
     2011.80561         8.13452        12.34603
     2011.80835        16.37604        11.67021
     2011.81108        11.15057        11.34411
     2011.81382        26.36609        12.06089
     2011.81656         1.37262        11.19445
     2011.81930         4.76514        11.29685
     2011.82203        13.17467        11.87343
     2011.82477        13.70219        11.72534
     2011.82751         5.53272        11.72062
     2011.83025         9.95324        11.74582
     2011.83299        -2.32223        11.58986
     2011.83572         8.20129        11.51425
     2011.83846        -3.96218        11.49219
     2011.84120        18.72934        11.55521
     2011.84394        16.36887        11.34568
     2011.84668        12.66439        10.98335
     2011.84941        -2.98308        11.43863
     2011.85215         4.65744        11.55048
     2011.85489         0.25697        11.60404
     2011.85763        -3.30551        11.93959
     2011.86036         5.67102        11.69069
     2011.86310         2.28054        11.61822
     2011.86584         7.61307        11.73952
     2011.86858        25.22759        11.69856
     2011.87132        14.58412        11.47014
     2011.87405         3.88364        11.38192
     2011.87679         4.37017        11.70329
     2011.87953         5.51369        11.68911
     2011.88227        14.84522        11.39137
     2011.88501        15.78474        11.38664
     2011.88774         7.17527        12.01678
     2011.89048       -10.09321        11.68596
     2011.89322        -9.91268        11.85767
     2011.89596         9.45584        11.77418
     2011.89869         4.75337        11.33938
     2011.90143         8.10689        11.38664
     2011.90417         5.38642        11.60089
     2011.90691         0.58194        11.25904
     2011.90965        10.84947        11.13931
     2011.91238        14.04799        11.78678
     2011.91512        -4.69148        11.31418
     2011.91786       -11.74196        12.23891
     2011.92060        -0.88643        11.40870
     2011.92334        -4.07291        11.28582
     2011.92607       -12.64438        11.73007
     2011.92881        -2.83186        11.86397
     2011.93155         1.63267        11.69699
     2011.93429        -0.06481        11.62925
     2011.93702        -3.04428        11.98213
     2011.93976         3.01024        11.67966
     2011.94250         1.84077        12.09713
     2011.94524         2.61929        11.68596
     2011.94798        11.30982        12.51775
     2011.95071         8.68334        11.56151
     2011.95345        22.45687        11.97582
     2011.95619        -5.23961        12.95884
     2011.95893        -4.50108        11.67651
     2011.96167        -2.03956        11.97267
     2011.96440       -16.22503        12.05144
     2011.96714        -4.12350        11.58986
     2011.96988         7.75402        11.01013
     2011.97262        -6.67445        11.43863
     2011.97535         8.57407        11.39610
     2011.97809        -2.98040        11.54733
     2011.98083         2.30512        11.72377
     2011.98357        11.11265        11.28897
     2011.98631        12.10417        11.50795
