# ================= DQRFIT RESULTS ================
# INPUT FILE: series/PKDL.rad
# OUTPUT: LDETRENDED
# FILTER FUNCTION: f(t)
# f(t)=+line(t)+annual(t)+jumps(t)
# line(t)=+P 1+P 2*t
# annual(t)=+P 3*sin(2*pi*t+P 4)
# jumps(t)=+P 5*heav(t-2011.8110  )
# heav(t)=(t<0?0:1)
# TOTAL OBSERVATIONS MTOT= 4162
# INITIAL TIME INTERVAL= 2022.7488 - 2008.9724 = 13.7764
# TOTAL OBSERVATIONS AFTER PREFILTER M= 4135
# TIME-SPAN= 2022.7488 - 2008.9724 = 13.7764
# OBSERVATIONS: USED M=  4135 REJECTED MTOT-M=    27 %USED=   99.3513
# N=  5 PARAMETERS
# MAXSIG= 175.00000
# MAXRES=  33.41024
# SCALE FACTOR FOR LENGTHS: SCL=  10.00000
# SCALE FACTOR FOR SIGMAS: SCLSIG=   1.00000
# CHI^2=   6902.791 DOF=  4130 CHI^2/DOF=   1.67138
# RMS=      7.459 SDEV=      7.459 MEAN=    0.07768
#  P #       PARAMETER +-    SIGMA %error PARAMETER NAME
# P 1 =      3782.27560 +-   93.344   2.47 YZERO                              
# P 2 =        -1.87736 +-    0.046   2.47 SLOPE                              
# P 3 =         5.26345 +-    0.159   3.01 ANNUAL AMPLITUDE                   
# P 4 =        -2.83379 +-    0.041   1.43 ANNUAL PHASE                       
# P 5 =         1.24603 +-    0.383  30.77 OFFSET 2011.8110                   
#       T            LDETRENDED       SIG_OBS
     2008.98562        -1.92800         7.16997
     2008.98836        -5.85586         7.30054
     2008.99110        -7.16272         7.37553
     2008.99384        -6.70058         7.19970
     2008.99931       -18.47230         7.25012
     2009.00479        -7.45302         7.22168
     2009.00752       -11.34788         7.10921
     2009.01026        -6.19174         7.04456
     2009.01300       -12.28560         7.32381
     2009.01574         9.81454         7.17643
     2009.01848         5.86168         7.38716
     2009.02121        -2.23718         7.62375
     2009.02395        -2.56204         7.28891
     2009.02669        -7.93190         7.15187
     2009.02943         4.19324         7.24495
     2009.03216        -9.02362         7.20875
     2009.03490       -10.99648         7.13506
     2009.03764       -13.34034         7.07559
     2009.04038       -11.55420         7.08981
     2009.04312       -12.72806         7.06008
     2009.04585       -17.85792         7.09886
     2009.04859        -8.83578         7.02905
     2009.05133        -5.11664         7.06784
     2009.05407       -14.87550         7.14282
     2009.06200       -12.09262         8.16802
     2009.07141       -35.90695        11.59270
     2009.07323       -15.87752         7.13506
     2009.07597         2.76262         7.07947
     2009.07871       -11.73524         7.04715
     2009.08145       -12.38510         7.07301
     2009.08418         4.59404         7.23202
     2009.08692        -7.19082         7.10274
     2009.08966        -6.28168         7.08723
     2009.09240        -5.58054         7.06784
     2009.09514        -4.87940         7.04586
     2009.09787        -5.47226         7.15833
     2009.10061         0.02688         7.09369
     2009.10335        -6.15398         7.08335
     2009.10609        -5.78984         7.09886
     2009.10882         3.43830         7.02517
     2009.11156        -5.59256         7.06913
     2009.11430       -17.84542         7.27339
     2009.11704        -7.92528         7.29020
     2009.11978       -10.63414         7.05879
     2009.12251       -14.24400         6.99932
     2009.12525       -15.98586         7.01224
     2009.12799        -4.45772         7.06784
     2009.13073        -1.19058         7.17902
     2009.13347        -5.23044         7.07301
     2009.13620        -8.07230         7.07171
     2009.13894       -10.10216         7.07171
     2009.14168        -8.39502         7.06654
     2009.14442        -4.48588         7.17514
     2009.14715       -16.59174         7.25012
     2009.14989        -7.88160         7.38587
     2009.15263        -6.77146         7.14799
     2009.15537       -10.07532         7.26176
     2009.15811        -9.94918         7.22168
     2009.16084        -8.78904         7.14023
     2009.16358         4.81910         7.13377
     2009.16632        -7.01176         7.24754
     2009.16906         0.21438         7.43370
     2009.17180        -3.49148         7.07818
     2009.17453        -1.58134         7.10274
     2009.17727        -7.47320         7.32123
     2009.18001         0.24494         7.17772
     2009.18275       -10.76892         7.13635
     2009.18548        -7.91778         7.10921
     2009.18822       -13.09064         7.13377
     2009.19096        -8.81050         7.03939
     2009.19370        -5.18736         7.05749
     2009.19644        -7.74522         7.04715
     2009.19917        -3.36108         7.08335
     2009.20191        -9.34594         7.13635
     2009.20465       -14.38680         7.12601
     2009.20739       -13.79866         7.08981
     2009.21013       -12.70652         7.06137
     2009.21286       -10.43138         7.07171
     2009.21560        -5.55724         7.07947
     2009.21834        -9.70110         7.10274
     2009.22108         3.39804         7.03681
     2009.22381        -8.63883         7.04069
     2009.22655        -4.50869         7.03939
     2009.22929        12.97245         7.10145
     2009.23203        -5.19241         7.11438
     2009.23477         1.44173         7.21263
     2009.23750         2.42587         7.22427
     2009.24024         1.10101         7.17126
     2009.24298        -3.65285         7.20487
     2009.24572         2.24229         7.32640
     2009.24846         1.16543         7.23719
     2009.25119        -5.73643         7.38845
     2009.25393         1.27571         7.37035
     2009.25667        -7.37415         7.16480
     2009.25941       -13.65801         7.14023
     2009.26214        -8.31587         7.16867
     2009.26488        -8.67273         7.19582
     2009.26762        -0.22059         7.21392
     2009.27036        -0.43545         7.15833
     2009.27310        -7.70731         7.18290
     2009.27583        -3.16817         7.22556
     2009.27857        -4.66603         7.42982
     2009.28131        -9.34589         7.37035
     2009.28405        -7.69775         7.23332
     2009.28679        -2.79861         7.21134
     2009.28952        -9.38947         7.24624
     2009.29226       -10.32233         7.29279
     2009.29500        -5.54419         7.26046
     2009.29774       -11.03705         7.22297
     2009.30047       -13.20591         7.19712
     2009.30321       -10.93477         7.27598
     2009.30595         3.51337         7.25529
     2009.30869         9.06651         7.16738
     2009.31143        -4.05835         7.22039
     2009.31416        12.55979         7.22168
     2009.31690        -4.35907         7.17385
     2009.31964        -8.93293         7.17643
     2009.32238        -4.68479         7.14670
     2009.32512        -6.30565         7.30313
     2009.32785        -8.16351         7.28891
     2009.33059       -12.04337         7.17643
     2009.33333        -3.98623         7.19712
     2009.33607         1.18491         7.29796
     2009.33880        -4.57495         7.18677
     2009.34154       -15.03581         7.48671
     2009.34428        -1.49967         7.40526
     2009.34702        -9.82853         7.29666
     2009.34976        -4.47139         7.07042
     2009.35249       -12.34225         7.03422
     2009.35523        -9.56411         7.11567
     2009.35797         7.92803         7.23202
     2009.36071         3.85617         7.40267
     2009.36344        -0.69469         7.23202
     2009.36618        -0.40355         7.16609
     2009.36892        -7.03141         7.06525
     2009.37166        -9.41327         7.20617
     2009.37440       -14.21013         7.10016
     2009.37713        -5.49299         7.36648
     2009.37987        10.42015         7.43241
     2009.38261        -4.06671         7.12860
     2009.38535        -7.25957         7.09369
     2009.38809       -10.93043         7.37811
     2009.39082       -11.11129         7.13377
     2009.39356        -5.71915         7.07042
     2009.39630         2.38799         7.10274
     2009.39904        -2.06287         7.20229
     2009.40177         2.30927         7.17514
     2009.40451        -0.74559         7.10791
     2009.40725         0.74655         7.13506
     2009.40999        -0.16631         7.18807
     2009.41273       -11.96717         7.27469
     2009.41546         0.99597         7.19324
     2009.41820        -4.91389         7.17772
     2009.42094        -7.61775         7.13635
     2009.42368        -3.45361         7.26305
     2009.42642        -6.76447         7.34321
     2009.42915         5.84067         7.21263
     2009.43189        -3.00019         7.13506
     2009.43463        -6.06205         7.11308
     2009.43737        -1.09991         7.18936
     2009.44010        -0.37177         7.23202
     2009.44284        -3.39863         7.11308
     2009.44558        -7.66049         7.11567
     2009.44832        -0.58935         7.20746
     2009.45106        -3.71421         7.14023
     2009.45379        -7.11307         7.10016
     2009.45653         5.14307         7.09369
     2009.45927        -3.45279         7.29796
     2009.46201         9.09335         7.28115
     2009.46475        20.39949         7.76337
     2009.46748         5.99463         7.33157
     2009.47022        11.89477         7.20875
     2009.47296        -0.49009         7.18160
     2009.47570        -5.87595         7.12860
     2009.47843         0.59819         7.25917
     2009.48123         4.95444         7.54747
     2009.48391        -6.28753         7.20746
     2009.48665        -6.25139         7.34062
     2009.48933         6.79064         7.54747
     2009.49224         5.27810         7.54747
     2009.49486        -5.47697         7.24754
     2009.49760         1.85617         7.21005
     2009.50034        -1.73369         7.14411
     2009.50308         2.90345         7.22168
     2009.50581         2.81159         7.23978
     2009.50855        -5.42827         7.33803
     2009.51129        12.43387         7.38199
     2009.51403         5.89101         7.26951
     2009.51676         7.25315         7.14799
     2009.51950         2.18929         7.16867
     2009.52224        -9.70057         7.16350
     2009.52498        -0.76743         7.14153
     2009.52772         2.63871         7.17385
     2009.53045       -13.78315         7.30313
     2009.53319         2.78099         7.21522
     2009.53593         3.49013         7.08464
     2009.53867         1.38027         7.17902
     2009.54141        -2.60459         7.27469
     2009.54414        -0.59745         7.49964
     2009.54688        10.72469         7.19453
     2009.54962        -1.53317         7.15187
     2009.55236        -0.79403         7.19324
     2009.55509         8.58911         7.31088
     2009.55783        24.67825         7.54230
     2009.56057         1.84939         7.33416
     2009.56331        -1.04747         7.40914
     2009.56605         3.17567         7.65736
     2009.56878        -4.78519         7.17902
     2009.57152        10.01995         7.50481
     2009.57426         5.80109         7.24107
     2009.57700         9.06623         7.27469
     2009.57974         5.03437         7.39104
     2009.58247         1.81151         7.21909
     2009.58521         5.64565         7.31606
     2009.58795        -0.97421         7.38458
     2009.59069        11.22092         7.30054
     2009.59342        -0.87894         7.55911
     2009.59616         3.65820         7.25400
     2009.59890        15.40834         7.15187
     2009.60164         1.76948         7.25788
     2009.60438         1.48362         7.31088
     2009.60711        -6.53324         7.27598
     2009.60985         4.78490         7.42724
     2009.61259        15.11704         7.49317
     2009.61533        11.57218         7.61340
     2009.61807        10.85432         7.19582
     2009.62080        12.77046         7.16092
     2009.62360        -5.50229         7.26046
     2009.62628        -0.31326         7.31476
     2009.62902         8.00988         7.60435
     2009.63175         2.22702         7.16480
     2009.63449         7.09516         7.43112
     2009.63723        11.51930         7.63021
     2009.63997         4.27244         7.38458
     2009.64271         0.59358         7.33803
     2009.64544         4.50172         7.22039
     2009.64818         7.41886         7.74786
     2009.65092         7.27800         7.23202
     2009.65366        -0.04486         7.36777
     2009.65639         1.15928         7.19324
     2009.65913         5.79742         7.27081
     2009.66187         3.50356         7.10145
     2009.66461        -1.65630         7.10921
     2009.66735        13.95084         7.28115
     2009.67008         0.44198         7.28761
     2009.67282        12.76712         7.46861
     2009.67556        11.98226         7.24107
     2009.67830        15.55240         7.50481
     2009.68104        10.25254         7.61082
     2009.68377         2.28368         7.45697
     2009.68651         3.97182         7.17772
     2009.68925         0.87396         7.23332
     2009.69199         8.26210         7.27339
     2009.69472       -13.08176         7.40397
     2009.69746        10.69338         7.10533
     2009.70020        14.88852         7.27081
     2009.70294        14.62666         7.38975
     2009.70568         5.07880         7.21005
     2009.70841         0.71494         7.30313
     2009.71115        16.17408         7.59143
     2009.71389         6.23222         7.44534
     2009.71663        25.07536         7.52161
     2009.71937         7.83750         7.30054
     2009.72210        -7.96136         7.19065
     2009.72484         6.04978         7.27339
     2009.72758         4.01292         7.21909
     2009.73032         8.40606         7.24237
     2009.73305         6.06020         7.34708
     2009.73579        -0.16666         7.64055
     2009.73853        10.25548         7.19970
     2009.74127        13.20062         7.47637
     2009.74401        30.48676         7.55911
     2009.74674         5.37290         7.27727
     2009.74948         1.27804         7.36518
     2009.75222         9.35418         7.43112
     2009.75496         5.01032         7.19712
     2009.75770         2.25846         7.20617
     2009.76043         0.13160         7.14928
     2009.76317         3.49274         7.22168
     2009.76591         1.05788         7.27986
     2009.76865         0.35302         7.36777
     2009.77138        -0.23884         7.24107
     2009.77412         3.97130         7.30959
     2009.77686         5.11344         7.22814
     2009.77960         9.89158         7.30313
     2009.78234        14.45272         7.32640
     2009.78513        13.70597         7.61340
     2009.78781         4.13000         7.52420
     2009.79055        -9.96386         7.59530
     2009.79329        -0.46272         7.62763
     2009.79603         9.91442         7.74786
     2009.79876        -1.12544         7.45051
     2009.80150        -6.98530         7.37940
     2009.80424         4.30484         7.39750
     2009.80698         5.82398         7.49059
     2009.80971         3.37312         7.59918
     2009.81245        20.73426         7.63538
     2009.81519         8.39340         7.41431
     2009.81793         2.85254         7.63280
     2009.82067        16.75068         7.56816
     2009.82340         7.64582         7.26564
     2009.82614         6.86796         7.45051
     2009.82888        18.90110         7.59789
     2009.83162        20.46124         7.84482
     2009.83436         9.76638         7.34967
     2009.83709         3.23952         7.36389
     2009.83983         6.13666         7.43629
     2009.84257         8.37180         7.34321
     2009.84536         8.03905         7.67158
     2009.84804         1.41708         7.72847
     2009.85078         8.70022         7.47249
     2009.85352         7.50836         7.50610
     2009.85626         7.83150         7.35484
     2009.85900         1.08464         7.50739
     2009.86173         5.84078         7.44146
     2009.86447         2.72692         7.62892
     2009.86721        -0.86594         7.57462
     2009.86995         2.99720         7.45439
     2009.87269         6.13334         7.40914
     2009.87542         9.56348         7.46861
     2009.87816        11.94662         7.80991
     2009.88084        -2.95935         7.83835
     2009.88364         5.34890         7.42724
     2009.88637         0.78904         7.40785
     2009.88911         7.24918         7.34579
     2009.89185         7.11732         7.45180
     2009.89459        -0.41754         7.27986
     2009.89733        -3.10540         7.24495
     2009.90006        -8.68426         7.30184
     2009.90280        -7.44612         7.29796
     2009.90554         2.55002         7.66124
     2009.90828        -1.22484         7.23461
     2009.91102        -5.33070         7.17902
     2009.91375        -1.70656         7.16997
     2009.91649         4.02658         7.36648
     2009.91923        -4.32328         7.18936
     2009.92197        -3.93114         7.27081
     2009.92470         2.90000         7.18807
     2009.92744        -1.54786         7.21005
     2009.93018        -6.09472         7.42465
     2009.93292        -1.07158         7.21780
     2009.93566        -2.08844         7.19582
     2009.93839         0.49970         7.40526
     2009.94113         1.20384         7.20487
     2009.94387         0.73498         7.31218
     2009.94661         3.57612         7.35613
     2009.94935         3.06726         7.16997
     2009.95208         2.93140         7.74656
     2009.95482       -24.09246         7.33028
     2009.95756        -8.82033         7.58238
     2009.96030        -5.02419         7.24883
     2009.96303        -8.18505         7.18160
     2009.96577        -7.93191         7.32123
     2009.96851        -2.47977         7.44792
     2009.97130         3.89948         7.68322
     2009.97399        -0.22549         7.29925
     2009.97672        -7.03435         7.11567
     2009.97946       -12.68321         7.11955
     2009.98220        -7.05007         7.09628
     2009.98494        -1.36593         7.10403
     2009.98767        -1.10679         7.16609
     2009.99041        -6.79165         7.11050
     2009.99315        -7.91451         7.17126
     2009.99589       -18.28737         7.10274
     2009.99863       -20.43823         7.18160
     2010.00410        -0.22795         7.20617
     2010.00684        -9.87481         7.18290
     2010.00958       -10.08767         7.23202
     2010.01232        -2.81953         7.37035
     2010.01505       -11.98239         7.12084
     2010.01779       -12.06925         7.15575
     2010.02053        -6.38911         7.24107
     2010.02327       -19.21597         7.56816
     2010.02600       -21.24083         7.23073
     2010.02874       -25.44569         7.26434
     2010.03148       -17.53255         7.16350
     2010.03422       -12.15741         7.29925
     2010.03696        -7.36127         7.54618
     2010.03969        -3.76013         7.52679
     2010.04243         0.32101         7.11179
     2010.04517         4.66315         7.09757
     2010.04791         3.84329         7.59013
     2010.05065         4.81043         7.37553
     2010.05338         1.65157         7.43241
     2010.05612         3.76071         7.28244
     2010.05886         0.42385         7.13377
     2010.06160        -1.35501         7.15445
     2010.06433        -2.17387         7.06913
     2010.06707       -14.34773         7.16092
     2010.06987        -8.57748         7.42595
     2010.07255        -3.87845         7.58496
     2010.07534        -6.78420         7.36389
     2010.07808       -10.61506         7.27856
     2010.08076        -5.73803         7.07688
     2010.08350        -1.22189         7.12084
     2010.08624        -1.44275         7.07688
     2010.08898        -5.67961         7.28761
     2010.09171        -0.01347         7.07430
     2010.09445        -0.95633         7.30959
     2010.09719         3.58781         7.47507
     2010.09998         1.54606         7.17643
     2010.10266        -1.30091         7.04974
     2010.10540        -3.23377         7.19195
     2010.10814        -7.05463         7.22944
     2010.11088        -1.41849         7.39621
     2010.11362        -5.53135         7.14928
     2010.11635         1.71879         7.24237
     2010.11915        -2.67296         7.24107
     2010.12183         0.13807         7.30442
     2010.12457        -5.71879         7.07042
     2010.12731         4.23135         7.35096
     2010.13004        -7.35951         7.16738
     2010.13278        -8.42137         7.09757
     2010.13552        -9.70323         7.12213
     2010.13826        -5.41809         7.13506
     2010.14099        -4.88195         7.06137
     2010.14368        -5.03992         7.40914
     2010.14647        -0.15667         7.48024
     2010.14921         2.13547         7.10403
     2010.15177         2.57129         7.49964
     2010.15468         0.69675         7.12213
     2010.15742        -3.63611         7.13118
     2010.16016        -8.70997         7.03810
     2010.16290        -6.24783         7.02646
     2010.16564        -5.01069         7.00061
     2010.16837        -6.13155         7.14411
     2010.17111        -1.62441         7.29279
     2010.17385        -1.40027         7.50351
     2010.17659        -1.71713         6.97863
     2010.17932         7.76101         7.00449
     2010.18206         4.22215         7.05103
     2010.18480         2.78029         7.07559
     2010.18754         7.42343         7.08593
     2010.19028         1.40457         7.02259
     2010.19301        13.83871         7.07042
     2010.19575         4.39385         8.28050
     2010.19849        -6.19701         7.08076
     2010.20128        -7.75776         7.23461
     2010.20397         3.49627         7.22427
     2010.20670        -6.31759         7.18807
     2010.20853        -2.20617        12.96826
     2010.22906        -1.70262         8.88554
     2010.23134         2.78467         7.73234
     2010.23408        -7.47819         7.19065
     2010.23956         0.23709         7.24107
     2010.24235         5.32033         7.67546
     2010.24503         0.96537         7.43112
     2010.24777         0.38051         7.24883
     2010.25051        -0.96835         7.58755
     2010.25325        -0.53721         7.33674
     2010.25598        -1.10107         7.29925
     2010.25872        -2.72393         7.37165
     2010.26146         4.64521         7.66512
     2010.26420         1.39235         7.44275
     2010.26694        -9.08351         7.31347
     2010.26967         0.40663         7.29149
     2010.27241        -5.34723         7.31735
     2010.27515        -2.35009         7.23202
     2010.27789        -0.60895         7.24624
     2010.28062         8.27819         7.12601
     2010.28336        -2.04567         7.46473
     2010.28610        -1.50053         7.28632
     2010.28884         0.40161         7.12601
     2010.29158         1.92475         7.30701
     2010.29431         2.04189         7.26951
     2010.29705        -5.80797         7.25529
     2010.29979         5.41217         7.26564
     2010.30264        12.53052         7.60953
     2010.30527        10.31945         8.87132
     2010.30812         7.44780         7.63150
     2010.31074         9.04273         7.25400
     2010.31348        -0.26713         7.18807
     2010.31622         7.03601         7.08076
     2010.31895        16.27415         7.42853
     2010.32169        13.84628         7.23978
     2010.32443        17.98142         7.21780
     2010.32717        12.40856         7.19841
     2010.32991        24.59570         8.19129
     2010.33264        11.19184         7.29925
     2010.33538         3.05298         7.66382
     2010.33812        -6.45288         7.29020
     2010.34086         2.45226         7.10403
     2010.34360         1.26940         7.00837
     2010.34633        -6.06046         7.12084
     2010.34907        -4.16832         7.10274
     2010.35181        -2.56218         7.75820
     2010.35460        -0.96593         7.23332
     2010.35728         2.82510         7.09111
     2010.36008         2.64435         7.27081
     2010.36276         2.22538         7.00707
     2010.36550        -4.94248         7.43629
     2010.36829         2.85277         7.60565
     2010.37097         5.08480         7.31347
     2010.37365        -1.04516         7.50610
     2010.37645         7.37108         7.05361
     2010.37919        -3.24878         7.42207
     2010.38193         8.80436         7.49059
     2010.38466         0.69450         7.23590
     2010.38740        10.15564         7.14282
     2010.39014         5.06478         7.16092
     2010.39293         0.46303         7.24754
     2010.39561        -5.55494         7.49317
     2010.39835        -1.40080         7.24883
     2010.40109         0.66834         6.97992
     2010.40383         4.26348         6.95407
     2010.40657        -0.40238         7.00707
     2010.40930         4.32076         7.09757
     2010.41204        -4.09210         7.04069
     2010.41478        -4.48296         7.03681
     2010.41752         3.53118         7.38845
     2010.42031        -0.46657         7.21522
     2010.42299         1.02546         7.19970
     2010.42573        -9.81440         7.02129
     2010.42847        -1.13126         7.21780
     2010.43121        14.52888         7.26434
     2010.43394        -4.17898         6.99414
     2010.43668        -2.55384         7.40526
     2010.43948        12.41041         7.12084
     2010.44216        -2.98256         7.04974
     2010.44495       -10.78631         7.06784
     2010.44763       -11.17228         7.04715
     2010.45037        -0.01814         7.04974
     2010.45311         7.55900         7.04198
     2010.45585        -1.47186         7.02517
     2010.45859         5.66028         7.08206
     2010.46132        -4.27758         7.14023
     2010.46406        -6.26344         7.17126
     2010.46680        -5.72430         6.98768
     2010.46959         2.41795         7.21522
     2010.47227        -5.50602         6.96312
     2010.47501        -1.43088         7.05361
     2010.47775        -3.49374         7.27210
     2010.48049         1.78340         7.38199
     2010.48323        -6.94746         7.07947
     2010.48596        -3.10332         7.14928
     2010.48870        -3.47218         7.17643
     2010.49144         6.34096         7.13894
     2010.49418         9.90310         7.03293
     2010.49692         3.46824         7.12343
     2010.49965         5.37638         7.01742
     2010.50239         9.63452         7.04456
     2010.50513        -2.45334         7.29666
     2010.50787        -8.77220         7.19712
     2010.51060       -11.15006         7.03293
     2010.51334        -3.79192         6.96700
     2010.51608         1.96122         6.93338
     2010.51882         4.51136         7.06654
     2010.52156        15.03650         7.18548
     2010.52429         8.35364         7.10662
     2010.52703        12.84878         7.31735
     2010.52977         8.93492         6.97087
     2010.53251        -2.47694         7.04586
     2010.53525        -1.87780         6.98639
     2010.53798        11.67134         7.12860
     2010.54072         4.72148         7.08076
     2010.54352        11.85573         8.70196
     2010.54620         5.16176         7.03293
     2010.54893         2.06890         7.15704
     2010.55167        -6.03996         7.14670
     2010.55441        19.58318         7.27339
     2010.55715        -0.05268         7.02259
     2010.55989        -1.15054         7.11308
     2010.56262         4.55260         7.23202
     2010.56536         1.39474         7.03810
     2010.56810        -2.25312         7.07559
     2010.57084         4.51002         7.08076
     2010.57357        -4.72684         7.20487
     2010.57631         1.18530         7.21651
     2010.57905       -10.25056         7.48800
     2010.58179        -0.24642         7.11438
     2010.58453        -5.13728         7.08723
     2010.58726         5.79686         7.10791
     2010.59000        -0.87000         7.19324
     2010.59274         6.11414         7.06784
     2010.59548         7.39728         7.53325
     2010.59822         6.56842         7.15187
     2010.60095         6.30156         7.13765
     2010.60369         7.09670         7.09498
     2010.60643        -3.62216         7.08335
     2010.60917         1.45698         7.03422
     2010.61190         2.34712         7.35355
     2010.61464        -0.43774         7.04456
     2010.61738         0.80140         6.99932
     2010.62012         0.14254         7.02129
     2010.62286         3.15968         7.03293
     2010.62559         5.42682         7.05361
     2010.62833         7.66996         7.16997
     2010.63107         2.05410         8.05813
     2010.63381         3.83724         7.00190
     2010.63655        12.96738         7.08981
     2010.63928        17.82552         7.16609
     2010.64202         0.33166         7.06137
     2010.64476         0.96680         7.18807
     2010.64750         3.32994         7.02646
     2010.65023        22.64408         7.80216
     2010.65297         3.58122         7.35613
     2010.65571         3.85336         7.02129
     2010.65845         7.65950         6.93209
     2010.66119         4.18664         7.02388
     2010.66392        12.54078         7.10145
     2010.66666        12.68192         7.55135
     2010.66940         1.81506         7.05749
     2010.67214        11.28620         7.00837
     2010.67761        23.96448         6.95536
     2010.68035        -1.20738         7.08593
     2010.68309         7.64376         7.00966
     2010.68583        12.38490         7.05361
     2010.68856         7.76403         6.96958
     2010.69130         5.50717         6.94631
     2010.69404        11.20831         7.08076
     2010.69678        -8.50755         6.96182
     2010.69952        -0.24041         6.93855
     2010.70225         6.67073         7.27727
     2010.70499        13.69887         6.98897
     2010.70773        14.10401         7.07430
     2010.71047        16.97415         7.00449
     2010.71321         7.43829         7.14928
     2010.71594        11.03043         7.15833
     2010.71868        28.01757         7.00707
     2010.72142         5.64771         7.92497
     2010.72416         5.69885         7.14153
     2010.72689        -1.92701         7.17385
     2010.72963         1.82413         7.05879
     2010.73237         4.08827         7.03293
     2010.73511        11.32241         7.13377
     2010.73785         1.99455         7.24237
     2010.74058        11.92869         7.19324
     2010.74332        -4.11517         7.06137
     2010.74606         7.70397         7.06008
     2010.74885         1.82422         7.24107
     2010.75154         3.56325         7.09757
     2010.75427         6.95539         7.51903
     2010.75701        13.44353         7.26693
     2010.75975         1.55367         6.98897
     2010.76249         0.61781         7.00966
     2010.76522         6.45695         6.99156
     2010.76796        -2.45891         7.21909
     2010.77070         0.34423         6.95148
     2010.77344        14.79137         7.34191
     2010.77618        -1.23449         6.97475
     2010.77891        -4.43735         6.91787
     2010.78165        -1.30021         6.95665
     2010.78439         2.90493         7.02646
     2010.78713        12.56707         7.59918
     2010.78987        -2.45979         7.04069
     2010.79260         7.62235         6.88038
     2010.79534        -0.18951         6.91658
     2010.79808         3.73063         6.92563
     2010.80082         0.80777         6.86874
     2010.80355         3.15191         6.96053
     2010.80629         7.75105         8.26111
     2010.80903         6.82019         6.96441
     2010.81177         8.25433         7.06525
     2010.81451         8.06347         7.31993
     2010.81724         4.61161         6.95924
     2010.81998         7.46075         7.26176
     2010.82272         5.86589         6.96829
     2010.82546         7.26803         6.93985
     2010.82820         3.87617         6.94114
     2010.83093         3.23731         7.33674
     2010.83367         0.80045         7.43758
     2010.83641        -5.32141         7.00837
     2010.83915        -6.15027         7.11050
     2010.84188         3.76487         7.27210
     2010.84462         1.69601         7.03939
     2010.84736         4.98615         7.05103
     2010.85010        12.94929         7.09628
     2010.85289        17.23854         7.18160
     2010.85557         8.34757         6.92950
     2010.85831         2.09171         6.88943
     2010.86105        -2.17615         7.76854
     2010.86379        -2.18301         6.93209
     2010.86653        -7.69087         6.97217
     2010.86926        11.99327         7.00061
     2010.87200        28.42841         6.98122
     2010.87474         3.81155         7.40267
     2010.87748        -0.29331         7.15963
     2010.88021         2.81283         8.26886
     2010.88295         3.90897         7.05103
     2010.88569         2.75111         6.87133
     2010.88843         0.21525         7.18548
     2010.89117        10.32539         7.21651
     2010.89390        -6.46947         6.96700
     2010.89664        -8.22633         6.92563
     2010.89938       -10.75219         6.97734
     2010.90212       -13.68505         7.00190
     2010.90485        -0.57891         6.96053
     2010.90759        12.11123         6.84806
     2010.91033         0.81837         6.83771
     2010.91307       -11.62349         6.79893
     2010.91581       -23.46035         6.91528
     2010.91854       -14.40021         7.59272
     2010.92128        -7.43307         6.79505
     2010.92402        -5.27893         6.83901
     2010.92676         5.17321         6.87908
     2010.92950         4.35335         6.81056
     2010.93223         4.58149         7.00707
     2010.93497        -7.22237         6.92821
     2010.93771        -9.22823         7.15963
     2010.94045         2.12891         6.95019
     2010.94318        14.30105         6.83642
     2010.94592        24.94719         7.20746
     2010.94866         3.82033         6.95019
     2010.95140         4.40847         7.08593
     2010.95414        -3.14839         7.25271
     2010.95687         1.61075         6.92692
     2010.95961        -1.47411         7.04327
     2010.96235        -7.39197         6.88167
     2010.96509        -6.57783         6.89201
     2010.96788        -7.21759         7.07688
     2010.97056        -7.25755         6.89589
     2010.97330        -4.06941         6.97346
     2010.97604         2.83673         6.91140
     2010.97878        -0.34613         6.97992
     2010.98151       -13.89199         6.93726
     2010.98425        -8.19285         6.91787
     2010.98705        -7.35261         7.05103
     2010.98973        -4.71157         7.03293
     2010.99247         7.44557         7.16350
     2010.99520         4.16371         7.01224
     2010.99794        -3.30715         6.82996
     2011.00342        -2.06987         6.88684
     2011.00616        -0.28073         6.85064
     2011.00889        -0.25459         7.84870
     2011.01163        -7.64745         6.85323
     2011.01437         3.30069         6.81574
     2011.01711        -1.21717         7.04456
     2011.01984         8.44097         6.99027
     2011.02258        -4.20689         6.90235
     2011.02532        -6.20775         6.99932
     2011.02806        -5.41261         7.53713
     2011.03085       -14.26137         7.19712
     2011.03359         2.64877         7.02905
     2011.03627         9.80181         7.02388
     2011.03901         1.05495         6.98122
     2011.04175        -5.67791         7.03034
     2011.04449         1.10923         7.01612
     2011.04722         6.98737         7.15833
     2011.04996        -4.49549         6.99285
     2011.05270        -2.85535         6.90623
     2011.05544        15.27678         6.95019
     2011.05817        -2.27908         6.85711
     2011.06091        -1.20694         6.86745
     2011.06365        -2.81480         6.87521
     2011.06639         3.91034         6.87262
     2011.06913        -8.10552         7.29149
     2011.07186        -7.75038         6.85969
     2011.07460       -10.16824         6.96700
     2011.07734        -2.52810         6.89201
     2011.08008        -4.34796         6.87133
     2011.08282       -15.40382         6.88943
     2011.08555       -15.35768         6.93338
     2011.08829       -15.46254         6.89977
     2011.09103       -14.27540         6.93080
     2011.09377         8.91874         7.02905
     2011.09650         3.06688         6.87908
     2011.09924         9.42702         7.01224
     2011.10198        -1.50884         7.53196
     2011.10472        -2.64370         6.82091
     2011.10746        -5.05956         6.96182
     2011.11019        -5.48242         6.83125
     2011.11293        -1.77928         6.92692
     2011.11567        -2.82314         6.94372
     2011.11841        -9.26500         7.06396
     2011.12115        -3.61186         6.93467
     2011.12388        -9.54372         7.07688
     2011.12662        -1.31258         7.13506
     2011.12936         1.35156         6.83384
     2011.13210        -6.97630         6.89977
     2011.13483       -11.52716         6.84418
     2011.13757        -2.02802         6.92821
     2011.14031         1.68312         6.85064
     2011.14305        10.93926         7.04456
     2011.14579         3.23840         7.03810
     2011.14852        -6.99746         6.82996
     2011.15126        -1.81432         6.88038
     2011.15400         1.57382         6.89977
     2011.15674        -0.96704         6.88167
     2011.15948        -0.89990         6.96182
     2011.16221       -21.55376         7.06396
     2011.16495        -0.12262         6.94502
     2011.16769       -10.51848         6.85711
     2011.17043       -10.07434         6.87262
     2011.17322       -18.91909         7.29796
     2011.17590       -10.84806         6.87003
     2011.17864        -2.56892         6.86098
     2011.18138        -7.99478         6.85711
     2011.18412       -14.35464         6.95019
     2011.18685        -4.62350         6.98897
     2011.18959        -3.81936         6.92821
     2011.19233       -14.39322         7.01742
     2011.19507        -3.27808         6.86098
     2011.19780        -5.48994         7.20746
     2011.20054        -7.53480         7.01612
     2011.20328        -4.77266         7.04327
     2011.20602        -2.39452         7.06008
     2011.20876       -11.07238         7.06654
     2011.21149       -10.51924         7.56686
     2011.21423       -17.92010         6.93467
     2011.21697        -1.51696         7.04974
     2011.21971        -4.64082         7.03681
     2011.22245        -9.92568         6.92563
     2011.22518        -7.72054         6.92563
     2011.22792       -15.97440         7.29279
     2011.23066        -2.25126         6.86874
     2011.23340        -4.98812         6.95924
     2011.23613        -4.37598         6.90882
     2011.23887        -2.90984         6.91270
     2011.24161         0.41530         6.99932
     2011.24435        -0.27156         7.82413
     2011.24709         0.63358         7.03810
     2011.24982         3.05372         6.92304
     2011.25256         0.31886         7.18290
     2011.25530        -4.20400         7.40138
     2011.25804         0.99814         7.50610
     2011.26078        -8.58372         7.08464
     2011.26351        -1.79258         7.08335
     2011.26625       -22.25644         6.95277
     2011.26899        -2.08530         6.91528
     2011.27173         1.72284         7.04844
     2011.27446        -0.50502         7.19712
     2011.27720        -9.00888         7.31993
     2011.27994        -0.72774         6.85581
     2011.28268        -6.50860         7.02905
     2011.28542        -8.34946         6.90235
     2011.28815        -1.76232         6.95019
     2011.29089        -0.94318         6.85064
     2011.29363         4.78296         7.13248
     2011.29637        -4.09490         7.04069
     2011.29911        -2.71176         6.89460
     2011.30184         0.71638         7.15445
     2011.30458        -3.29748         6.82349
     2011.30732        -1.72634         6.83901
     2011.31006         3.03880         6.85323
     2011.31279         1.15694         7.28632
     2011.31553         8.24508         7.35613
     2011.31827        -4.71478         6.96700
     2011.32101        -4.62064         6.93597
     2011.32375        -2.66750         7.00190
     2011.32648        -6.49836         6.89460
     2011.32922        -7.33022         6.89977
     2011.33196        -3.13108         6.98509
     2011.33470       -13.81094         7.22168
     2011.33744        -6.26280         6.97992
     2011.34017         2.94034         7.33674
     2011.34291        -0.20152         7.21522
     2011.34565         8.64562         7.08206
     2011.34839         0.03276         6.95665
     2011.35112        -3.18310         6.94372
     2011.35386       -10.58796         6.99285
     2011.35660        -9.57882         6.93855
     2011.35934        -0.24568         7.15833
     2011.36208       -21.52654         6.94372
     2011.36481        -5.10440         7.11179
     2011.36755        -7.14626         7.04198
     2011.37029        -0.87412         7.05232
     2011.37303        -1.75798         7.03681
     2011.37577        -4.09384         7.11438
     2011.37850       -10.49370         7.01742
     2011.38124        -8.98356         7.03034
     2011.38398        -7.02042         7.21005
     2011.38672        -4.53528         7.03293
     2011.38945        -2.25614         7.08464
     2011.39219        -5.91800         7.04198
     2011.39493        -7.42686         7.06654
     2011.39767         9.68928         7.06784
     2011.40041         0.41842         7.09757
     2011.40314        -2.82144         7.13894
     2011.40594        -4.06020         7.16221
     2011.40862        -4.57916         7.00707
     2011.41136        -9.12102         7.08335
     2011.41410        -7.59788         7.00061
     2011.41683         1.23826         7.04974
     2011.41957        -6.20460         7.09240
     2011.42231       -20.56947         7.08464
     2011.42505        -3.18133         7.05620
     2011.42778        -9.13019         7.11179
     2011.43052         2.51695         7.22168
     2011.43326        -1.97391         7.09369
     2011.43600       -14.88777         6.97087
     2011.43874        -9.13263         7.05749
     2011.44147        -9.15049         7.07818
     2011.44421        -4.44835         7.30054
     2011.44695        12.88879         7.28374
     2011.44969        -7.36407         8.82607
     2011.45243        -1.98993         7.07947
     2011.45516        -8.59179         7.00061
     2011.45790         4.95235         7.37811
     2011.46064        -1.22651         7.34838
     2011.46338        -5.03037         7.26564
     2011.46611       -13.95923         7.15704
     2011.46885        -0.22809         7.14023
     2011.47159        -0.58295         7.19841
     2011.47433        -0.53481         7.22814
     2011.47707        11.86433         7.24883
     2011.47980        -2.35653         7.10274
     2011.48254        -1.05439         7.08076
     2011.48528        -8.60425         7.07818
     2011.48802        -1.66211         7.14023
     2011.49076         5.43203         7.19712
     2011.49349         0.21417         7.28761
     2011.49623        -4.75669         7.13248
     2011.49897         3.95245         7.38199
     2011.50171        10.09359         7.65219
     2011.50444        -6.62127         7.09498
     2011.50718        -1.48413         7.05491
     2011.50992        -5.52699         7.14411
     2011.51266         8.98115         7.22039
     2011.51540        10.57429         7.07301
     2011.51813        -6.43457         7.21005
     2011.52087         2.18757         7.07947
     2011.52361        -3.97929         7.07559
     2011.52635        -4.29915         7.21134
     2011.52908        10.12499         7.52679
     2011.53182        -2.28287         7.12472
     2011.53456        -8.07273         7.06266
     2011.53730         7.98141         7.23461
     2011.54004        -2.25445         7.16867
     2011.54277        -6.07431         7.08593
     2011.54551         0.48883         7.16221
     2011.54825        -3.56403         7.14540
     2011.55099        -3.92089         7.13765
     2011.55373         3.44825         7.17385
     2011.55646        -4.17161         7.08206
     2011.55920         1.81053         7.14023
     2011.56194         9.72267         7.29537
     2011.56468         7.26781         7.08335
     2011.56741         3.10795         7.20229
     2011.57027        -4.42669         7.52032
     2011.57289        -9.34377         7.16092
     2011.57563         2.50037         7.17902
     2011.57837         0.20051         7.16867
     2011.58110        -6.29135         7.13894
     2011.58390        -5.61210         7.50998
     2011.58658        -1.58407         7.28244
     2011.58932         1.88507         7.17514
     2011.59206        -5.09379         7.15575
     2011.59479         5.59435         7.12472
     2011.59753         8.07149         7.11696
     2011.60027         1.54563         7.06913
     2011.60301        -4.60423         7.14023
     2011.60574       -13.79109         7.68709
     2011.60848         9.54005         7.47119
     2011.61122         3.59219         7.42207
     2011.61396         8.97033         7.48542
     2011.61670        -7.62253         7.48412
     2011.61943        13.38861         7.54359
     2011.62217         2.82675         7.26564
     2011.62491         5.03589         7.30184
     2011.62770         3.46314         7.39750
     2011.63039         2.57417         7.17643
     2011.63312         4.12031         7.15058
     2011.63586         7.14945         7.14540
     2011.63860         8.79059         7.21522
     2011.64134        22.58673         8.07753
     2011.64407         2.49287         7.43629
     2011.64676         0.52890         7.64831
     2011.64955         6.18915         7.44922
     2011.65229         8.37629         7.24883
     2011.65503        11.60343         7.39880
     2011.65776        -2.12643         7.51127
     2011.66050        -4.24029         7.70390
     2011.66324        17.37085         7.20617
     2011.66598         2.39999         7.38975
     2011.66872        15.77213         7.41948
     2011.67145         9.51827         7.14670
     2011.67419         8.57641         7.10145
     2011.67693        13.25155         7.06266
     2011.67967         9.73069         7.10662
     2011.68240         3.32883         7.22685
     2011.68509         4.81086         7.43370
     2011.68788         6.74411         7.27339
     2011.69062         9.32425         7.27986
     2011.69336         3.57239         7.26822
     2011.69609         2.86053         7.24883
     2011.69883         3.20367         7.29149
     2011.70157         0.85181         7.27727
     2011.70431        11.88795         7.33157
     2011.70705        12.51409         7.58367
     2011.70978        11.40323         7.42724
     2011.71252        16.37337         7.40526
     2011.71526        11.47651         7.68839
     2011.71800         8.02565         7.34191
     2011.72073         6.01379         7.11825
     2011.72347        10.68493         7.22944
     2011.72621         7.20907         7.27856
     2011.72895        14.98321         7.22427
     2011.73169        18.56535         7.82930
     2011.73442        10.69149         7.21263
     2011.73716        34.32263         7.58108
     2011.73990        -1.59623         7.14670
     2011.74264         2.96491         7.11438
     2011.74538        15.01205         7.40009
     2011.74811        17.69219         7.46602
     2011.75085        14.69233         7.42853
     2011.75359         8.89947         7.31088
     2011.75633         7.80661         7.22427
     2011.75878        10.66321         7.99220
     2011.76454        15.77603         7.45180
     2011.76728         5.28017         7.22814
     2011.77002         3.46131         7.34191
     2011.77275         4.95045         7.54488
     2011.77549         7.07959         7.59013
     2011.77766         7.26565         9.53195
     2011.81461        -2.15798        11.32121
     2011.81656        -0.53632         7.27081
     2011.82203         0.83496         7.19841
     2011.82477         3.17010         7.08076
     2011.82751        -2.61976         7.07688
     2011.83025         8.77438         7.16480
     2011.83299        -1.82348         7.21392
     2011.83572        -4.98534         7.07301
     2011.84120         5.79394         6.99802
     2011.84394         6.13708         7.03681
     2011.84668         6.31722         7.07559
     2011.84941        -0.66564         7.27469
     2011.85215        -4.70550         7.07171
     2011.85489        -9.06436         7.12860
     2011.86036         8.86092         7.11179
     2011.86310        13.95206         7.29537
     2011.86584        29.08020         7.45568
     2011.86858        26.74934         7.06654
     2011.87132        20.15748         7.06654
     2011.87405        -8.74638         7.04456
     2011.87953        -5.10810         7.14799
     2011.88227         0.69404         7.34708
     2011.88501         0.89718         6.99932
     2011.88774        -1.35968         7.10791
     2011.89048        -0.12654         7.28115
     2011.89322         1.64660         7.40526
     2011.89869        -4.98412         7.19841
     2011.90143        -4.20898         7.07818
     2011.90417        -5.78684         7.23332
     2011.90691        -0.55870         7.07301
     2011.90965        -1.12256         7.03810
     2011.91238         0.85058         7.23978
     2011.91786         4.27786         7.29020
     2011.92060        -4.88000         7.06008
     2011.92334        -7.59886         7.15445
     2011.92607        -6.76472         7.76466
     2011.92881        -3.90258         7.18936
     2011.93138         0.72524         7.79828
     2011.93794        -3.35645        11.98313
     2011.93976        -0.99602         7.17385
     2011.94250         3.35412         7.24883
     2011.94524        -1.28074         7.14670
     2011.94798         4.18440         7.16867
     2011.95071         6.92054         7.09369
     2011.95345        -2.69032         7.18936
     2011.95619        -3.78118         7.25400
     2011.95893        -1.92704         6.97087
     2011.96167         6.10610         6.98897
     2011.96440         1.13924         6.97475
     2011.96714         4.08538         7.15963
     2011.96988         3.19452         6.89201
     2011.97262        -4.23634         6.90365
     2011.97535        -2.41420         6.99027
     2011.97792        -1.97738         7.63667
     2012.00861        -6.35977         8.23654
     2012.01368         3.96876         6.86745
     2012.01642         1.10390         6.93855
     2012.01916         3.32404         6.84288
     2012.02190         2.90418         6.85323
     2012.02464        -0.00868         6.91011
     2012.02737        -3.08054         6.85064
     2012.03285        -3.03226         6.87391
     2012.03559        -3.24812         6.94631
     2012.03833         2.40702         6.91399
     2012.04106         1.51016         6.87133
     2012.04380         1.18230         7.12860
     2012.04654       -28.13756         6.98639
     2012.05201         5.93272         6.96441
     2012.05475         2.75786         7.15833
     2012.05749        -6.71700         6.99285
     2012.06023        -0.43286         7.35872
     2012.06297        -6.96772         6.96053
     2012.06570       -14.09458         7.11955
     2012.07118        -3.81130         6.88167
     2012.07392        -4.60516         6.88555
     2012.07666        -2.44102         7.01354
     2012.07939         0.93512         6.91140
     2012.08213         0.59425         6.87650
     2012.08487         0.19040         6.93467
     2012.09034        -7.02932         6.92433
     2012.09308        -1.32618         7.08593
     2012.09582        -2.12404         6.89589
     2012.09855        -1.55991         7.00061
     2012.10130        -4.07076         7.12601
     2012.10403        -6.37362         6.98251
     2012.10951        -3.63734         7.11050
     2012.11225         0.80680         7.06266
     2012.11498        -3.14606         7.04974
     2012.11772         0.96608         7.03810
     2012.12046         0.10022         7.04198
     2012.12320        -0.54164         6.95019
     2012.12856        -3.05058         7.40397
     2012.15058         0.45176         7.09757
     2012.15331         1.19289         6.95148
     2012.15605        -6.62197         7.11308
     2012.15879        -3.71983         7.24624
     2012.16153        -3.93169         7.08206
     2012.16700         0.76659         7.23332
     2012.16974         0.21073         7.13894
     2012.17248       -11.11613         7.06654
     2012.17522        -5.12799         7.14670
     2012.17796        -5.54485         7.07042
     2012.18069        -3.47871         7.07559
     2012.18617        -2.05743         6.99802
     2012.18891         8.39071         7.43887
     2012.19159        -2.78925         7.95859
     2012.19324        16.99885        16.84154
     2012.19712         3.30913         7.08206
     2012.19986        -0.23873         6.99156
     2012.20533        -0.71745         7.11567
     2012.20807        -5.17931         7.04198
     2012.21081         3.07483         6.98509
     2012.21355         0.03897         6.95148
     2012.21629        -7.77489         7.03164
     2012.21902       -10.91975         7.01095
     2012.22450        -8.51047         6.98251
     2012.22724        -9.62933         7.12343
     2012.22997        -2.91519         6.98897
     2012.23271        -3.24805         7.00578
     2012.23545         4.45109         7.39233
     2012.23818        11.07322         8.42271
     2012.24366        -1.49249         7.03164
     2012.24640        -2.59935         6.95019
     2012.24914         1.85579         7.00966
     2012.25188        -3.13807         7.00190
     2012.25462       -11.16593         7.08335
     2012.25735        -0.05979         7.00966
     2012.26283        -4.23051         6.93080
     2012.26557        -9.24537         6.94502
     2012.26830       -12.71623         7.60306
     2012.27104        -3.40409         7.26046
     2012.27378        -2.39995         7.13506
     2012.27646        -3.79492         7.42465
     2012.27880        -5.76353        10.38262
     2012.28131       -10.71681        11.73879
     2012.28473        -0.86839         6.98639
     2012.28747        -4.66025         7.06137
     2012.29021        -0.76111         7.05879
     2012.29295        -4.25297         6.94114
     2012.29568        -3.46383         7.08464
     2012.30116        -0.11455         7.15316
     2012.30390       -15.98341         6.99932
     2012.30663       -14.00227         6.98509
     2012.30937        -7.66013         7.06784
     2012.31211         8.66601         7.75174
     2012.31485         1.12215         7.28503
     2012.32032        -0.29857         7.07688
     2012.32306        -9.44743         6.89718
     2012.32580       -10.61729         6.93597
     2012.32854        -6.76615         7.39233
     2012.33128         4.23199         7.18290
     2012.33401        -3.96487         7.21780
     2012.33949         4.12041         6.96182
     2012.34223        -9.27345         7.04844
     2012.34496       -16.22231         8.09563
     2012.34770       -13.69517         7.30184
     2012.35044        -8.77803         6.90753
     2012.35306         0.50490         7.34062
     2012.35786       -15.66811        18.48600
     2012.36139        -8.04947         6.96312
     2012.36413        -8.21833         6.94631
     2012.36687        -6.70019         7.16092
     2012.36961        -8.44805         6.92175
     2012.37234        -4.96991         7.06654
     2012.37782        -5.02963         7.19712
     2012.38056       -16.85749         7.15187
     2012.38329        -4.24935         7.04974
     2012.38603        -9.75121         7.35096
     2012.38877        -1.11507         7.28503
     2012.39151        10.94407         7.21780
     2012.39698        -6.08965         7.10662
     2012.39972        -2.60551         6.99544
     2012.40246        -9.19837         7.02129
     2012.40520        -2.18423         7.04069
     2012.40794        -5.88109         7.16867
     2012.41067       -10.66595         7.07947
     2012.41615        -0.99067         7.27469
     2012.41889         2.98747         8.89588
     2012.42162         0.19661         9.08980
     2012.42436         0.47475         7.06654
     2012.42710        -3.70711         7.44405
     2012.42984         1.81703         6.98122
     2012.43532        -9.52268         7.07042
     2012.43805        -5.31755         7.03681
     2012.44079        -6.71841         6.91140
     2012.44353       -13.06027         6.96182
     2012.44626        -4.78713         7.10662
     2012.44900         6.60201         7.10921
     2012.45448        -7.55771         7.02776
     2012.45722         0.83743         7.07688
     2012.45995        -2.00843         7.44792
     2012.46269        -0.82929         7.36389
     2012.46543        -2.44015         7.15833
     2012.46816        -8.47302         7.15833
     2012.47364        -0.74473         7.08464
     2012.47638        -4.28659         7.03164
     2012.47912        -2.35945         7.05620
     2012.48186        -5.07131         7.04198
     2012.48459         0.83383         7.07947
     2012.48625         2.10993        18.54159
     2012.49384        -5.45883        14.40458
     2012.49555        -1.71961         7.11438
     2012.49828        -1.43147         7.09369
     2012.50102        -5.26833         7.18548
     2012.50376        12.01481         7.30830
     2012.50650        -7.25705         6.93338
     2012.51197        -0.41377         7.11825
     2012.51471        -8.56463         7.03293
     2012.51745        -4.88149         7.00966
     2012.52019         0.87664         7.24107
     2012.52292        -1.34322         7.01354
     2012.52566        -4.84808         7.02517
     2012.53114        -3.14180         7.09111
     2012.53388         7.61234         7.48542
     2012.53701        22.55423         9.23330
     2012.53935         8.52662         8.65412
     2012.54209         1.92176         7.69227
     2012.54483         1.47390         7.13765
     2012.55030         1.01418         7.23719
     2012.55304         1.01532         7.02000
     2012.55578         4.28646         7.16609
     2012.55852         0.14560         7.02646
     2012.56125        -1.69426         6.98768
     2012.56399         1.37288         7.00061
     2012.56946        -0.91185         7.14670
     2012.57220         5.07929         7.05879
     2012.57494        -0.30156         7.15704
     2012.57768        -6.97642         7.10145
     2012.58042         5.71372         7.04844
     2012.58316        -3.92914         7.01095
     2012.58863        -4.54086         8.37229
     2012.59137         2.90228         7.27986
     2012.59411         5.05742         6.97863
     2012.59685         2.73356         7.66253
     2012.59958         3.56470         7.38328
     2012.60232        -9.46516         7.67029
     2012.60780        -4.11688         6.98639
     2012.61054         2.20026         6.98639
     2012.61327        -0.41260         6.99544
     2012.61601         2.93554         7.00319
     2012.61875         6.47468         7.06654
     2012.62149         9.59282         7.11050
     2012.62696        -0.19290         7.04974
     2012.62970         7.68724         7.06137
     2012.63244         5.78238         7.25659
     2012.63518         1.31052         7.11050
     2012.63791         5.53866         7.10533
     2012.64065         9.78380         8.01418
     2012.64356        -7.09674         8.76401
     2012.64613         3.66208         7.17514
     2012.64887         4.60522         7.34838
     2012.65160         5.70036         7.10921
     2012.65434        14.90150         7.82026
     2012.65708        17.73164         9.44791
     2012.65982        10.78878        12.95145
     2012.66529         2.43406         7.03293
     2012.66803        12.41020         7.08981
     2012.67077        -0.10766         7.12472
     2012.67351         5.54648         7.26434
     2012.67624         0.56662         7.06266
     2012.67898         8.71376         6.98897
     2012.68446         0.24504         7.00449
     2012.68720         6.26118         7.06266
     2012.68993        14.02532         7.84611
     2012.69290        36.17889        12.28694
     2012.69541         5.70860         7.19065
     2012.69815         3.93074         7.11438
     2012.70362         8.42702         7.18419
     2012.70637         5.09017         7.15704
     2012.70910         7.34830         7.03551
     2012.71184         5.94944         7.03422
     2012.71457        11.28458         6.95407
     2012.71731        12.60271         6.94114
     2012.72279         6.28900         6.92304
     2012.72553         9.83614         6.98380
     2012.72826        -1.29372         7.17255
     2012.73100         0.47842         7.16997
     2012.73374        13.76256         7.74139
     2012.73648        12.28771         6.98509
     2012.74195        11.52898         7.12472
     2012.74469        15.57512         7.12730
     2012.74669         7.95287        10.73556
     2012.75108         6.94711        13.40135
     2012.75290        19.04854         7.24366
     2012.75564         5.04667         7.02905
     2012.76112         5.39296         6.88684
     2012.76386         7.50210         7.08076
     2012.76659         7.13824         7.07171
     2012.76933        10.23838         7.08723
     2012.77207         9.42252         7.21522
     2012.77481         4.72366         6.94760
     2012.78028        12.78294         7.13765
     2012.78302        11.40508         7.20487
     2012.78576         6.28022         7.21263
     2012.78850         9.04836         7.22556
     2012.79123         0.29150         7.69227
     2012.79397         9.82864         7.07559
     2012.79671         3.22278         7.12601
     2012.79945        17.63592         7.38587
     2012.80219        15.77306         7.41819
     2012.80492         4.94720         7.11050
     2012.80766         6.32134         7.08593
     2012.81040         6.50848         7.15058
     2012.81314         3.35962         7.19453
     2012.81587        -0.12924         7.15058
     2012.81861        -3.22610         7.34838
     2012.82135         5.92904         7.17385
     2012.82409        11.89018         7.46861
     2012.82683         6.35632         7.48929
     2012.82956         0.75046         7.31735
     2012.83230        10.49160         7.24495
     2012.83504         1.62974         7.43241
     2012.83777         8.72987         7.15833
     2012.84052         3.81502         7.24107
     2012.84325         4.17016         9.01870
     2012.84599        -0.37770         7.40397
     2012.84873        -4.45356         7.23849
     2012.85147        15.95758         7.38716
     2012.85420         0.92972         7.08206
     2012.85694        -0.66414         7.19970
     2012.85968         4.52700         7.14928
     2012.86242        -2.01786         7.57462
     2012.86516         3.94328         7.14153
     2012.86789        -2.27358         7.35743
     2012.87064         2.02356         7.11050
     2012.87337         1.48570         7.22427
     2012.87611         3.11784         7.18290
     2012.87885        10.76998         7.11438
     2012.88158        10.41812         7.07688
     2012.88432        12.05426         7.07559
     2012.88706        -1.44261         7.41172
     2012.88980         3.49353         7.39233
     2012.89253        -4.16733         7.16092
     2012.89527        -1.06819         7.10274
     2012.89801        -2.66105         7.55393
     2012.90075         1.92609         7.09757
     2012.90349        -1.73677         7.12472
     2012.90622         0.40437         7.15058
     2012.90896         3.69351         7.24495
     2012.91170        -2.44335         7.21522
     2012.91444         7.82079         7.11308
     2012.91718        11.59993         7.19712
     2012.91991        18.95907         7.11179
     2012.92265         6.93421         7.06137
     2012.92539         2.14835         7.15575
     2012.92813        -2.40551         7.04586
     2012.93086         2.72963         7.16997
     2012.93360         6.65077         7.22039
     2012.93634         7.99791         7.03034
     2012.93908        -2.86895         7.23590
     2012.94182        16.11619         7.07818
     2012.94455         9.98333         7.00319
     2012.94729        10.05447         7.16092
     2012.95003         2.29061         7.07430
     2012.95277        10.50975         7.07430
     2012.95551         9.40489         6.93985
     2012.95824         9.23103         6.95019
     2012.96098         1.54017         7.49446
     2012.96372         7.29631         7.11955
     2012.96646         9.50445         7.03681
     2012.96919        11.08359         7.10145
     2012.97193         0.78573         7.02646
     2012.97467         8.68587         7.00061
     2012.97741         6.25601         6.94760
     2012.98015        10.29915         7.00578
     2012.98288         2.02329         6.96829
     2012.98562        -4.29457         6.94502
     2012.98835         3.88756         6.93080
     2012.99110         3.89071         6.95277
     2012.99384        -4.54415         7.02129
     2012.99657        -4.11101         7.05103
     2012.99931        -5.54587         7.05361
     2013.00205        -5.62473         7.04198
     2013.00479        -3.76659         7.50869
     2013.00752        -7.38445         7.05491
     2013.01026       -12.19531         7.08852
     2013.01300        -9.60917         7.05361
     2013.01574       -10.10803         7.02388
     2013.01847         1.92410         7.09757
     2013.02121         3.93025         7.12472
     2013.02395        -4.31061         7.31993
     2013.02669         1.38353         7.24883
     2013.02943         3.47867         7.04327
     2013.03216        -3.40819         6.96312
     2013.03490        -7.36605         7.02388
     2013.03764        -5.71591         7.06137
     2013.04038       -12.79877         7.09886
     2013.04312       -12.55663         7.16480
     2013.04585       -10.40749         7.10791
     2013.04859        -9.44135         7.12730
     2013.05133        -6.39721         7.05361
     2013.05407        -5.11907         7.02129
     2013.05681        -4.00893         7.02905
     2013.05954        -4.49279         7.10016
     2013.06228         9.40635         7.29666
     2013.06502        -5.00951         7.24495
     2013.06776         2.82563         7.14799
     2013.07049         3.24877         7.20358
     2013.07323         5.57191         7.05491
     2013.07597         7.44305         7.02000
     2013.07871        12.68419         6.99156
     2013.08145        12.09134         7.13118
     2013.08418        -2.63353         7.10145
     2013.08692        -5.50139         7.00319
     2013.08966        -5.53225         7.04069
     2013.09240        -7.07111         7.00966
     2013.09514         2.26703         7.08852
     2013.09787         0.84417         7.31347
     2013.10061         1.33531         7.66124
     2013.10335        -5.47455         7.09757
     2013.10609        -3.37741         7.01742
     2013.10882        -0.91627         7.02905
     2013.11156        -9.12013         7.19970
     2013.11430        -7.62599         7.06784
     2013.11704       -11.37485         7.16867
     2013.11978         3.67229         7.45568
     2013.12251       -13.52257         7.10533
     2013.12525       -12.14943         7.10016
     2013.12799        -4.76229         7.11438
     2013.13073        -2.99515         7.15058
     2013.13347        -6.48201         7.07430
     2013.13620        -1.59887         7.07559
     2013.13894         0.13827         7.15316
     2013.14168         6.49441         7.38458
     2013.14442         4.83555         7.36130
     2013.14715         3.06969         7.38328
     2013.14989        -2.68517         7.03551
     2013.15263        -9.93003         7.19970
     2013.15537       -11.95089         7.03164
     2013.15810        -6.07076         7.08335
     2013.16084        -7.00061         7.06525
     2013.16358        -8.85247         7.18031
     2013.16632       -15.30633         7.04198
     2013.16906        -0.29319         7.08981
     2013.17180        -2.15605         7.16738
     2013.17453         0.66209         7.31476
     2013.17727        -0.63277         7.30571
     2013.18001        -2.71263         7.20100
     2013.18275        -3.09649         7.11308
     2013.18548        -5.08835         6.95665
     2013.18822        -4.94321         7.07430
     2013.19096        -0.15907         6.98509
     2013.19370        -1.68093         7.06784
     2013.19644       -13.14079         7.14540
     2013.19917        -8.98365         7.15445
     2013.20191         2.26749         7.16221
     2013.20465         9.51063         7.02259
     2013.20739        -0.48323         7.10533
     2013.21013        11.02191         7.08981
     2013.21286        -4.05995         6.95795
     2013.21560        -3.23581         7.18936
     2013.21834        13.66133         7.17255
     2013.22108         1.01847         6.98380
     2013.22381        -6.07139         6.93338
     2013.22655        -7.50525         6.93597
     2013.22929        -5.73911         7.03164
     2013.23203        -6.10197         7.02388
     2013.23477        -4.29083         6.92175
     2013.23750        -9.10069         7.06913
     2013.24024        -8.85455         7.08593
     2013.24297        -3.30742         7.10403
     2013.24572         1.17773         7.16092
     2013.24846         0.73487         7.12472
     2013.25119         7.17000         7.17126
     2013.25393        -5.45986         7.18290
     2013.25667        -4.57672         7.36130
     2013.25941         4.25842         7.22814
     2013.26214         4.89356         7.20875
     2013.26488        -3.84530         7.24107
     2013.26762         5.24584         7.04327
     2013.27036        -6.82502         7.05103
     2013.27310        -9.03588         7.48800
     2013.27583        -4.97874         7.29925
     2013.27857        -0.67860         7.22556
     2013.28131        11.65854         7.22039
     2013.28405         6.92068         7.32381
     2013.28679        -2.84818         7.08464
     2013.28952        -5.44404         7.10145
     2013.29226        -7.60390         7.13894
     2013.29500        -8.63476         7.06266
     2013.29774        -1.61462         7.11825
     2013.30047        -1.32948         7.25142
     2013.30321        -2.79034         7.22814
     2013.30595        -9.32920         7.09240
     2013.30869       -12.43006         7.14023
     2013.31143        -8.90792         7.07301
     2013.31416        -8.78378         7.13377
     2013.31690        -4.35064         7.07947
     2013.31964        -5.69150         7.13506
     2013.32238         0.11664         7.17902
     2013.32512         8.87678         7.67546
     2013.32785        11.65392         7.20487
     2013.33059        -8.42094         7.11308
     2013.33333       -10.75980         7.10403
     2013.33607       -13.38366         7.13377
     2013.33880        -7.02052         7.13118
     2013.34154         0.12762         7.12601
     2013.34428        -3.79624         7.31993
     2013.34702         3.47890         7.15058
     2013.34976        -0.93896         7.21909
     2013.35249        -7.21982         7.11438
     2013.35523        -2.13168         7.17772
     2013.35797        -3.94854         7.21134
     2013.36071        -9.87540         7.58755
     2013.36344         4.32074         7.30184
     2013.36618        -4.52813         7.39621
     2013.36892        -2.33398         7.10921
     2013.37166        -5.14784         7.13248
     2013.37440        -3.13470         7.13248
     2013.37713        -4.34756         7.15445
     2013.37987        -5.79542         7.17643
     2013.38261        -9.44228         7.10274
     2013.38535       -13.78114         7.38975
     2013.38809         3.34301         7.08852
     2013.39082        -2.57586         7.35355
     2013.39356        -7.06672         7.29796
     2013.39630        -8.77658         8.17449
     2013.39904        -2.15344         8.27921
     2013.40177        -3.48030         7.45956
     2013.40451         9.58284         7.63021
     2013.40725         1.80898         7.36906
     2013.40999         2.69112         7.13635
     2013.41273        -4.25374         7.12730
     2013.41546       -16.24760         7.29149
     2013.41820        -3.02546         7.17126
     2013.42094        -3.77432         7.20100
     2013.42368        -5.34118         7.20358
     2013.42642        -2.39804         7.24237
     2013.42915        -3.28690         7.52679
     2013.43189         2.43024         8.09692
     2013.43463        -6.14262         9.41559
     2013.43737       -13.17148        10.23524
     2013.44010        -3.62234         8.10209
     2013.44284         0.77980         7.18936
     2013.44558         0.34294         7.23978
     2013.44832        -1.10292         7.17514
     2013.45106        -5.63978         7.22944
     2013.45379         0.67436         7.21392
     2013.45653         0.24950         7.23332
     2013.45927        -7.80335         7.24624
     2013.46201         0.55978         7.10016
     2013.46475         2.94592         7.16609
     2013.46748         4.43306         7.29279
     2013.47022        -0.45280         7.16738
     2013.47296        -5.86866         6.98768
     2013.47570        -3.09752         6.97863
     2013.47843        -7.63939         7.13377
     2013.48117        -4.35824         7.17385
     2013.48391         3.02590         7.15445
     2013.48665       -12.75596         7.10274
     2013.48939        -5.07982         7.12343
     2013.49212         1.67432         7.13765
     2013.49487        -9.24953         7.25917
     2013.49760        -5.33140         7.19582
     2013.50034        -6.29126         7.19582
     2013.50308        17.29288         7.25788
     2013.50581        11.40702         7.26822
     2013.50855         3.51316         7.09369
     2013.51129         1.49430         7.06913
     2013.51403         2.26344         7.04069
     2013.51676        -4.61042         7.07042
     2013.51950        -4.40428         7.09111
     2013.52224        -4.78414         7.25659
     2013.52498        14.52400         7.48024
     2013.52772         7.02114         7.09111
     2013.53045        -4.04272         7.09498
     2013.53319        -4.03458         7.10533
     2013.53593         6.69256         7.10662
     2013.53867         0.01170         7.13894
     2013.54140        -0.29217         7.19841
     2013.54414         3.88198         7.11308
     2013.54688         1.25112         7.14023
     2013.54962         2.29126         6.98122
     2013.55236        12.27840         7.02388
     2013.55509         2.47754         7.11308
     2013.55783         7.81468         7.93273
     2013.56051        -3.57729         7.37682
     2013.56331        -0.71904         7.17126
     2013.56605        -3.75090         7.15058
     2013.56878         5.74024         7.25917
     2013.57152        -1.16962         7.25271
     2013.57426         1.49252         7.13894
     2013.57700        -1.03534         7.03293
     2013.57974         4.71980         7.03422
     2013.58247         8.07294         7.17126
     2013.58521         9.89408         7.06525
     2013.58795         3.52722         7.12084
     2013.59069         6.59136         7.04456
     2013.59342        -0.70350         7.00449
     2013.59616        12.85164         7.00449
     2013.59890         8.43178         7.06525
     2013.60164        11.10692         7.09111
     2013.60438         9.69106         7.13377
     2013.60711         5.40820         7.12213
     2013.60985         8.91934         7.11438
     2013.61259         3.87048         7.10403
     2013.61533        11.21162         7.29408
     2013.61807        11.24175         7.19970
     2013.62080        14.62089         7.29020
     2013.62257        27.75321        13.98182
     2013.63529         1.49909        11.57460
     2013.63723         7.72073         7.03034
     2013.63997        10.78587         8.32187
     2013.64271         7.29801         7.11567
     2013.64544         2.52515         7.05749
     2013.64818        10.16729         7.07042
     2013.65092         5.78643         7.01612
     2013.65366         0.24657         7.09757
     2013.65639         4.84871         7.03293
     2013.65913        19.38785         7.48800
     2013.66187       -18.56501         7.50093
     2013.66461         2.27513         7.00061
     2013.66735        16.35527         7.09240
     2013.67008         5.65841         7.08335
     2013.67282        14.38355         7.23073
     2013.67556        -1.98231         7.27598
     2013.67830        10.97583         7.07947
     2013.68104        19.08097         7.08593
     2013.68377         3.29711         7.02000
     2013.68651         8.24025         6.99156
     2013.68925         6.23039         7.02000
     2013.69199         6.19653         7.02000
     2013.69472         1.75467         6.97475
     2013.69746         3.65681         6.99932
     2013.70020        17.12495         7.07301
     2013.70294         9.71109         6.96312
     2013.70568         8.72223         7.12601
     2013.70841        13.07537         7.09628
     2013.71115         7.94051         6.97217
     2013.71389        23.31765         7.07947
     2013.71663         2.55979         6.95407
     2013.71937        12.53993         6.99027
     2013.72210        10.49707         7.07818
     2013.72484        22.39021         7.10274
     2013.72758        17.03035         7.22556
     2013.73032        17.03049         6.94372
     2013.73305        12.29863         6.91399
     2013.73579         1.50677         6.90882
     2013.73853         5.79591         6.99673
     2013.74127         9.21605         7.01612
     2013.74401         3.88819         7.25012
     2013.74674         2.64233         7.22168
     2013.74948        10.45047         7.04456
     2013.75222        -3.28939         7.00190
     2013.75496         2.01775         6.98122
     2013.75770        -6.87311         6.99156
     2013.76043        -3.21697         6.94760
     2013.76317         1.22817         6.94502
     2013.76591        -0.72169         7.19841
     2013.76865        16.97845         7.10662
     2013.77138         5.90059         7.07430
     2013.77412         3.67473         7.11696
     2013.77686         1.03087         6.98122
     2013.77960        -2.27999         6.99802
     2013.78234        -6.56585         7.02517
     2013.78507        -6.88871         7.04844
     2013.78781       -14.61957         6.95665
     2013.79055         0.72257         6.96829
     2013.79329        -2.87229         6.92950
     2013.79603        -0.60815         6.95407
     2013.79876        -2.97201         7.00707
     2013.80150         2.41113         7.08981
     2013.80424         0.51027         7.08723
     2013.80698         9.65141         6.91916
     2013.80971         2.64055         6.94114
     2013.81245         8.22069         7.02129
     2013.81519        -4.21317         7.02905
     2013.81793        -2.74203         6.98251
     2013.82067         1.31111         7.06396
     2013.82340         2.31325         6.98122
     2013.82614         6.80039         7.19712
     2013.82888         5.13653         7.05103
     2013.83162        16.07667         7.22427
     2013.83436        -4.72919         7.10403
     2013.83709        10.67095         7.34579
     2013.83983        12.21309         7.13765
     2013.84257         7.25723         7.12601
     2013.84531         0.29637         7.23978
     2013.84804        -1.17949         7.06008
     2013.85078         4.19565         7.13377
     2013.85352         7.53179         6.98380
     2013.85626        -2.39407         7.04198
     2013.85900         2.81007         6.97863
     2013.86173        -0.14879         6.96829
     2013.86447         6.30235         7.11438
     2013.86721        -4.55751         6.94372
     2013.86995         7.09963         6.97992
     2013.87269         9.19377         7.03034
     2013.87542        10.48291         7.06654
     2013.87816        18.82205         7.02646
     2013.88090        15.13419         7.07301
     2013.88364        16.93533         7.41172
     2013.88637         2.28247         7.00578
     2013.88911        -4.75739         6.95407
     2013.89185        -6.14725         7.01224
     2013.89459        -5.43111         6.93080
     2013.89664         4.53574         9.72458
     2013.90006        -0.73183         7.05879
     2013.90280        -4.27569         7.04715
     2013.90554        -1.74155         7.03034
     2013.90828         2.12159         6.94502
     2013.91102        -0.13227         6.93597
     2013.91375         1.87387         7.06008
     2013.91649        10.22401         7.06137
     2013.91923         5.40215         7.19065
     2013.92197        -4.49171         7.12472
     2013.92470        -3.69257         6.92045
     2013.92744        -4.64943         6.98380
     2013.93018         0.50171         6.88555
     2013.93292        -8.34315         6.92692
     2013.93566        -7.94201         6.96441
     2013.93839       -12.51187         6.93985
     2013.94113        -8.98773         6.93597
     2013.94387         1.76341         6.92304
     2013.94661         1.48955         7.03164
     2013.94935         5.98769         7.03422
     2013.95208        -1.12117         6.99673
     2013.95482        20.37297         7.04198
     2013.95756        -3.60489         7.00190
     2013.96030         2.62825         6.93985
     2013.96303         2.79339         7.16350
     2013.96577         7.12653         6.96700
     2013.96851         6.08267         7.03551
     2013.97125        16.23281         7.11825
     2013.97399         7.10995         7.07430
     2013.97672         0.76509         7.09886
     2013.97946         2.05323         7.08464
     2013.98220        -2.91263         7.26434
     2013.98494        -0.47650         6.89460
     2013.98767        -8.17036         6.93726
     2013.99041        -8.11622         6.99802
     2013.99315        -9.94108         6.96053
     2013.99589        -7.41694         6.97734
     2013.99863         3.22120         7.06525
     2014.00416       -12.01541         7.08852
     2014.00684        12.29362         7.23202
     2014.00958        -3.90424         6.95924
     2014.01232        -6.20110         7.05103
     2014.01505        -2.36496         7.10662
     2014.01779         0.30518         7.05232
     2014.02053         5.54432         6.98509
     2014.02327         8.37246         7.31218
     2014.02600         9.94760         7.26564
     2014.02874         4.31974         7.19841
     2014.03148        16.17388         7.05879
     2014.03422        14.39202         7.07818
     2014.03696        -3.27284         7.10145
     2014.03969        -4.75170         6.99673
     2014.04243        -3.35456         7.10533
     2014.04517         3.46958         7.11308
     2014.04791        -2.72428         6.94502
     2014.05065         1.52786         7.00578
     2014.05338        -1.99500         6.94372
     2014.05612        -6.07386         6.90106
     2014.05886        -2.25072         6.93209
     2014.06160        -4.64658         7.18419
     2014.06433         0.00756         7.16609
     2014.06707         0.89670         7.18807
     2014.06981         3.41284         7.02646
     2014.07255         0.48898         6.91011
     2014.07529        -0.66188         6.95795
     2014.07802        -0.47674         7.00449
     2014.08076        17.64440         7.08206
     2014.08350         9.51354         6.96958
     2014.08624         1.32068         7.08852
     2014.08898        -1.75518         7.21263
     2014.09171        -6.89604         7.27986
     2014.09445        -7.21890         6.97217
     2014.09719       -17.31676         7.08852
     2014.09993         1.79338         7.00837
     2014.10266        -2.26048         7.10274
     2014.10540       -16.79434         7.01612
     2014.10814       -30.17220         7.13765
     2014.11362        12.14608         7.15704
     2014.11635         3.63822         7.03293
     2014.11909        -1.92664         7.10403
     2014.12183        -0.44550         7.10274
     2014.12457         5.10664         7.13118
     2014.12731         7.76778         7.05879
     2014.13004         3.19092         7.08076
     2014.13278         9.76006         7.30442
     2014.13552         3.54820         7.33028
     2014.13826         7.54634         6.99802
     2014.14099        16.29248         7.01742
     2014.14373         4.70362         7.04844
     2014.14647         3.47876         7.05620
     2014.14921         2.83590         7.07559
     2014.15195        -4.97496         7.04715
     2014.15468         1.81818         7.13118
     2014.15742         4.40932         7.12989
     2014.16016         6.79546         7.24883
     2014.16290         1.65560         7.08593
     2014.16564        -4.85526         7.33286
     2014.16837        -9.09912         7.58884
     2014.17111         8.28202         7.35484
     2014.17385         1.84216         7.42465
     2014.17659        -0.46470         7.57721
     2014.17932         2.21344         7.38845
     2014.18206         3.19158         7.25012
     2014.18480        -1.88028         7.58367
     2014.18754         6.51686         7.22556
     2014.19028        -3.14300         7.02905
     2014.19301        -4.49486         7.07818
     2014.19575        -2.89272         7.00449
     2014.19849         0.24742         7.23719
     2014.20123         1.51756         7.09498
     2014.20397        10.34070         7.29537
     2014.20670         8.11884         7.16092
     2014.20944        -0.44402         7.05749
     2014.21218         2.65212         7.07301
     2014.21492         6.33026         7.28632
     2014.21765        -1.90660         7.05749
     2014.22039        -3.24046         7.08723
     2014.22313        -1.75332         7.04327
     2014.22587        -2.94818         7.04715
     2014.22861         6.89896         7.28115
     2014.23134         5.46710         7.11308
     2014.23408        12.61424         7.09886
     2014.23682         0.52238         7.11179
     2014.23956         3.13452         7.26693
     2014.24230         4.19766         7.12213
     2014.24503        -8.90820         6.99802
     2014.24777         3.00694         7.36777
     2014.25051         4.24108         7.03422
     2014.25325        -7.26578         7.04327
     2014.25598         6.13436         7.26693
     2014.25872         1.02650         7.04327
     2014.26146        11.39764         7.28632
     2014.26420        -9.60622         7.07171
     2014.26694        -7.73508         7.31735
     2014.26967        -4.06194         7.09240
     2014.27241        -6.10280         7.22168
     2014.27515        -6.96266         7.23332
     2014.27789        -0.69552         7.10274
     2014.28062        -4.56538         7.05232
     2014.28336        -0.70624         7.10533
     2014.28610         4.13390         7.35484
     2014.28884        -6.94496         8.19905
     2014.29158         0.41418         7.05491
     2014.29431         2.18632         7.13635
     2014.29705         4.90746         7.20617
     2014.29979        -4.05340         7.14023
     2014.30253         1.24574         7.11696
     2014.30527         2.65188         7.15704
     2014.30800         1.06102         7.14153
     2014.31074         6.54516         7.29537
     2014.31348        -0.59970         7.11567
     2014.31622         0.33644         7.05361
     2014.31895        -0.59542         7.09757
     2014.32169        -6.05428         7.16997
     2014.32443       -15.39814         7.13765
     2014.32717       -11.28500         7.21134
     2014.32991        -1.16686         7.05620
     2014.33264         0.35828         7.16609
     2014.33538        12.49742         7.31218
     2014.33812         3.08456         7.31347
     2014.34086         5.27870         7.09369
     2014.34360         4.93084         7.05879
     2014.34633        -2.12202         7.07042
     2014.34907        -9.55688         7.61728
     2014.35181        -3.77375         7.33028
     2014.35375         3.89090        11.79567
     2014.35728        -7.97647         7.30054
     2014.36002       -17.94333         7.16221
     2014.36276        -9.39019         6.99673
     2014.36550        -6.13405         7.01095
     2014.36824        -4.76791         7.15058
     2014.37097       -12.45777         7.71037
     2014.37371        15.66937         7.23332
     2014.37645         6.70851         7.14023
     2014.37919        -2.04835         7.10403
     2014.38193        -7.28421         7.09498
     2014.38466        -4.16407         7.16609
     2014.38740        -6.55793         7.13377
     2014.39014        -4.53479         7.43887
     2014.39288        -1.63665         7.29925
     2014.39561       -13.05051         7.18807
     2014.39835         3.63663         7.42465
     2014.40109        -8.18423         7.12213
     2014.40383         4.78991         7.20617
     2014.40657         2.06905         7.12343
     2014.40930        -5.67781         7.13635
     2014.41204        -9.20767         7.25788
     2014.41478        -8.10353         7.27856
     2014.41752        -0.72039         7.18548
     2014.42026         5.02275         7.08076
     2014.42299         0.02989         7.10921
     2014.42573        -2.86997         7.13635
     2014.42847        -4.23083         7.40526
     2014.43121        -0.91869         7.02259
     2014.43394        -4.96155         7.10145
     2014.43668        -6.58941         7.32898
     2014.43942        -3.72127         7.29408
     2014.44216        -9.86413         7.06008
     2014.44490        -3.86999         7.33803
     2014.44763        -3.68585         7.51127
     2014.45037         4.63029         7.16738
     2014.45311         6.05243         7.10533
     2014.45585        11.25857         7.10662
     2014.45859        -8.90529         7.12601
     2014.46132        -1.91115         7.10533
     2014.46406        -7.94001         7.41043
     2014.46680        26.34713         7.93919
     2014.46954       -11.80973         7.00578
     2014.47227        -4.42859         7.10145
     2014.47501        -3.52245         7.15704
     2014.47775         5.83769         7.20746
     2014.48049        -9.06517         7.12730
     2014.48323        -3.41003         7.10662
     2014.48596        12.50111         7.37940
     2014.48870         5.16325         7.19841
     2014.49144        -0.00261         7.03939
     2014.49418        -1.20147         6.98122
     2014.49692       -11.13833         6.98251
     2014.49965        -7.05719         7.10533
     2014.50239       -10.13605         7.16221
     2014.50513         6.94109         7.12213
     2014.50787         1.18123         7.04198
     2014.51060        -4.67063         7.15316
     2014.51334         2.83551         6.96958
     2014.51608        -3.92535         7.03810
     2014.51882        -1.44121         7.19582
     2014.52156         0.68693         7.14153
     2014.52429         2.70107         7.11050
     2014.52703         6.71921         7.15445
     2014.52977         0.90035         7.12730
     2014.53251        -5.28251         7.04715
     2014.53525        -2.86837         7.04715
     2014.53798         2.75077         7.05232
     2014.54072         1.46691         7.27469
     2014.54346         4.87105         7.14540
     2014.54620         1.09319         7.41560
     2014.54893        22.32533         7.20746
     2014.55167        14.09047         7.08593
     2014.55441        13.28461         7.17385
     2014.55715         4.47775         7.34321
     2014.55989        15.96789         7.35355
     2014.56262        -0.77797         6.97734
     2014.56536         0.52917         7.00966
     2014.56810        -0.91569         7.03681
     2014.57084         2.45245         7.06137
     2014.57357         0.06059         7.10533
     2014.57631        -6.99427         7.09498
     2014.57905        -1.52813         7.24237
     2014.58179         5.86201         7.18031
     2014.58453         7.08915         7.25917
     2014.58726         0.31529         7.50093
     2014.59000        -0.94257         7.33674
     2014.59274        -0.53943         7.37035
     2014.59548         8.28471         7.22814
     2014.59822         1.49285         7.21522
     2014.60095         0.79399         7.35743
     2014.60369        -0.44387         7.22039
     2014.60643        -5.65573         7.07301
     2014.60917         3.47241         7.25529
     2014.61190        -0.43045         7.42853
     2014.61464        -1.34531         7.63150
     2014.61738         5.90383         7.32381
     2014.62012         5.26697         7.25400
     2014.62286         2.92011         7.06654
     2014.62559         0.88925         7.21522
     2014.62833         5.52539         7.06784
     2014.63107         5.88353         7.40009
     2014.63381        11.71567         7.57591
     2014.63655        12.64181         7.21909
     2014.63928         2.66195         7.40914
     2014.64202         0.51109         7.05491
     2014.64476         2.71323         7.12343
     2014.64750         6.27837         7.08852
     2014.65023         2.80951         7.06008
     2014.65252         9.11879         8.56363
     2014.65942        13.78875        15.10528
     2014.66119        35.93207         7.67287
     2014.66392        12.86121         7.19195
     2014.66666        13.08435         7.13894
     2014.66940         1.36149         7.21005
     2014.67214        15.09963         7.29279
     2014.67488        -5.05723         7.01095
     2014.67761        -6.44709         7.02905
     2014.68035        -0.31395         7.03164
     2014.68309         3.88019         7.11438
     2014.68583         6.63033         7.14928
     2014.68856        -0.91753         7.26434
     2014.69130         4.49361         7.08335
     2014.69404        -1.93925         7.01354
     2014.69678         3.56289         7.21522
     2014.69952         5.97303         7.05491
     2014.70225        11.56917         7.01095
     2014.70499         8.46331         7.02517
     2014.70773         7.66245         7.04715
     2014.71047         8.71959         7.17514
     2014.71321         9.45973         7.02776
     2014.71594        -3.60714         7.21005
     2014.71868         7.45500         7.10274
     2014.72142         6.77114         6.93597
     2014.72416         6.40128         7.11955
     2014.72689        15.13742         7.14799
     2014.72963        11.45656         7.17643
     2014.73237         2.44770         7.08335
     2014.73511         1.93684         7.01612
     2014.73785         4.34498         6.96958
     2014.74058         3.01012         7.01095
     2014.74332         3.38726         7.25917
     2014.74606        21.49740         7.33157
     2014.74880         6.48754         7.01095
     2014.75154         1.24468         7.26564
     2014.75427         0.40682         6.96958
     2014.75701         2.50496         7.12084
     2014.75975         7.73210         7.14023
     2014.76249         3.94124         7.10791
     2014.76522         7.73338         7.00190
     2014.76796         7.16152         7.11179
     2014.77070        -1.05334         7.04198
     2014.77344         5.51380         7.18031
     2014.77618        16.10694         7.55006
     2014.77891        22.44408         7.11825
     2014.78165         0.18822         7.05232
     2014.78439         7.70536         7.13506
     2014.78713        20.78950         7.06008
     2014.78987         2.93664         7.07947
     2014.79260         6.35378         7.02905
     2014.79534         7.68292         7.03293
     2014.79808        16.00106         7.14023
     2014.80082         3.53920         7.11179
     2014.80355         5.28034         7.22685
     2014.80629         6.75648         7.21780
     2014.80903         5.25862         7.31993
     2014.81177        10.01376         6.96441
     2014.81451         4.10090         7.21263
     2014.81724         4.36104         7.28632
     2014.81998        14.87918         7.08981
     2014.82266         5.80921         7.74398
     2014.82454        25.28375        12.73943
     2014.82820         9.39660         7.27598
     2014.83093         6.68274         7.15187
     2014.83367         1.28288         7.10921
     2014.83641        20.74002         7.11955
     2014.83915         8.24316         7.00966
     2014.84188         4.07830         7.48542
     2014.84462         3.52444         7.32769
     2014.84736        12.12858         7.42853
     2014.85010         0.65272         7.11438
     2014.85284        -1.01314         7.08981
     2014.85557        20.15100         7.43758
     2014.85831         6.59614         7.18807
     2014.86105        -7.07572         7.30571
     2014.86379         1.27442         7.04069
     2014.86653         2.51456         7.06654
     2014.86926       -19.54630         7.13248
     2014.87200       -18.19116         7.04327
     2014.87474        -9.02202         7.04586
     2014.87748       -10.87488         7.17902
     2014.88021        -0.64674         7.57074
     2014.88295         7.11640         7.30184
     2014.88569        -1.77746         7.36260
     2014.88843        11.02068         7.38716
     2014.89117        23.73282         7.78535
     2014.89390        13.30196         7.56169
     2014.89664         6.70210         7.60048
     2014.89938         9.29924         7.64443
     2014.90212        -1.95362         7.31218
     2014.90485         4.58152         7.57850
     2014.90759         3.55366         7.35484
     2014.91033         4.25580         7.23590
     2014.91307         5.76794         7.11179
     2014.91581         1.91008         7.06784
     2014.91854        -0.19578         7.06913
     2014.92128         9.65836         7.18936
     2014.92402        -6.63150         7.15316
     2014.92676        -3.96836         7.19970
     2014.92950         1.04978         7.20229
     2014.93223       -14.06208         7.15575
     2014.93497        -2.59394         7.12860
     2014.93771        -6.87380         7.44017
     2014.94045         0.12234         7.29020
     2014.94318         7.85448         7.65865
     2014.94592         2.54362         7.10145
     2014.94866        -5.23324         6.99156
     2014.95140        -2.13010         6.98897
     2014.95414         0.75104         6.98122
     2014.95687         5.60418         6.99285
     2014.95961         9.47532         7.04327
     2014.96235         1.23046         7.03034
     2014.96509         5.87560         7.14540
     2014.96783        -1.00826         6.96958
     2014.97056        -6.44612         7.03551
     2014.97330        -7.64498         7.34450
     2014.97604        -8.86284         7.01612
     2014.97878         3.75330         7.10662
     2014.98151         7.63344         7.10274
     2014.98425        -6.86642         6.99285
     2014.98699         0.64172         6.98768
     2014.98973        -2.05814         7.05103
     2014.99247       -16.61600         7.19195
     2014.99520       -21.77986         6.93080
     2014.99794       -15.78672         7.04198
     2015.00068       -10.33658         6.97475
     2015.00342       -10.67144         7.08593
     2015.00616        -2.54730         6.95536
     2015.00889        -3.89816         7.01742
     2015.01163         2.82998         7.22039
     2015.01437        -6.57688         7.13377
     2015.01711        -6.82874         7.09240
     2015.01984        -0.32060         7.02776
     2015.02258         5.26754         7.20229
     2015.02532        -3.79532         7.13894
     2015.02806        -1.86818         7.07559
     2015.03080        -4.80404         7.35355
     2015.03353        -3.78590         7.09886
     2015.03627        -2.33376         7.04715
     2015.03901        -0.71362         7.13635
     2015.04175         6.10952         7.16480
     2015.04449        -1.85834         7.30701
     2015.04722        -3.54320         7.33545
     2015.04996         6.18894         7.46990
     2015.05270        -4.40492         7.00449
     2015.05544        -1.80078         7.01483
     2015.05817        -0.36764         7.04198
     2015.06091        -0.28650         7.07559
     2015.06365         5.70964         7.26693
     2015.06639        -2.08322         7.03939
     2015.06913        -1.73108         6.98897
     2015.07186        -7.06594         7.02000
     2015.07460        -2.61780         7.03422
     2015.07734        -7.62466         6.98251
     2015.08008        -8.26752         7.00061
     2015.08282        -3.47439         7.01095
     2015.08555        -4.62025         7.00837
     2015.08829         3.77389         7.18936
     2015.09103         0.91603         7.02776
     2015.09377        -2.91583         7.02646
     2015.09650         2.48031         7.20100
     2015.09924         9.80145         7.25529
     2015.10152         4.55974         9.14022
     2015.10472         6.06573         7.14928
     2015.10746         5.57687         7.41690
     2015.11019       -12.23299         7.54876
     2015.11293        -1.83085         7.10403
     2015.11567        -8.31971         7.07947
     2015.11841        -7.37957         7.02129
     2015.12115         4.78457         7.16480
     2015.12388        -9.05329         6.96182
     2015.12662        -8.50415         6.97992
     2015.12936        -8.93701         6.98380
     2015.13210        -0.77987         7.54747
     2015.13483        -4.16873         7.19065
     2015.13757         4.71341         7.12213
     2015.14031         0.92355         6.95536
     2015.14305         0.37569         6.94631
     2015.14579        -2.08217         7.02646
     2015.14852         0.16697         7.06396
     2015.15126         0.61611         7.10016
     2015.15400        -0.77075         7.39750
     2015.15634        -0.03736         8.32575
     2015.15948         4.55453         7.01742
     2015.16221        -0.59233         7.21263
     2015.16495         0.94981         7.18419
     2015.16769         1.64395         7.27986
     2015.17043        -4.22791         7.37423
     2015.17316        -0.23077         7.29020
     2015.17590        -0.93363         7.41948
     2015.17864        -7.60649         7.20875
     2015.18138         2.42565         6.93985
     2015.18412        -0.85421         6.98122
     2015.18685         8.71093         7.04715
     2015.18959         2.82907         7.10403
     2015.19233         8.03021         7.34450
     2015.19507         1.29635         7.21651
     2015.19780         3.82449         7.05232
     2015.20054        -8.90137         6.97605
     2015.20328         6.87177         6.98122
     2015.20602        -5.34509         7.17902
     2015.20876         1.88805         7.26822
     2015.21149        -3.80181         7.10662
     2015.21423        -4.02667         7.27469
     2015.21697         3.83947         7.14928
     2015.21971        -2.06039         7.05491
     2015.22245         2.88475         7.08852
     2015.22518        11.10289         7.02517
     2015.22792        -0.77597         6.88425
     2015.23066        -4.65783         6.95665
     2015.23340        -0.57069         7.17385
     2015.23613        19.78545         7.25529
     2015.23887        -4.18141         7.39363
     2015.24161         0.83473         7.22685
     2015.24435        -4.55613         7.37553
     2015.24709         1.29401         7.14153
     2015.24982         0.31915         6.99285
     2015.25256        -0.08271         7.00190
     2015.25530         1.49543         6.90623
     2015.25804        -3.21343         6.89848
     2015.26078         1.02471         6.94631
     2015.26351         1.32585         6.92692
     2015.26625         1.42299         6.99156
     2015.26899        -0.21787         6.90235
     2015.27173         5.56027         7.11825
     2015.27446         8.12541         7.29666
     2015.27720         2.33855         6.99932
     2015.27994        -2.13631         7.03551
     2015.28268         9.63283         7.01612
     2015.28542        -5.30703         7.11050
     2015.28815        -6.26589         7.13118
     2015.29089         0.02125         6.97734
     2015.29363         1.29739         6.99027
     2015.29637        -2.97347         6.98768
     2015.29911         1.46767         6.94114
     2015.30184        -1.82419         7.16609
     2015.30458         7.38395         7.00837
     2015.30732         3.52609         6.87391
     2015.31006        -5.62177         6.95277
     2015.31279         3.35537         6.80798
     2015.31553        -1.46349         6.82608
     2015.31827        -9.68535         6.93726
     2015.32101        -6.59021         7.02388
     2015.32375         5.27393         6.92433
     2015.32648        -4.87093         6.95148
     2015.32922        -5.29079         6.90106
     2015.33196         5.53035         6.79376
     2015.33470        -2.52151         6.83125
     2015.33744        -0.43537         7.01612
     2015.34017         5.88377         6.91399
     2015.34291        -3.03409         6.84159
     2015.34565        -4.83895         6.76402
     2015.34839        -2.71481         6.78471
     2015.35112         0.76833         6.81315
     2015.35386         2.61247         6.78212
     2015.35660        -3.85339         6.77437
     2015.35934        -0.90725         6.91011
     2015.36208        -4.66811         6.90106
     2015.36481        -0.36597         6.83125
     2015.36755         1.81817         6.72136
     2015.37029         5.72731         6.76919
     2015.37303        -0.43955         6.72782
     2015.37577        -6.59041         6.96182
     2015.37850        -1.32927         7.01483
     2015.38124        -6.47213         6.87003
     2015.38398        -2.31199         6.74334
     2015.38672         5.35915         6.78729
     2015.38945        -1.18971         6.89848
     2015.39219        -5.00057         6.92433
     2015.39493         7.93057         7.03551
     2015.39767        -9.01629         6.80798
     2015.40041        -7.47115         6.76790
     2015.40314         3.38599         7.04715
     2015.40588        -2.90387         6.92692
     2015.40862         6.59527         7.17902
     2015.41136         5.95441         6.89330
     2015.41410         2.17155         6.95924
     2015.41683         2.48869         6.83642
     2015.41957         0.02983         6.81444
     2015.42231        -2.39103         7.09498
     2015.42505        -1.08689         7.05103
     2015.42778        -5.70575         6.80539
     2015.43052         2.58739         6.88167
     2015.43326        -0.56347         6.84676
     2015.43600        -8.98233         7.25788
     2015.43874         3.15981         6.87003
     2015.44147        -1.07905         7.12601
     2015.44421         4.60209         6.89977
     2015.44695         1.37723         6.85969
     2015.44969        -5.11864         6.83771
     2015.45243         0.56650         6.97863
     2015.45516        -0.03836         6.90106
     2015.45796         4.51589         7.17385
     2015.46064         4.41892         7.11955
     2015.46338         6.34906         7.11696
     2015.46611         1.06020         6.90365
     2015.46885         6.69734         6.89072
     2015.47159         4.96048         6.97217
     2015.47433        -5.03338         7.20875
     2015.47707       -11.32224         7.11696
     2015.47980         0.44790         7.05620
     2015.48254         9.21904         7.14282
     2015.48528         3.48918         6.92692
     2015.48802        -0.43368         6.85969
     2015.49076         5.39846         7.03422
     2015.49349         2.85460         7.11308
     2015.49623         4.03774         7.03551
     2015.49897        -2.89012         7.17126
     2015.50171         9.03702         6.88813
     2015.50444         9.33216         6.86357
     2015.50718         9.53630         6.93467
     2015.50992         8.09644         7.19582
     2015.51266         5.22958         7.00319
     2015.51540        -1.06428         7.21392
     2015.51813        13.07186         7.14928
     2015.52087        12.90700         6.94760
     2015.52361         5.10714         7.03939
     2015.52635         1.12528         7.05232
     2015.52908         8.63142         6.99285
     2015.53182         7.29156         6.91528
     2015.53456        17.69970         6.88038
     2015.53730        29.37084         7.01354
     2015.54004        10.70098         7.13765
     2015.54277         6.58812         7.09111
     2015.54551        13.93626         7.01095
     2015.54825        10.70040         7.09757
     2015.55099        14.10154         7.22297
     2015.55378        21.91579         7.24883
     2015.55646        16.68282         7.13635
     2015.55920        15.55596         7.08852
     2015.56194        19.26910         7.04715
     2015.56468        21.76024         7.16738
     2015.56741        16.48138         7.17643
     2015.57015         6.12252         7.25400
     2015.57289         5.40666         7.29408
     2015.57563        13.69180         6.99802
     2015.57837         5.52894         6.98639
     2015.58110        11.24508         7.10791
     2015.58384        10.14722         7.14540
     2015.58658         8.28936         7.17902
     2015.58932         4.15850         7.26434
     2015.59206        10.78764         7.16609
     2015.59479        13.87578         7.04327
     2015.59753        14.87292         7.13248
     2015.60027        14.83806         7.60953
     2015.60301         9.97920         7.32640
     2015.60574        13.05534         7.24624
     2015.60848         5.92948         7.24107
     2015.61122        13.54862         6.98639
     2015.61396         8.83676         7.11696
     2015.61670        12.19790         6.94502
     2015.61943        16.84704         6.99156
     2015.62217        11.80918         6.92563
     2015.62491        11.57932         6.87391
     2015.62765        14.91246         6.86357
     2015.63039        12.77760         6.91270
     2015.63312        18.35174         7.23590
     2015.63512        32.77149        10.62050
     2015.64512        31.32525        15.99086
     2015.64681         5.79044         7.17772
     2015.64955         9.68958         6.85581
     2015.65229         2.80672         6.89718
     2015.65503        27.68186         6.89201
     2015.65776        20.07600         7.27856
     2015.66050        22.26814         7.07171
     2015.66324        22.86528         6.97605
     2015.66598        11.95742         7.29279
     2015.66872        18.09556         7.29020
     2015.67145        17.49070         6.90365
     2015.67419         8.47584         6.80022
     2015.67687        15.56487         6.99156
     2015.68240         9.87526         6.84159
     2015.68514         4.85840         6.87779
     2015.68788        10.86354         6.89330
     2015.69062        13.68568         6.89072
     2015.69336         9.62082         7.12084
     2015.69609        13.70496         6.84676
     2015.69883        13.93710         7.06266
     2015.70157        25.66324         6.92821
     2015.70431        19.62138         6.90753
     2015.70705        10.11052         6.82608
     2015.70978        14.82166         6.88296
     2015.71252        10.95380         6.80539
     2015.71526         8.31294         6.84935
     2015.71800         1.81908         6.93726
     2015.72073        28.33622         6.93726
     2015.72307        13.19761         8.21456
     2015.72992        24.26946        12.80795
     2015.73169         9.78678         6.88425
     2015.73363        -8.88358        10.52354
     2015.73716         9.95606         6.82220
     2015.73990         9.26920         6.98380
     2015.74264        13.91034         6.97087
     2015.74538        13.41448         7.09498
     2015.74811         7.80662         7.12730
     2015.75085         3.25576         6.89072
     2015.75359        14.14390         7.07559
     2015.75633        11.06104         6.82349
     2015.75906        10.66618         6.83513
     2015.76180         8.67932         6.94114
     2015.76454        14.81546         6.98639
     2015.76728         5.32060         7.05620
     2015.77002        15.94674         6.97992
     2015.77275         4.07488         7.00837
     2015.77549        14.31402         7.73234
     2015.77823         9.41416         6.93985
     2015.78097        21.19530         6.91011
     2015.78371        11.79144         6.85840
     2015.78644        11.36458         6.85581
     2015.78918         6.67372         6.87003
     2015.79198         8.20696         7.10016
     2015.79466        12.46500         6.96053
     2015.79739        -1.71786         6.99544
     2015.80013        11.14428         7.19453
     2015.80287         3.87142         6.82996
     2015.80561        -1.59644         6.96829
     2015.80835         4.31670         6.94243
     2015.81108         8.41484         7.15445
     2015.81382         6.32497         6.95795
     2015.81656        12.93311         6.98897
     2015.81930         8.81825         6.91270
     2015.82203         6.98839         6.97475
     2015.82477        21.01553         7.13635
     2015.82751        15.53767         7.17643
     2015.82996        10.68128         9.08463
     2015.83572         9.22109         6.94890
     2015.83846         5.18523         7.26693
     2015.84120         5.58037         7.04844
     2015.84394        14.73151         7.10274
     2015.84668         7.47365         7.00061
     2015.84941         2.15279         7.09886
     2015.85215         6.83193         7.12989
     2015.85489         9.81707         7.01871
     2015.85763         4.19421         7.02259
     2015.86036         9.14235         7.12213
     2015.86316         7.23060         7.11955
     2015.86584         8.20263         7.18290
     2015.86858        11.37577         7.06654
     2015.87132        14.78691         7.42595
     2015.87405         4.12905         7.03810
     2015.87679         8.82419         7.16480
     2015.87953        19.25833         7.27986
     2015.88227         9.50047         7.09111
     2015.88501       -11.19439         7.01354
     2015.88740         6.65411         8.23784
     2015.89322        10.57003         7.09369
     2015.89596        11.51117         6.99285
     2015.89869        -3.42769         7.00837
     2015.90143        -4.01455         7.13765
     2015.90417        -6.18441         6.93209
     2015.90691        -3.21727         6.92433
     2015.90965        -0.90113         6.91011
     2015.91238        -1.58299         7.03422
     2015.91512        -5.28385         7.00319
     2015.91786         4.81829         7.04198
     2015.92060        -0.35457         7.17643
     2015.92334         3.15357         7.11050
     2015.92607        -4.99329         7.10403
     2015.92881       -13.04315         7.28115
     2015.93155         4.53299         7.38328
     2015.93429        11.72513         7.94824
     2015.93702         3.30827         7.60048
     2015.93976         6.89341         7.41172
     2015.94250         3.22855         7.29925
     2015.94524        -1.73031         7.27598
     2015.94798        14.36383         7.26046
     2015.95071        19.30597         6.97346
     2015.95345        -2.46789         6.94114
     2015.95619        10.29225         7.07171
     2015.95893        -9.62761         7.30959
     2015.96988        -6.66905         7.17514
     2015.97262        12.63209         6.98122
     2015.97535        15.54823         7.07042
     2015.97809         5.69937         7.01224
     2015.98083        -1.50349         6.98380
     2015.98357        -9.25835         7.00449
     2015.98631        -9.01221         7.01483
     2015.98904       -11.78307         6.99544
     2015.99178       -12.99993         7.04974
     2015.99452       -18.05079         7.40785
     2015.99726       -11.51765         6.96958
     2016.00000        -4.59051         7.02388
     2016.00547       -12.57423         7.03939
     2016.00821       -14.48909         7.06525
     2016.01095       -15.76095         7.04586
     2016.01368       -17.25581         7.05749
     2016.01642       -12.87667         7.17385
     2016.01916        -2.32953         7.24107
     2016.02190        -5.66639         7.14670
     2016.02464        -2.97325         7.18419
     2016.02737        -5.27711         7.13377
     2016.03011       -14.71497         7.01354
     2016.03285        -5.20383         7.08723
     2016.03559        -8.11269         6.98897
     2016.03833        -6.62355         7.18548
     2016.04106        -6.31241         7.01871
     2016.04386         7.03384         7.18807
     2016.04654         2.27987         6.96053
     2016.04928        -3.82499         6.93209
     2016.05201        -2.84785         6.99285
     2016.05481       -11.64360         7.13248
     2016.05749         8.69643         6.95407
     2016.06029        -4.33532         7.07301
     2016.06297        -1.55729         6.88425
     2016.06570        -4.45215         7.00966
     2016.06844         0.53399         7.10533
     2016.07118        -2.45987         7.36777
     2016.07392        -7.00473         7.14799
     2016.07666        -2.42959         7.26046
     2016.07939         5.64855         7.12730
     2016.08213        -2.14631         7.17772
     2016.08487         0.43483         6.99544
     2016.08761        -8.72303         6.99673
     2016.09034        -7.11889         7.01095
     2016.09308         3.36225         7.07559
     2016.09542       -12.34436         8.28567
     2016.10483       -12.95969        10.69548
     2016.10677       -10.26705         7.00061
     2016.10951        -8.67191         6.92045
     2016.11225       -10.33077         6.99027
     2016.11498        -8.51363         7.08206
     2016.11772        -3.11949         7.08076
     2016.12046        -4.06935         7.01612
     2016.12320         9.00679         7.15187
     2016.12594         3.78993         7.08076
     2016.12867         4.46307         6.93726
     2016.13141         9.57921         7.05232
     2016.13415         3.36735         7.05879
     2016.13689        -5.24051         6.96182
     2016.13963        -5.70237         6.90623
     2016.14236        -9.40623         6.95924
     2016.14516       -12.52399         7.08723
     2016.14784       -11.28595         6.97087
     2016.15058        -7.08481         6.94502
     2016.15331        -4.38467         7.12343
     2016.15605       -10.72253         7.01095
     2016.15879        -7.35439         7.17385
     2016.16153        -6.03825         7.12860
     2016.16427        -1.49311         7.22297
     2016.16700        -0.94697         7.25529
     2016.16974        -9.59883         7.12213
     2016.17248        -4.38669         7.13248
     2016.17522         0.43945         7.09628
     2016.17796         6.40059         7.19712
     2016.18069         5.93172         7.12601
     2016.18343        -4.26214         7.25012
     2016.18617        -4.44500         6.88038
     2016.18891        -2.57086         6.96829
     2016.19164         3.77228         6.88425
     2016.19438         7.11242         6.90494
     2016.19712        -0.38144         6.87650
     2016.19986         1.27270         7.03164
     2016.20260       -10.58916         6.98251
     2016.20533        -4.54202         7.15833
     2016.20807        -8.50288         7.08981
     2016.21081       -11.23574         7.04327
     2016.21355        -4.54160         6.96312
     2016.21629        -5.52846         6.84030
     2016.21902        -0.95432         6.90882
     2016.22176        11.75282         6.84547
     2016.22450         0.16496         6.87003
     2016.22724         4.65710         6.96312
     2016.22997         3.23224         6.83642
     2016.23271        -7.72662         6.82220
     2016.23545        -7.09248         6.90753
     2016.23819        -1.06734         6.77437
     2016.24093        -8.04920         6.89589
     2016.24366        -4.86406         6.78729
     2016.24640        -3.69492         6.83513
     2016.24914        -6.04278         6.83901
     2016.25188        -8.77764         6.88425
     2016.25462        -8.56250         6.90623
     2016.25735         2.77064         7.05232
     2016.26009       -12.04022         6.94372
     2016.26283       -15.78608         6.88038
     2016.26557        -3.45594         6.89848
     2016.26830        -5.27980         6.89589
     2016.27104        -6.77366         6.78600
     2016.27378        -0.54652         6.86874
     2016.27652        -7.31138         6.90106
     2016.27926         1.91276         6.99285
     2016.28142        -0.09917         9.04714
     2016.28815       -19.70053         9.71682
     2016.29021       -11.45368         6.91916
     2016.29295        -7.61454         6.92175
     2016.29568        -5.89940         6.85711
     2016.29842        -0.74826         7.06266
     2016.30116         0.99888         7.10921
     2016.30390        -8.99298         6.98380
     2016.30663         2.39216         6.95536
     2016.30937        -0.75370         6.87908
     2016.31211         8.70044         6.94760
     2016.31485         3.88558         6.92045
     2016.31759        -0.00028         6.85193
     2016.32032        -9.13814         6.93338
     2016.32306       -10.50500         6.88425
     2016.32580        -3.06986         6.88167
     2016.32854        -5.43872         6.89330
     2016.33128       -13.03958         6.89072
     2016.33401        -6.42244         6.97346
     2016.33675        -9.86930         6.93338
     2016.33949        -6.59216         7.43370
     2016.34223        -6.69702         6.93985
     2016.34496        -4.31788         7.04456
     2016.34770         1.60626         7.01612
     2016.35044        -0.29660         7.40914
     2016.35324         9.39065         7.00578
     2016.35592        -8.24532         6.86486
     2016.35865       -11.10618         6.86357
     2016.36139        -8.34704         7.06396
     2016.36413        -1.57690         7.03293
     2016.36687        -5.56576         6.87908
     2016.36961         5.52738         6.88167
     2016.37234         9.37852         6.84030
     2016.37508        -8.87834         6.82220
     2016.37782       -12.24920         7.01742
     2016.38056         4.41394         7.06137
     2016.38329         3.11308         6.81832
     2016.38603         1.08422         6.82479
     2016.38877        11.53836         6.82737
     2016.39151         3.61750         6.82220
     2016.39413        -7.55358        10.54810
     2016.40200        14.87920         8.57268
     2016.41438       -20.29556        13.53322
     2016.41615         3.36076         7.08852
     2016.41889        -2.47910         7.05361
     2016.42162        -4.28996         6.94890
     2016.42436        -5.86482         6.85711
     2016.42710         3.24132         6.86616
     2016.42984        -1.21354         6.82866
     2016.43258        -1.78240         6.85452
     2016.43531        15.44174         7.11825
     2016.43805        12.69388         6.93338
     2016.44079         3.10602         6.95019
     2016.44353        -0.97684         6.87391
     2016.44626        -9.51070         6.81832
     2016.44900        12.26744         7.04069
     2016.45174         1.87058         7.01742
     2016.45448         2.19872         6.92304
     2016.45722         1.22686         6.82866
     2016.45995         3.11500         6.83125
     2016.46269         5.06114         6.89201
     2016.46543        -2.16272         6.80539
     2016.46822        -0.55748         7.00966
     2016.47096         7.58966         7.10274
     2016.47370         2.04280         7.03293
     2016.47644        22.06294         7.22685
     2016.47918         5.88708         7.29537
     2016.48191        -0.16478         7.07171
     2016.48465         0.21236         6.98251
     2016.48739         2.42050         8.16673
     2016.49013         2.93964         7.01095
     2016.49287         7.76778         7.02646
     2016.49560        10.43392         6.99932
     2016.49828         4.68496         6.87779
     2016.50102        -1.94090         7.08464
     2016.50376        13.47624         7.25400
     2016.50650         4.44938         7.15316
     2016.50924        -2.57048         6.91270
     2016.51197       -10.50934         7.07042
     2016.51477        -0.60710         7.00319
     2016.51751         4.00304         7.26693
     2016.52019         0.63808         8.29343
     2016.52298         9.22432         7.34321
     2016.52572         9.39546         6.99932
     2016.52846         3.19660         7.00190
     2016.53120         0.83074         6.93726
     2016.53393         1.94888         7.01612
     2016.53667        19.69902         7.15187
     2016.53941        11.23116         6.95407
     2016.54215         5.06630         6.92821
     2016.54488         0.90644         6.97346
     2016.54762         4.13258         7.08981
     2016.55036         2.59972         7.23073
     2016.55310         3.88886         7.08335
     2016.55584        12.35500         7.73364
     2016.55852         5.87803         7.41302
     2016.56131        -0.69972         7.02517
     2016.56405         9.19842         7.13118
     2016.56679        17.49756         7.65995
     2016.56953         0.29770         7.36906
     2016.57226        13.77584         6.97863
     2016.57500        10.31398         7.40526
     2016.57774        -1.91588         7.06654
     2016.58048         8.02926         7.11567
     2016.58321         6.18840         7.05491
     2016.58595        17.94554         7.10403
     2016.58869         0.70268         6.98509
     2016.59137         3.54671         6.80798
     2016.59411         8.59785         7.04198
     2016.59685        14.18299         6.98639
     2016.59958        10.32113         6.88038
     2016.60232        20.12527         6.91270
     2016.60506         3.34241         6.87003
     2016.60780         6.52155         6.84288
     2016.61054         5.28969         6.86357
     2016.61327         2.12383         6.85193
     2016.61601         7.75597         6.88943
     2016.61875         3.28711         6.82349
     2016.62149         9.74725         7.02129
     2016.62423         8.48239         6.95407
     2016.62696        11.40053         6.99285
     2016.62970         4.27867         6.88038
     2016.63244         4.62681         7.05232
     2016.63518         7.66495         6.82866
     2016.63791        15.56609         6.84806
     2016.64060        16.79613         7.11567
     2016.64339         2.99737         7.10274
     2016.64613         8.31451         6.86098
     2016.64887         3.63365         7.79181
     2016.65160         6.36979         6.96570
     2016.65434        14.79793         6.94631
     2016.65708        -6.03493         7.05749
     2016.65982         0.31421         7.01483
     2016.66256         1.89635         6.99027
     2016.66529        10.83049         6.96700
     2016.66803        19.87563         6.98768
     2016.67077        26.20077         7.13894
     2016.67351        14.90091         6.84676
     2016.67624         8.87605         6.82349
     2016.67898         9.54719         7.12084
     2016.68172        12.39533         6.95019
     2016.68446        13.54147         7.11438
     2016.68720        22.44661         7.31476
     2016.68993         9.43375         7.10403
     2016.69267        14.82789         6.84547
     2016.69541         8.45703         7.11567
     2016.69815         9.69317         6.82996
     2016.70089        10.47231         6.79246
     2016.70362        10.84545         6.97475
     2016.70636         8.07459         7.19065
     2016.70910         6.41373         7.11955
     2016.71184        10.29287         6.99156
     2016.71457        22.61201         7.23332
     2016.71731        31.33615         6.93726
     2016.72005        15.76229         6.78083
     2016.72279         7.05843         6.78471
     2016.72553         9.61857         7.01224
     2016.72718        15.85168        15.25913
     2016.73921         1.59727         7.37165
     2016.74195        12.16341         6.89330
     2016.74469         3.84755         6.91140
     2016.74743        17.14269         6.91270
     2016.75017        12.76083         6.84935
     2016.75290        10.08397         6.80798
     2016.75564        11.68011         7.04844
     2016.75838        22.44825         6.77049
     2016.76112         8.31539         6.87262
     2016.76386         5.79053         6.80927
     2016.76659         5.85867         6.91270
     2016.76933         7.56481         6.82608
     2016.77207         8.13795         7.00319
     2016.77481         6.26309         7.01095
     2016.77754         3.14823         6.77954
     2016.78028         4.25537         6.78600
     2016.78302        11.56451         6.88943
     2016.78576        -1.68035         7.06137
     2016.78850        13.64179         6.87262
     2016.79123        12.97093         6.92821
     2016.79397        13.74007         7.03681
     2016.79671        10.38421         6.86098
     2016.79945        -4.04965         6.81703
     2016.80219         5.83649         6.91916
     2016.80492         7.41263         6.98897
     2016.80766         3.51977         6.88167
     2016.81040         2.93091         6.90623
     2016.81314         5.86405         6.87003
     2016.81587         3.76519         6.92304
     2016.81861        -5.04767         6.84935
     2016.82135        -2.09053         6.85452
     2016.82409        -1.89539         7.65219
     2016.82683         3.17075         6.88425
     2016.82956         5.02689         6.76919
     2016.83230         5.32003         6.95924
     2016.83504        -3.01883         6.81832
     2016.83778        -9.48369         6.93080
     2016.84052        -0.58655         6.89201
     2016.84325         1.74159         6.79634
     2016.84599        -6.72327         7.00190
     2016.84873         6.87787         6.97346
     2016.85147         5.59201         6.91011
     2016.85420        -2.36985         6.91528
     2016.85694        -0.63571         6.83771
     2016.85968         0.40343         7.03810
     2016.86242        -2.13843         6.87521
     2016.86516         0.10371         7.09111
     2016.86789         5.31085         6.89589
     2016.87063         3.28699         6.87262
     2016.87337        -0.14287         7.09498
     2016.87611        11.49327         6.96570
     2016.87885         0.36041         6.78729
     2016.88158        -6.20945         6.89201
     2016.88432         7.04069         6.84806
     2016.88706         7.25983         6.80022
     2016.88980         8.94297         6.86357
     2016.89253         1.23111         6.86228
     2016.89527         8.10225         7.46732
     2016.89801         5.05439         6.81574
     2016.90075        -0.10147         6.87779
     2016.90349         7.23867         7.04974
     2016.90622        14.82181         6.96829
     2016.90896        10.33595         6.88296
     2016.91170         0.90209         6.81574
     2016.91444         1.66422         6.93209
     2016.91718         4.47236         7.24107
     2016.91991        -9.36150         7.04844
     2016.92265        14.49764         6.88425
     2016.92539         0.48078         6.91658
     2016.92813         3.85492         6.79764
     2016.93086        -0.53494         6.83254
     2016.93360         0.14220         7.55523
     2016.93634        -2.10766         6.91011
     2016.94182       -22.37238         6.92950
     2016.94455         2.62576         6.97217
     2016.94729        10.22890         7.08723
     2016.95003        -5.81896         7.09628
     2016.95277        -0.23482         7.05361
     2016.95551       -18.98368         6.80927
     2016.95824       -16.76754         6.82866
     2016.96098       -16.66840         6.88555
     2016.96372       -24.66626         6.86228
     2016.96646        -7.33312         7.09498
     2016.96919        10.44602         8.46537
     2016.97193        -7.96084         6.88684
     2016.97467         3.24930         6.89072
     2016.97741         7.87344         6.95019
     2016.98015         3.59158         6.90235
     2016.98288         0.32872         6.82996
     2016.98562        -1.40414         6.88684
     2016.98836         3.11400         7.03681
     2016.99110       -13.95286         7.07818
     2016.99384        -1.14472         6.94372
     2016.99657         4.85942         6.91399
     2016.99931         2.52656         6.80798
     2017.00088         1.61452        31.09744
     2017.00479        -2.25116         6.82866
     2017.00695        -5.53309         9.31605
     2017.01026        -9.13688         6.82220
     2017.01300       -11.34674         6.81186
     2017.01574        -7.77560         6.84418
     2017.01848         4.22854         7.07818
     2017.02121        -1.48032         6.85711
     2017.02395       -12.11518         6.85840
     2017.02669        -1.11604         6.93209
     2017.02943       -15.49390         6.85840
     2017.03216       -26.24976         6.85064
     2017.03490       -27.70562         6.89460
     2017.03764       -27.90448         6.94631
     2017.04038       -26.12934         7.29279
     2017.04312       -25.57620         6.90494
     2017.04585       -17.75306         7.33416
     2017.05133        -0.46078         7.03034
     2017.05281        16.56901        27.69216
     2017.06616        -3.27194        16.60754
     2017.06776        -2.30994         6.85064
     2017.07049        -1.36680         6.88296
     2017.07232       -13.35637        12.84802
     2017.08145       -12.10624         7.20229
     2017.08418       -14.84610         6.87650
     2017.08692       -14.95496         6.87391
     2017.08966       -11.70182         6.85193
     2017.09240       -12.33268         6.85969
     2017.09514       -30.01754         6.96700
     2017.09787       -23.10340         7.15187
     2017.10061       -10.96326         6.92433
     2017.10335        -6.32712         6.94890
     2017.10609       -16.07198         6.96570
     2017.10882        -1.42684         7.24883
     2017.11156         1.48030         7.07559
     2017.11430       -10.11856         6.83513
     2017.11704       -16.95842         7.10921
     2017.11978       -14.81728         6.78600
     2017.12251       -10.31114         6.90235
     2017.12531        -1.05289         7.13635
     2017.12805        -3.76775         7.01483
     2017.13084        -5.72551         7.14670
     2017.13347        -5.65158         6.82996
     2017.13620        -4.46244         6.89330
     2017.13894        -7.35330         6.92045
     2017.14168        -9.83516         6.84288
     2017.14442        -7.41902         6.85452
     2017.14715       -10.41088         6.84676
     2017.14989       -11.32174         6.89201
     2017.15263        -4.31260         7.79828
     2017.15537        -2.26346         6.87521
     2017.15811        -5.43132         6.99932
     2017.16084        -1.64918         6.86616
     2017.16358        -2.86004         6.87650
     2017.16632       -11.50890         7.02259
     2017.16820       -15.43337        14.31020
     2017.17727        -6.36334         7.18548
     2017.18001        -1.10920         6.90106
     2017.18275        -2.14106         7.00449
     2017.18548        -8.32592         6.90882
     2017.18822        -2.70378         7.31476
     2017.19096       -17.59964         6.99544
     2017.19370        -7.99750         6.95536
     2017.19644       -13.49536         6.89589
     2017.19917        -8.16622         7.00707
     2017.20191       -12.27308         6.92692
     2017.20465        -2.06594         7.07171
     2017.20739       -13.15980         6.88555
     2017.21013        -9.11666         6.96829
     2017.21286        -5.25352         6.96700
     2017.21560        -4.24838         6.88038
     2017.21834        -5.31124         6.92175
     2017.22108         1.63890         6.84288
     2017.22381        -8.49896         7.04456
     2017.22655       -10.49382         7.09628
     2017.22929        -7.13968         6.94372
     2017.23203       -11.33154         6.84030
     2017.23477        -4.23340         6.84418
     2017.23750        -4.49326         6.84676
     2017.24024        -7.15612         7.02646
     2017.24298        -6.93598         6.95795
     2017.24572       -13.79584         7.04844
     2017.24846       -12.40170         6.89072
     2017.25119        -6.63956         6.85452
     2017.25393       -10.75342         6.87650
     2017.25667       -13.61728         6.92304
     2017.25941         1.39386         6.92563
     2017.26186        -2.46954         7.64314
     2017.26574        -1.11326        11.43627
     2017.26762        -3.28072         6.85711
     2017.27036        -8.48358         6.97475
     2017.27310        -2.98944         6.97475
     2017.27566       -13.07263         7.34579
     2017.29317       -13.95475        12.37873
     2017.29500        -8.01533         6.99285
     2017.29871       -13.90737        13.22553
     2017.30047        -9.43605         6.92563
     2017.30219        -1.63783        16.55583
     2017.31143        -9.99049         6.85064
     2017.31416       -14.64635         6.80410
     2017.31690        -4.00021         6.91011
     2017.31964         2.31293         7.10533
     2017.32238        -9.96893         6.98639
     2017.32512       -16.69079         6.87391
     2017.32785        -7.89765         6.96053
     2017.33059       -24.78851         6.86874
     2017.33333       -12.69137         6.84806
     2017.33607       -15.61323         6.82737
     2017.33880        -1.74509         6.99414
     2017.34154        -0.47195         7.39363
     2017.34428        -8.30881         6.78859
     2017.34702        -9.92567         6.80798
     2017.34976       -13.97453         6.84806
     2017.35249       -17.19139         6.83254
     2017.35523       -16.51025         6.90365
     2017.35797        -6.36111         6.98122
     2017.36071        -4.00797         6.85969
     2017.36344        -1.82483         6.89330
     2017.36618       -17.13469         6.83384
     2017.36892       -12.04055         6.81186
     2017.37166        -6.52741         6.88167
     2017.37440        -2.82627         6.88425
     2017.37713       -11.83913         6.97992
     2017.37885        -4.93692        15.15829
     2017.39630        -3.22215         6.83642
     2017.39904        -7.85501         6.86228
     2017.40177        -8.91587         6.83642
     2017.40451        -9.78973         7.05491
     2017.40725        -8.27559         6.93726
     2017.40999        -3.80045         7.06784
     2017.41273        -5.83631         6.92045
     2017.41546         6.98083         6.89201
     2017.41820         0.88197         7.04974
     2017.42094        -3.00289         6.88296
     2017.42368        -5.00375         6.95019
     2017.42642        -9.66161         6.82220
     2017.42915        -6.52047         6.85064
     2017.43189         0.82867         6.99156
     2017.43463        -3.12719         7.16997
     2017.43737        -6.87405         6.98509
     2017.44010        -0.22791         6.87650
     2017.44284        -0.24677         6.84030
     2017.44558        -2.50463         6.97605
     2017.44826         1.62640         7.09886
     2017.45191        -1.69174        12.04131
     2017.45379         4.23079         7.09498
     2017.45556        -0.03289        14.37743
     2017.46475        -2.29165         7.26046
     2017.46708        35.18874         8.75496
     2017.47022        -5.44437         7.20358
     2017.47296       -10.74323         7.16609
     2017.47473        -1.12191        12.71357
     2017.48391         1.57933         7.11308
     2017.48665        -9.39853         7.08593
     2017.48910        -2.64793         7.62375
     2017.49303        -4.30256        12.61532
     2017.49486         0.62689         6.91270
     2017.49760        -2.22297         6.97734
     2017.50034        -0.26283         6.90753
     2017.50308        -2.61169         6.88038
     2017.50581        -0.84255         6.87521
     2017.50855        -0.34541         7.15704
     2017.51129        -0.78627         7.06654
     2017.51403        -3.25913         7.10403
     2017.51676        -6.90099         6.99156
     2017.51950       -12.66585         7.11179
     2017.52224         4.27429         6.95019
     2017.52498         1.17143         6.90882
     2017.52772        -5.58643         7.05620
     2017.53045         1.21671         6.92563
     2017.53319        -2.48215         6.84806
     2017.53593         9.72599         7.02259
     2017.53867         2.06013         7.00190
     2017.54141         1.14827         6.81056
     2017.54414        -0.50259         6.90753
     2017.54688         3.16855         6.98768
     2017.54962        24.45469         7.01095
     2017.55236        -4.92417         6.96312
     2017.55509        -0.65603         6.95019
     2017.55783        -2.70189         6.86874
     2017.56057        -3.03175         6.85193
     2017.56331         0.69039         6.83254
     2017.56605         2.80353         7.09369
     2017.56878         4.15367         6.93080
     2017.57152         0.29181         6.93080
     2017.57426        -1.64605         6.86098
     2017.57700        -0.13991         6.82996
     2017.57974         2.79623         6.89072
     2017.58247         3.42637         6.84159
     2017.58521        -2.45949         6.84806
     2017.58795        -4.32735         6.91140
     2017.59069         0.33679         7.04974
     2017.59342         2.19593         6.82091
     2017.59616         2.88907         6.88555
     2017.59890         2.91721         6.93597
     2017.60164        -1.27365         6.86874
     2017.60438        -3.32851         6.88296
     2017.60711        -0.09737         6.97863
     2017.60985        -0.13223         7.05103
     2017.61259        -4.77409         7.08464
     2017.61533        10.85605         7.28503
     2017.61807         5.80519         6.96570
     2017.62080         3.13933         6.88943
     2017.62354        -0.31753         6.98897
     2017.62628         6.21661         7.35743
     2017.62902         7.19075         7.31993
     2017.63175         8.12389         6.93080
     2017.63449        -5.07097         7.09628
     2017.63723         0.85817         6.89330
     2017.63997         8.42931         7.00449
     2017.64271         9.11745         6.88296
     2017.64544        -0.79742         7.07559
     2017.64818        -4.20428         6.95148
     2017.65092         3.27886         6.86357
     2017.65366         2.46600         6.83901
     2017.65639        10.60214         7.06266
     2017.65913         4.59728         6.94760
     2017.66187         6.24042         7.04198
     2017.66461        12.10156         7.16609
     2017.66735         9.39470         6.95148
     2017.67008         8.32284         6.81186
     2017.67282         2.67898         7.06913
     2017.67556         7.14412         6.84935
     2017.67830         4.94126         6.80410
     2017.68104         3.75240         6.83901
     2017.68377         9.05754         7.01483
     2017.68651         0.90468         7.14928
     2017.68925         5.83282         7.19712
     2017.69199        12.22196         6.93467
     2017.69472         4.95710         6.86486
     2017.69746        14.35224         6.94372
     2017.70294        13.94852         7.15058
     2017.70568         3.76466         6.97863
     2017.70841         9.82080         6.79634
     2017.71115        10.27394         7.10016
     2017.71389        21.69508         7.06137
     2017.71663        14.80922         6.98768
     2017.71937        11.28336         7.14023
     2017.72210         8.01050         6.83125
     2017.72484         1.77364         6.77566
     2017.72758         5.13778         6.83901
     2017.73032         5.26492         6.84288
     2017.73305         5.59606         6.87650
     2017.73579         4.25020         6.82996
     2017.73853        -0.81466         6.81315
     2017.74127         3.23648         6.87521
     2017.74401         5.89062         6.97475
     2017.74674        20.20776         6.94631
     2017.74948        12.09490         7.01095
     2017.75222         8.24204         6.84676
     2017.75496         0.93218         6.82220
     2017.75770        -0.52668         6.95795
     2017.76043         2.22446         6.78729
     2017.76317         2.86060         6.88296
     2017.76591        13.79674         6.94372
     2017.76865         9.82188         6.91916
     2017.77138        -0.10998         6.82220
     2017.77412         3.84116         6.88167
     2017.77686        10.46630         6.83771
     2017.77960         6.75044         7.00707
     2017.78234         3.63258         7.03551
     2017.78507        -0.87228         6.81832
     2017.78781        -4.82514         6.76014
     2017.79055         0.24500         6.72653
     2017.79329         5.17214         7.06654
     2017.79603        -0.03572         6.94372
     2017.79876         8.29142         7.10016
     2017.80150        15.24256         6.98768
     2017.80424         4.03370         6.80927
     2017.80698        -3.63216         7.01742
     2017.80971        -6.80202         6.87003
     2017.81245        -9.34088         6.82737
     2017.81519        -6.60374         6.85840
     2017.81793         0.91840         6.88167
     2017.82067        -0.85246         7.01612
     2017.82340        -6.64432         6.77954
     2017.82614        -4.40018         6.83384
     2017.82888        -6.70804         6.80022
     2017.83162         7.16210         6.82479
     2017.83436        22.16524         6.91399
     2017.83709         9.59538         7.06654
     2017.83983         2.28152         6.82996
     2017.84257         5.44066         6.78600
     2017.84531         2.83180         6.88425
     2017.84804        -9.76706         6.79634
     2017.85078        -5.49692         6.82091
     2017.85352         4.74722         6.89201
     2017.85626        14.79236         7.11955
     2017.85900         3.69450         7.01483
     2017.86173         2.66464         6.90753
     2017.86447         2.74378         6.81961
     2017.86721         2.19292         6.91270
     2017.86995         4.07406         6.91399
     2017.87269         8.01120         6.85711
     2017.87542        11.97034         6.83771
     2017.87816        11.12448         6.86874
     2017.88090         2.17462         6.79117
     2017.88364         1.48676         6.80927
     2017.88637         4.53590         7.02000
     2017.88911        -1.31396         6.92692
     2017.89185        -0.01582         7.13894
     2017.89459        -1.65268         7.23332
     2017.89733         4.34946         6.90235
     2017.90006        -0.28640         6.86357
     2017.90280        -1.87826         7.08076
     2017.90554         6.05988         6.86486
     2017.90828         3.58302         6.84288
     2017.91102        -0.29084         6.96570
     2017.91375        -4.78870         6.95795
     2017.91649        -3.03556         6.82608
     2017.91923         3.16758         6.82349
     2017.92197         9.57572         6.77824
     2017.92470        -2.75314         6.83384
     2017.92744        -7.45400         6.83513
     2017.93018        -8.67886         6.88813
     2017.93280         1.09106         7.18936
     2017.93839        -1.47044         6.85969
     2017.94113        -3.82630         6.85193
     2017.94387         0.21984         6.85581
     2017.94609        -3.49499         8.83770
     2018.12731        -1.60279         6.93855
     2018.13004         7.20835         7.05103
     2018.13278        -5.50851         7.00061
     2018.13552        -4.18237         6.88555
     2018.13826        -1.06223         6.90365
     2018.14099       -13.84009         6.86098
     2018.14373       -16.64195         6.89460
     2018.14647        -8.06681         7.24624
     2018.14921        -6.74967         7.14411
     2018.15195         1.09647         7.04715
     2018.15468        -0.65539         6.91140
     2018.15742        -1.74225         6.92692
     2018.16016         0.24589         6.96700
     2018.16290        -2.55697         7.08335
     2018.16564       -16.91583         7.08076
     2018.16837        -7.22369         6.90106
     2018.17111        -6.31255         6.90882
     2018.17385        -5.17841         6.94890
     2018.17659        -8.48727         6.93597
     2018.17932        -5.72513         6.93467
     2018.18206         4.25601         7.02129
     2018.18480        -0.03885         7.08723
     2018.18754        -2.59571         6.91528
     2018.19028        -7.89657         6.93985
     2018.19301       -10.77243         6.91787
     2018.19575         0.23071         7.03939
     2018.19849         2.04685         6.89848
     2018.20123         1.54599         7.02905
     2018.20397        -1.76587         6.91011
     2018.20670         2.47727         6.88555
     2018.20944         0.10741         6.85969
     2018.21218        -4.11845         6.83125
     2018.21492       -18.40331         6.82479
     2018.21765        -5.33717         6.81444
     2018.22039         4.90697         6.82866
     2018.22313        -1.70689         6.80151
     2018.22587       -11.31275         6.85581
     2018.22861       -10.18861         6.75109
     2018.23134        -2.86147         6.80410
     2018.23408         7.78567         6.88167
     2018.23682        -3.46519         6.83125
     2018.23944       -12.46427         7.16221
     2018.24230        -5.02891         6.85323
     2018.24503       -10.45277         6.81056
     2018.24777         0.28937         6.85581
     2018.25051         4.87251         6.81832
     2018.25325        -9.58435         6.80151
     2018.25598         3.35579         6.82349
     2018.25872        -6.79307         6.97734
     2018.26146        -4.27493         6.99673
     2018.26420        -7.27379         7.11955
     2018.26694         7.52635         6.81444
     2018.26967        -8.78051         6.72782
     2018.27241        -3.94437         6.95148
     2018.27515         4.13077         6.75756
     2018.27789         9.67091         6.90753
     2018.28062         2.61305         7.04327
     2018.28336        -5.40381         6.83771
     2018.28610        -0.29167         6.77437
     2018.28884        -0.84053         6.74205
     2018.29158        -2.19739         6.98122
     2018.29431        -8.30425         6.84288
     2018.29705        -8.86811         6.69421
     2018.29979        -6.00397         6.73170
     2018.30253         2.82617         6.93338
     2018.30527        -6.68969         6.67223
     2018.30800       -10.18655         6.67999
     2018.31074        -8.28441         6.70972
     2018.31348        -8.98527         6.77307
     2018.31622        -5.96513         6.70972
     2018.31895         3.41801         6.89072
     2018.32169         7.65715         6.72653
     2018.32443         1.55429         6.67870
     2018.32717        -4.51557         6.80798
     2018.32991        -1.03743         6.91140
     2018.33242        -5.37572         7.26305
     2018.33905       -15.09026        12.87517
     2018.34086        -3.20787         6.80798
     2018.34360        -6.87373         6.83771
     2018.34633        -4.52759         6.76402
     2018.34907        -4.87145         6.73041
     2018.35181         6.55569         6.82737
     2018.35455        -0.31617         6.79893
     2018.35728        -0.10503         6.71360
     2018.36002        -2.56089         6.72265
     2018.36276         2.40325         6.80669
     2018.36550        -5.72661         6.69292
     2018.36824         0.79553         6.75756
     2018.37097         3.92167         6.87003
     2018.37371        -4.14819         6.75497
     2018.37645        -2.78905         6.97087
     2018.37919         2.26408         6.76661
     2018.38193        -3.62078         6.79764
     2018.38466         4.28736         6.71877
     2018.38740         0.11550         6.72653
     2018.39014         7.35964         6.77437
     2018.39288         2.57478         7.03293
     2018.39561         5.11192         6.79117
     2018.39835         4.99206         6.76919
     2018.40109         0.24920         6.73429
     2018.40383         4.76234         6.73429
     2018.40657        17.23448         6.88425
     2018.40930        11.36462         6.89072
     2018.41204        11.04676         6.72653
     2018.41478        -6.30810         6.80798
     2018.42299         3.18732         6.96700
     2018.42573         5.46346         6.77566
     2018.42847         4.40460         6.74851
     2018.43121        -0.45726         6.81444
     2018.43394         2.69788         6.84159
     2018.43668         6.82102         7.08852
     2018.43942        12.54116         6.76790
     2018.44216         3.37330         6.79634
     2018.44490        -2.27856         6.70843
     2018.44763        21.58958         6.93726
     2018.45037         5.79672         6.69938
     2018.45311         4.53686         6.68904
     2018.45585         6.95600         6.72653
     2018.45859         2.80714         6.75497
     2018.46132        -5.39472         6.73429
     2018.46406         3.69142         6.74592
     2018.46680        -2.08144         6.82349
     2018.46954         5.61270         6.87003
     2018.47227         8.52984         6.98768
     2018.47501        19.15298         6.84288
     2018.47775         0.53712         6.70067
     2018.48049         7.36626         7.05879
     2018.48323         2.11640         6.82996
     2018.48596         1.91954         6.82479
     2018.48870         9.21568         6.91399
     2018.49144        -0.90518         6.74463
     2018.49418         0.05596         6.89977
     2018.49692        10.63410         7.02517
     2018.49965        24.35224         6.84030
     2018.50239         2.54138         6.77695
     2018.50513        -1.17848         6.74722
     2018.50787        -3.91434         6.75627
     2018.51060        13.60880         6.96570
     2018.51334         8.07894         6.89330
     2018.51608         4.26308         6.84676
     2018.51882         5.47822         6.98509
     2018.52156         4.39336         6.91270
     2018.52429         0.33150         6.70455
     2018.52703         6.30664         6.72782
     2018.52977         4.41578         6.75368
     2018.53251         5.39892         6.84159
     2018.53525         9.84106         6.78600
     2018.53798        -1.92380         6.80281
     2018.54072         7.56934         6.78471
     2018.54346         5.58948         6.88684
     2018.54620        -7.58438         6.76919
     2018.54893         5.18376         6.75368
     2018.55167         1.27790         6.78729
     2018.55441         1.07304         6.72265
     2018.55715         6.18618         6.67870
     2018.55989        -2.17468         6.99544
     2018.56262         3.01246         6.75239
     2018.56536         0.85460         6.76402
     2018.56810         6.51374         6.79505
     2018.57084         2.57188         6.76014
     2018.57357        -1.11898         6.86874
     2018.57631         4.96016         6.96700
     2018.57905         6.74130         7.16997
     2018.58179         9.70444         6.92821
     2018.58453        25.04958         6.95277
     2018.58726        12.14072         6.93467
     2018.59000         9.90986         6.74463
     2018.59274         7.70200         6.74851
     2018.59548         6.39814         6.72265
     2018.59822         6.14628         6.74592
     2018.60095         9.71742         6.68904
     2018.60369        10.62256         6.78083
     2018.60643         7.39970         6.90753
     2018.60917        15.70384         6.98122
     2018.61202         8.72019         7.18677
     2018.61481         6.32344         7.22427
     2018.61738         7.94826         6.68516
     2018.62012        10.73740         6.80281
     2018.62286        10.66454         7.04198
     2018.62542         0.60136         7.38975
     2018.62833         0.26082         6.69550
     2018.63107         6.30696         6.73687
     2018.63381         8.10810         6.87650
     2018.63655         8.03424         6.82866
     2018.63928        13.00938         7.04069
     2018.64202        20.52852         7.06525
     2018.64476         4.81366         6.97863
     2018.64750         5.12680         6.76790
     2018.65023         6.95694         6.90494
     2018.65297        12.78908         6.80927
     2018.65560         5.08100         7.05491
     2018.65845        13.48336         6.75497
     2018.66119        28.46250         6.92045
     2018.66392        17.10764         6.78729
     2018.66666        12.42278         6.88296
     2018.66940         3.64792         6.76661
     2018.67214        -3.18594         6.79117
     2018.67488         5.72020         6.73170
     2018.67761         3.61634         6.75627
     2018.68035        10.33548         6.86874
     2018.68309         2.25262         6.96441
     2018.68583        25.23576         6.86357
     2018.68856        10.51290         6.78729
     2018.69130        19.99604         6.93209
     2018.69404        22.15918         7.04456
     2018.69678         7.64932         6.79117
     2018.69952         5.91546         6.74851
     2018.70225         3.13460         6.91787
     2018.70499         8.01774         6.80539
     2018.70773        11.19088         6.82608
     2018.71047         3.58202         6.77178
     2018.71321         2.95216         6.73946
     2018.71594         0.75830         6.81056
     2018.71868         1.16644         6.81444
     2018.72142        -0.76642         6.76661
     2018.72416         4.98972         6.99414
     2018.72689        14.40086         6.80927
     2018.72963        11.44900         6.75239
     2018.73237        -1.32486         6.74851
     2018.73511        -2.15372         6.71360
     2018.73785         5.26842         6.75239
     2018.74058        -1.68744         6.72912
     2018.74332         8.38370         6.72007
     2018.74606         4.15583         6.71231
     2018.74880         8.37897         6.78342
     2018.75154        10.45711         6.93080
     2018.75427         8.39325         6.80022
     2018.75701         3.79539         6.93597
     2018.75975         1.63853         6.77954
     2018.76249         4.53767         6.70067
     2018.76522         0.76981         6.90365
     2018.76796         3.40295         6.76402
     2018.77070        12.13909         6.84159
     2018.77344         6.38223         6.75109
     2018.77618         2.27637         6.71102
     2018.77891         7.86851         6.79246
     2018.78165        -2.61635         6.83642
     2018.78439         5.12679         6.72653
     2018.78713         0.34293         6.71490
     2018.78987        -5.91993         6.82996
     2018.79260        -1.68979         6.69033
     2018.79534         7.67635         6.69421
     2018.79808         1.34249         6.72136
     2018.80082         4.50363         6.71748
     2018.80355         4.71877         6.72136
     2018.80629         4.19491         6.86616
     2018.80903         1.91205         6.74075
     2018.81177         2.48119         7.12989
     2018.81451         7.52633         6.94631
     2018.81724         4.15047         6.92045
     2018.81998         6.89461         6.77954
     2018.82272        10.72475         7.03422
     2018.82546        11.97289         6.71619
     2018.82820         0.99403         6.75627
     2018.83093        12.97017         6.82220
     2018.83367        14.13531         6.87262
     2018.83641        19.54645         6.98639
     2018.83915         6.86759         6.77566
     2018.84188         9.65473         6.88813
     2018.84462        21.13087         6.78988
     2018.84736         8.14801         6.82091
     2018.85010         1.38115         6.73300
     2018.85284        -2.60671         6.72912
     2018.85557         0.45043         6.75368
     2018.85831        -0.31343         6.73558
     2018.86105        -2.45229         6.72395
     2018.86379        -4.19415         6.91528
     2018.86653         2.50099         6.81186
     2018.86926         1.05313         7.05620
     2018.87200         1.12727         6.75627
     2018.87474         3.26441         6.75497
     2018.87748         0.89855         6.86098
     2018.88022         4.09070         6.88684
     2018.88295         1.51183         6.86874
     2018.88569         2.25097         6.87391
     2018.88843         6.91711         6.88813
     2018.89117         4.37725         7.01742
     2018.89390         3.51239         6.94372
     2018.89664         5.13953         7.10145
     2018.89938        -0.94932         6.92563
     2018.90212         2.54281         6.98122
     2018.90485         5.50295         7.08206
     2018.90759         3.77609         6.94890
     2018.91033         8.77623         6.89330
     2018.91307        11.67737         7.04198
     2018.91581         7.86251         6.94372
     2018.91855        10.34866         6.82608
     2018.92128         4.21679         6.83642
     2018.92402         4.13493         6.82349
     2018.92676         8.41507         6.87650
     2018.92950         9.96621         6.85193
     2018.93223         3.06135         6.98768
     2018.93497         3.16949         6.94502
     2018.93771        -2.67036         6.86357
     2018.94045         2.46477         6.86357
     2018.94318         3.08291         6.96441
     2018.94592         7.68505         6.83513
     2018.94866         4.39519         6.79376
     2018.95140         7.27933         7.00707
     2018.95414        17.14547         6.86357
     2018.95687         8.62561         6.78859
     2018.95961        11.28775         6.82479
     2018.96235         3.99489         6.92433
     2018.96509         0.23803         6.87133
     2018.96783         2.72517         6.95148
     2018.97056         9.33531         6.82349
     2018.97330         1.58445         6.74463
     2018.97604        10.83559         6.82866
     2018.97878         0.51173         6.77307
     2018.98151        -7.12113         6.78859
     2018.98425         1.35101         7.08593
     2018.98699         0.43015         6.88296
     2018.98973        -2.25371         6.80927
     2018.99247         9.72443         6.84418
     2018.99520        11.41357         7.02000
     2018.99794        -6.55829         6.88555
     2019.00068        -8.43415         6.88684
     2019.00342        -0.94601         6.85969
     2019.00616         0.44613         6.89589
     2019.00889        -2.20373         6.92045
     2019.01163         1.20141         6.85323
     2019.01437         5.53355         6.82737
     2019.01711        10.70169         6.76402
     2019.01984        -5.49117         6.74722
     2019.02258         1.42597         6.78729
     2019.02532         3.21411         6.88167
     2019.02806        -3.02475         6.90494
     2019.03080        -2.33661         6.93080
     2019.03353         1.92853         6.73558
     2019.03627       -14.94833         6.71748
     2019.03901         1.09781         6.72007
     2019.04175        -2.07805         6.72524
     2019.04449        -2.98691         6.81961
     2019.04722         4.43323         6.83384
     2019.04996       -12.33863         6.95665
     2019.05270        -8.36849         6.96312
     2019.05544         2.47165         6.84288
     2019.05817        -4.42721         7.04069
     2019.06091        13.92593         7.12730
     2019.06365        -2.57993         6.86228
     2019.06639        -1.01279         6.80281
     2019.06913        -4.35665         6.86874
     2019.07186        -7.48951         6.90106
     2019.07460        -3.33137         6.80151
     2019.07734         3.59477         6.72524
     2019.08008         3.77891         6.70197
     2019.08282         0.49005         6.85969
     2019.08555        15.64219         6.71490
     2019.08829         4.15733         6.74980
     2019.09103        20.55647         6.77307
     2019.09377         7.45861         6.68645
     2019.09650         6.52475         6.69292
     2019.09924         2.55489         6.67611
     2019.10198        -2.91697         6.73429
     2019.10472         3.46317         6.74980
     2019.10746        -2.06069         6.70326
     2019.11019        -7.68356         6.70326
     2019.11293         3.80758         6.90106
     2019.11567        10.10172         7.02646
     2019.11841        11.66186         6.82737
     2019.12115        13.49000         6.91658
     2019.12388         0.50514         6.92175
     2019.12662        12.66428         6.74980
     2019.12936        -0.20358         6.74334
     2019.13210         0.76956         6.79634
     2019.13483         2.73470         6.87650
     2019.13757         9.22484         6.87003
     2019.14031         0.33898         6.80539
     2019.14305        -4.19588         6.81703
     2019.14579         1.89226         6.82996
     2019.14852       -14.72860         6.79893
     2019.15126        -5.39646         6.81574
     2019.15400       -18.47532         6.75756
     2019.15674       -16.28418         6.72265
     2019.15948       -17.10904         6.69680
     2019.16221        -4.90890         6.85323
     2019.16495        -4.24476         6.71619
     2019.16769        -6.17062         6.75885
     2019.17043        -6.60248         6.68904
     2019.17316        -5.26234         6.71231
     2019.17590        -2.79920         6.69680
     2019.17864        -2.40706         6.70455
     2019.18138        -0.99892         6.76790
     2019.18412       -15.16678         6.73170
     2019.18685        -8.19864         6.73429
     2019.18959        -4.25250         6.72395
     2019.19233         2.53964         7.67675
     2019.19507         3.89178         6.75109
     2019.19780       -11.05708         6.74075
     2019.20054        -6.87694         6.90623
     2019.20328       -10.41980         6.71748
     2019.20602        -8.37066         6.72782
     2019.20876       -13.63652         6.73946
     2019.21149       -29.33638         7.58496
     2019.21423       -14.21224         6.76402
     2019.21697        -2.15510         6.72007
     2019.21971        -7.25296         6.93597
     2019.22245        -5.62982         6.75756
     2019.22518        -0.52568         6.71490
     2019.22792        -6.59054         6.80022
     2019.23066        -5.47940         6.66965
     2019.23340        -7.76326         6.71490
     2019.23613        -5.53712         6.71490
     2019.23887        -7.15398         6.77437
     2019.24161       -10.89284         6.88813
     2019.24435        -9.84070         6.88038
     2019.24709        -5.12456         6.82091
     2019.24982        -0.20242         6.68516
     2019.25256        11.51472         6.91399
     2019.25530        -6.31814         6.79376
     2019.25804        -3.73100         6.76790
     2019.26078         5.11214         6.82866
     2019.26351         1.74228         6.82866
     2019.26625        -2.66558         6.70197
     2019.26899        13.12856         6.88425
     2019.27173         9.35570         7.17643
     2019.27446        -0.13516         6.75885
     2019.27720         3.42398         6.82996
     2019.27994        -1.94088         6.76919
     2019.28268         5.25126         6.76273
     2019.28542         6.17340         6.69938
     2019.28815        -3.72946         6.69938
     2019.29089         8.39968         6.80798
     2019.29363       -10.36218         6.74722
     2019.29637        -3.48504         6.85452
     2019.29911         4.47810         6.73041
     2019.30184        -1.19776         6.71748
     2019.30458       -11.28962         6.73300
     2019.30732        -0.81248         6.78342
     2019.31006        -3.30834         6.93985
     2019.31279        -7.05920         6.86098
     2019.31553         2.66594         6.79246
     2019.31827        15.25208         6.83771
     2019.32101        -0.77078         6.71877
     2019.32375       -13.22964         6.71360
     2019.32648        -3.45950         6.69421
     2019.32922        -3.50136         6.73558
     2019.33196        -2.55522         6.89201
     2019.33470        -1.00708         6.90235
     2019.33744        -0.61494         6.73558
     2019.34017        -4.51780         6.75368
     2019.34291         1.93634         6.70972
     2019.34565         3.65648         6.90623
     2019.34839        -7.83838         6.90235
     2019.35112        -5.41324         6.74334
     2019.35386        -1.92210         6.72653
     2019.35660         5.67704         6.79376
     2019.35934         6.56518         6.88425
     2019.36208         3.64632         6.83901
     2019.36481         6.75146         6.85581
     2019.36755         3.70060         6.78083
     2019.37029         3.47674         6.82349
     2019.37303         4.12388         6.77824
     2019.37577        -0.10298         6.96829
     2019.37850         0.55616         6.76144
     2019.38124         3.37530         6.76661
     2019.38398         2.07244         6.78342
     2019.38672        -0.58042         6.82737
     2019.38945        -1.72028         6.78729
     2019.39219        12.76486         6.99156
     2019.39493         3.68400         6.76402
     2019.39767         0.50914         6.76144
     2019.40041         1.56228         6.78471
     2019.40314         3.45442         6.74205
     2019.40588         3.14756         6.75627
     2019.40862        -1.76230         6.75756
     2019.41136         3.63184         6.78212
     2019.41410        -1.80202         6.89589
     2019.41683         0.40312         6.78471
     2019.41957        -3.80474         6.92304
     2019.42231         1.40640         6.78471
     2019.42505        15.73354         6.83771
     2019.42778        11.07568         7.10274
     2019.43052        21.92382         6.86228
     2019.43326         1.61796         6.81315
     2019.43600        -8.45590         6.83125
     2019.43874        -7.81576         6.88425
     2019.44147        -5.80962         6.91399
     2019.44421        -3.99148         6.88555
     2019.44695         6.98566         7.01483
     2019.44969        10.77980         6.92304
     2019.45243         2.95494         6.86874
     2019.45516         4.56608         6.98639
     2019.45790         4.43922         6.98768
     2019.46064        -7.23764         7.06784
     2019.46338        18.30450         7.30830
     2019.46611        20.16864         7.41560
     2019.46885        10.79878         7.09240
     2019.47159         3.37292         6.91399
     2019.47433        -2.78994         7.11696
     2019.47707         2.62019         7.08464
     2019.47980         4.30233         6.98768
     2019.48254         8.51247         6.98122
     2019.48528        -0.62639         6.99802
     2019.48802        -1.76125         6.90365
     2019.49076        -2.94711         6.86486
     2019.49349        -2.09797         6.87003
     2019.49623         0.38217         6.83642
     2019.49897         3.43131         6.79893
     2019.50171         3.73045         6.71748
     2019.50444        -3.13241         6.80539
     2019.50718        -3.32927         6.81444
     2019.50992        -7.26113         6.95019
     2019.51266         6.37501         6.86616
     2019.51540         2.49015         6.80410
     2019.51813        -1.65371         6.76919
     2019.52087         9.83543         6.88943
     2019.52361         4.74157         6.97863
     2019.52635         4.88571         6.86357
     2019.52908        12.64985         7.26434
     2019.53182        -0.13301         7.03551
     2019.53456        -2.82787         7.05491
     2019.53730        -3.35273         7.03810
     2019.54004         8.31441         7.22685
     2019.54277        29.66055         7.17514
     2019.54551         4.08069         7.23849
     2019.54825         2.36083         6.75239
     2019.55099        -0.21703         6.88555
     2019.55373        15.42911         7.06137
     2019.55646        12.47125         7.21392
     2019.55920        -0.62861         7.28761
     2019.56091        11.61161        13.54615
     2019.64328       -14.45177        10.69807
     2019.64955        -1.39999         7.00190
     2019.65229        11.62515         8.25981
     2019.65503         1.95829         7.15704
     2019.65771        -1.07768         7.45309
     2019.66050         9.07857         7.48542
     2019.66233        -2.66800        11.38197
     2019.67145        -2.08787         8.32316
     2019.67419        22.37927         9.01094
     2019.67664         5.86287         7.80862
     2019.67927         5.01180         8.21974
     2019.68788        12.70097         7.49705
     2019.69062         3.82311         8.20422
     2019.69336        -2.72075         7.33286
     2019.69609        -4.02161         7.33286
     2020.03011         2.58446         7.97151
     2020.03285        -4.73140         7.61599
     2020.03559        -0.18426         7.50998
     2020.03833        -3.31712         8.15251
     2020.04106        -6.91398         7.80733
     2020.04380        -2.54984         8.10209
     2020.04660        -4.29159         7.64702
     2020.04928        -4.44456         7.58496
     2020.05201         2.02058         7.50998
     2020.05475         5.22972         8.01676
     2020.05749         7.82386         7.54618
     2020.06023         4.53200         8.58560
     2020.06297         3.47214         7.49964
     2020.06570        -1.85172         7.84353
     2020.06844         5.65542         7.50222
     2020.07118         6.73456         7.67417
     2020.07397        -3.10419         7.75561
     2020.07666        -6.24916         7.33803
     2020.07939        -7.96302         7.87843
     2020.08213        -6.01188         7.50610
     2020.08487         3.95526         8.75496
     2020.08761         4.01940         8.31670
     2020.09046         1.61375         8.17707
     2020.09308        -2.03032         7.97798
     2020.09582         9.17482         7.61599
     2020.10403         2.92624         8.21974
     2020.10677        -3.97762         8.21974
     2020.10951       -10.19348         7.87585
     2020.11225         3.68266         8.03874
     2020.11498         3.54880         7.70132
     2020.12046         6.27108         7.99866
     2020.12320         4.30622         7.35355
     2020.12594         7.15036         7.36518
     2020.12867        -4.73650         7.23461
     2020.13141        -6.16336         7.78793
     2020.13415       -10.78922         7.41172
     2020.13689        -7.87508         7.53842
     2020.13963        -3.21894         7.74139
     2020.14236         2.12320         7.99737
     2020.14407         9.19441        19.92232
     2020.14784        -1.28552         7.48542
     2020.15058        -9.63238         7.32381
     2020.15331       -10.57324         8.80538
     2020.15605       -11.12610         6.82479
     2020.15879        -4.49696         7.21651
     2020.16147        -3.35793         7.34708
     2020.18691        -5.58417        11.62373
     2020.18891        -1.42442         8.29730
     2020.19153         4.74350         8.29730
     2020.19438        -2.56214         7.29925
     2020.19712        -3.12500         7.66253
     2020.19986       -12.63186         8.13570
     2020.20260        -6.43372         7.59660
     2020.20533        -7.37658         7.54359
     2020.20767        -0.02419         8.16285
     2020.21081        -3.27531         6.98122
     2020.21355        -3.53117         7.51515
     2020.21629        -3.17403         7.18936
     2020.21902        -0.95789         6.97475
     2020.22056        -8.65899        23.91972
     2020.22450         7.58139         6.93080
     2020.22707         7.63521         8.21456
     2020.23271         4.60081         7.56686
     2020.23545         3.07795         7.45697
     2020.24366         8.46537         6.90623
     2020.24640         4.08651         8.69808
     2020.24908        -2.49045         8.70454
     2020.25188         1.33279         9.15574
     2020.25462         4.42893         9.26433
     2020.25735         4.78007         9.07817
     2020.26015        11.88032         9.78792
     2020.26289         0.79746         7.52808
     2020.26557        -0.69751         7.13765
     2020.26836        -0.66926         6.97734
     2020.27104        -1.95923         7.02000
     2020.27378        -1.03709         7.37423
     2020.27652         6.33305         7.15058
     2020.27926        -0.98581         7.25788
     2020.28137        -0.54684         9.52936
     2020.30116         2.74131         6.81961
     2020.30390         2.91945         6.96312
     2020.30663         2.16059         8.62309
     2020.30937        16.52673         7.12860
     2020.31211        -1.60013         9.02387
     2020.31451         1.27337         7.85775
     2020.32392        -1.99096        12.95016
     2020.32580         4.76557         6.82737
     2020.32854        15.11671         6.91787
     2020.33128        -2.09515         6.77437
     2020.33276        -0.44036        31.24999
     2020.33949         2.80427         6.83513
     2020.34194       -10.24812        12.17188
     2020.34439         8.90648         9.42852
     2020.34770        -5.80131         6.78988
     2020.35044        -0.84217         6.93467
     2020.35261        -4.80810         8.68256
     2020.35865        -0.49275         6.81186
     2020.36116        -5.73504         7.36648
     2020.36413         4.48353         6.93080
     2020.36687        -0.60633         7.68192
     2020.36961         1.81181         6.84159
     2020.37109       -19.98641        26.25842
     2020.37776        -0.83888         6.92433
     2020.38056         0.41637         6.73558
     2020.38329         5.08451         7.53713
     2020.38603         8.01865         7.06266
     2020.38803         8.89040        10.10208
     2020.39972         0.73035         6.85581
     2020.40246        -3.06851         6.79505
     2020.40508        -8.54159         7.12989
     2020.40767        -1.46772         7.43112
     2020.41067         3.71291         7.38587
     2020.41335         1.65794         7.74915
     2020.41615        -3.38981         8.28050
     2020.41889        -2.89867         8.43693
     2020.42162        -2.96453         9.25399
     2020.42436        14.11261         9.75948
     2020.42710        -3.23025         8.18224
     2020.42984        -1.58311         7.67287
     2020.43258        12.83603         7.58884
     2020.43531         7.41117         7.48671
     2020.43805        -6.73369         7.53454
     2020.44347         1.67748         7.89007
     2020.44592         3.34709         8.48606
     2020.44769        14.95941       117.24177
     2020.45448         2.58115         7.19712
     2020.45616        27.88730        14.99281
     2020.45995         3.24143         7.42465
     2020.46254        -6.35373         7.64572
     2020.46731         4.05524        11.07428
     2020.47364         3.05213         7.45956
     2020.47527        -4.18682        14.68900
     2020.47845        16.55215        10.22619
     2020.48186         6.02555         7.37294
     2020.48459        -0.93031         7.33803
     2020.49281         0.31911         7.40526
     2020.49555        17.58225         7.42465
     2020.49771        31.52432         9.80473
     2020.50119        -4.98415         8.12665
     2020.50296        14.89817        11.56426
     2020.52377         4.36523        11.57072
     2020.53341         3.87533         9.10532
     2020.53599         2.47017        10.77047
     2020.53872         0.24130        10.72910
     2020.54088        11.74836        21.04837
     2020.55003        11.34753         8.44856
     2020.56059        -3.73964        11.17770
     2020.56276        30.23443        26.38383
     2020.57216        15.39008         7.67029
     2020.57768        10.00244         6.98639
     2020.58042         7.46858         7.20100
     2020.58246        24.28142        11.34189
     2020.58590        -2.72114         7.10016
     2020.58863         6.00800         7.50739
     2020.59057         8.62065        10.95534
     2020.59331         8.91779        11.65087
     2020.59658         7.05592         8.73169
     2020.59958         6.49956         7.62116
     2020.60780         5.71698         7.02388
     2020.61054        28.73812         7.17255
     2020.61327        25.88726         7.15704
     2020.61601         3.10540         6.95924
     2020.61875         2.06754         7.08852
     2020.62035        -1.22646        19.26686
     2020.62685         6.91275         8.22103
     2020.62930       -14.64765         8.88554
     2020.63272         6.11178         8.88424
     2020.63504        17.79612         7.64185
     2020.65771        18.45268         9.83447
     2020.65873        -2.24239        19.95594
     2020.66464        14.42169        10.52483
     2020.66683        17.48781        23.50343
     2020.66995         4.44366        12.50801
     2020.67268         7.41179        11.61855
     2020.67505        20.11323        24.81564
     2020.68720        -4.13296         7.00449
     2020.68915        -1.13628        11.07945
     2020.69597         7.18651        12.12405
     2020.70256        14.56088        16.02318
     2020.70525         7.93094        20.02187
     2020.70850         9.56404         9.90686
     2020.71104         5.64181        11.31216
     2020.71369         5.32778        12.95533
     2020.71904        14.61282        15.82797
     2020.72173         5.88287        15.03159
     2020.72443        25.24495        17.19448
     2020.72711        12.15397        18.55194
     2020.74360        -2.39606        17.42718
     2020.74630         9.40101        16.83249
     2020.74949        -2.51601        10.51319
     2020.75168         6.28910        22.49115
     2020.75477        -3.17710        14.29727
     2020.76010       -23.71010        19.20481
     2020.76278       -46.29806        60.01390
     2020.76547         9.08899        16.56875
     2020.76821        15.66714        16.40974
     2020.77351        23.74509        33.49432
     2020.79005        -8.38686        30.66564
     2020.79324        14.96012        15.18802
     2020.79539       -31.82484       226.17977
     2020.80384         9.63602        27.12590
     2020.80653        11.00107        19.07294
     2020.80922        19.46712        27.83954
     2020.81460        35.58722       142.42716
     2020.82135         8.92590         8.59853
     2020.82409         3.18304         7.98832
     2020.82683        -2.25982         7.64831
     2020.82877        -0.09017        12.59980
     2020.83778        -7.93926        17.19577
     2020.84052         6.52188         8.37875
     2020.84325        -3.83298         8.48993
     2020.84599         9.20316         8.14992
     2020.84873         7.89230         8.01806
     2020.85694         8.87472         8.27533
     2020.85928        11.69911         9.64959
     2020.86516        10.46814         8.53906
     2020.86761        13.19874         8.67998
     2020.87611         6.98270         8.53648
     2020.88061        17.32216        30.40708
     2020.88432        15.74312         8.46796
     2020.88706        -0.98674         8.14863
     2020.88911        -5.64389        14.24815
     2020.89253         7.43654         8.13829
     2020.89527         5.63068         8.99284
     2020.89801         9.60282         8.55070
     2020.90075        15.97996         8.44727
     2020.90349         7.28310         8.79633
     2020.90622         3.71824         8.01806
     2020.90896         4.80838         8.78599
     2020.91170        -2.03748         8.38909
     2020.91444        12.88066         8.71747
     2020.91718        -2.99220         7.58238
     2020.91991        -2.84406         8.47830
     2020.92265        -0.41292         8.37746
     2020.92527        -4.69200         8.38392
     2020.92813         2.78236         8.56880
     2020.93086        -5.29250         8.04779
     2020.93360        -3.13836         8.82736
     2020.93634        -7.40022         8.19388
     2020.93908        -2.50308         9.24106
     2020.94182        -5.88395         8.61017
     2020.94455        -3.88581         8.31023
     2020.94729       -13.71667         7.96634
     2020.95003       -10.73153         8.10985
     2020.95277       -12.78439         7.77759
     2020.95551        -2.28025         8.40073
     2020.95824        -1.58911         8.40202
     2020.96098         4.18803         8.52484
     2020.96372        -0.41083         7.64702
     2020.96646         5.56431         8.65412
     2020.96919         3.58145         8.36582
     2020.97193        -8.97141         8.35807
     2020.97467         2.14273         8.12665
     2020.97741        -8.75913         8.25335
     2020.98015        -4.99099         8.34385
     2020.98288        -7.14685         8.04003
     2020.98562       -11.93571         7.81379
     2020.98836         3.98843         7.61340
     2020.99110         3.71557         7.76337
     2020.99384        -1.12329         7.76984
     2020.99657         7.42785         7.90946
     2020.99931         7.76399         7.99866
     2021.00159        -7.73572         9.73621
     2021.01009         6.51823         8.06201
     2021.01910        -2.43485        11.09884
     2021.02093         4.15458         9.51385
     2021.02943        -2.66247         7.60048
     2021.03216         7.31367         9.20228
     2021.05087        -9.57620        11.00059
     2021.05681         2.76693         8.58431
     2021.05954        -5.54093         8.29472
     2021.06724         2.41053        10.35418
     2021.07129        -0.36887        11.96891
     2021.07323         6.00777         7.77371
     2021.07597       -10.43709         7.94307
     2021.08966       -12.21739         8.31411
     2021.09200        -8.95200         9.46472
     2021.09742        22.97917        10.45243
     2021.10061        17.73317         8.07106
     2021.10609         5.61745         8.36195
     2021.10882        -5.20741         7.45051
     2021.11156        -4.22827         7.80733
     2021.11430       -17.47813         8.63085
     2021.11618       -18.77860        14.05034
     2021.12788        10.78436         8.45632
     2021.13073         2.54271         7.73105
     2021.13352       -16.76004         8.13829
     2021.13620        -7.52301         8.67481
     2021.13894        -5.59487         7.97539
     2021.14065        -0.76066        24.15113
     2021.14442         0.12341         8.69937
     2021.14715         4.47855         8.01806
     2021.14989       -11.01831         8.04779
     2021.15263        -6.35217         8.74979
     2021.15537        -5.17203         8.50157
     2021.16358        -5.81061         7.80862
     2021.16632        10.54853         8.82348
     2021.16906        -1.28533         8.30894
     2021.17180        -6.49019         7.59530
     2021.17453        -9.10405         7.61082
     2021.17727         2.06609         7.25529
     2021.18001        -1.25277         8.28438
     2021.18275        -7.36963         7.17385
     2021.18537        -4.80271         8.57526
     2021.18822        -7.38835         7.26693
     2021.19010        -5.00882        11.61985
     2021.20739        -7.17037         7.04198
     2021.20961         2.71780         8.89588
     2021.21286         1.22991         8.87002
     2021.21560        12.25605         7.95471
     2021.21834        -0.77881         7.88490
     2021.22102         6.54322         6.98639
     2021.22336        -2.93739         9.60434
     2021.22729         0.22200        12.24816
     2021.22929         5.34575         6.82996
     2021.23203         1.40689         7.67158
     2021.23477        -7.50597         6.85452
     2021.23750        -0.69783         6.92950
     2021.24024         0.30031         6.89848
     2021.24298        -4.64355         7.72976
     2021.24572       -10.62041         6.83901
     2021.25119        -1.28613         6.84806
     2021.25393        -6.20099         6.80410
     2021.25667         1.07115         7.10662
     2021.25878         2.75311         9.52031
     2021.26836        -0.53790        12.14215
     2021.26984        -1.41012         9.07041
     2021.29015       -12.67400        18.74974
     2021.30042       -11.06072       129.99025
     2021.30538         5.39959         9.25011
     2021.31690         7.76222         7.11050
     2021.31935         2.49483         7.87585
     2021.32198        -5.97725         8.42529
     2021.32494        -4.42768         7.26046
     2021.32768        -4.56754         7.56557
     2021.33652        -3.61994         9.42852
     2021.33880         3.68334         6.99802
     2021.34120        -1.17816         7.81638
     2021.34759         1.23083        10.70712
     2021.34850         9.70755        25.85377
     2021.35489        -5.93546         7.78018
     2021.36071        -6.60954         7.11179
     2021.36344        -1.54840         6.91270
     2021.36578        -6.25401         8.12924
     2021.37428         0.68995         7.29149
     2021.38078        -2.68884        18.16409
     2021.38261         0.01658         8.34902
     2021.38535        -1.12628         8.22232
     2021.38763        -3.32499        10.68255
     2021.39356         6.85714         8.17319
     2021.39550         2.31678        14.95920
     2021.40177        16.15556         8.44856
     2021.40451         2.67570         8.04262
     2021.40617        -2.93219        16.45886
     2021.41524        -7.87717         9.25787
     2021.41797        -8.75203         8.66059
     2021.42094        16.88154         7.90946
     2021.42316         8.24372        10.78986
     2022.44490         1.47387         7.24754
     2022.44763        10.10001         6.99802
     2022.45037         7.57215         7.10921
     2022.45311        -8.67571         6.99932
     2022.45585        -5.73557         7.25271
     2022.45859       -20.63143         6.97863
     2022.46132        -2.63829         6.92433
     2022.46406        -4.40415         6.91399
     2022.46680        -0.75401         7.00190
     2022.46954       -14.81987         7.03293
     2022.47227       -16.90173         7.14540
     2022.47501         3.52241         7.02517
     2022.47775       -11.62045         7.19324
     2022.48049       -11.42131         6.98509
     2022.48323        -2.18217         7.00966
     2022.48602         2.13008         7.40397
     2022.48870        -3.88589         7.26176
     2022.49144       -16.64475         7.07430
     2022.49418        -6.50861         7.44534
     2022.49692        -7.32447         7.12343
     2022.49965       -18.22033         7.13894
     2022.50513        -4.92805         7.34579
     2022.50787         4.62109         7.46861
     2022.51060       -13.71577         7.29537
     2022.51334       -10.56363         7.29020
     2022.51608       -16.25749         7.18548
     2022.51882        -5.34835         7.21909
     2022.52156        -7.50621         7.31347
     2022.52429        -2.90107         7.01742
     2022.52703        -7.80393         7.10145
     2022.52977        13.91121         7.34967
     2022.53251        -9.50265         7.17902
     2022.53525       -10.57851         7.35743
     2022.53798        -3.03337         7.21134
     2022.54072        -7.07623         7.16480
     2022.54346        -2.02909         7.07301
     2022.54620        -8.17795         7.17902
     2022.54893        -4.59281         7.26434
     2022.55167        -2.85267         7.14282
     2022.55441        -4.60953         7.14411
     2022.55715         6.91061         7.04069
     2022.55989        -0.87925         6.99544
     2022.56262        -6.43611         7.07688
     2022.56536       -18.49497         7.00190
     2022.56810       -10.72783         7.30054
     2022.57084       -14.78369         7.30571
     2022.57357        -5.61655         7.30054
     2022.57631       -16.24841         7.02000
     2022.57905       -12.38427         6.96958
     2022.58179        -8.10013         7.40138
     2022.58453        -8.44799         7.74527
     2022.58726        -6.06885         7.42077
     2022.59000        15.69029         7.55393
     2022.59274        -8.32157         6.96182
     2022.59548        -3.89543         6.88813
     2022.59822       -10.92829         6.92821
     2022.60095       -14.82415         7.03293
     2022.60369        -5.21601         7.07559
     2022.60643         0.05913         7.39880
     2022.60917         3.50727         7.22944
     2022.61190         6.39141         7.12860
     2022.61464         4.43255         7.15575
     2022.61738         0.50769         6.92950
     2022.62012        -5.17817         6.87650
     2022.62286        -5.67603         7.04327
     2022.62559        -0.14889         6.92175
     2022.62833        -1.61275         6.94890
     2022.63107         0.11739         7.08206
     2022.63381        -4.84247         7.12601
     2022.63655         1.87567         6.96570
     2022.63928         3.90881         7.00707
     2022.64202        -1.98005         7.55264
     2022.64476         8.98809         7.40914
     2022.64750        -0.83677         7.49446
     2022.65023        11.20537         7.42207
     2022.65297        27.58351         7.31606
     2022.65571         6.10265         7.12730
     2022.65845        10.06479         7.07301
     2022.66119         6.58493         6.90235
     2022.66392         7.68707         6.90365
     2022.66666        -0.81779         6.89201
     2022.66940         9.61035         6.92692
     2022.67214         8.66049         7.00449
     2022.67488         0.26463         7.01742
     2022.67761        17.14977         7.12601
     2022.68035         6.06491         6.92692
     2022.68309         6.09205         7.17772
     2022.68583        -2.76081         7.38070
     2022.68856        10.44233         6.98380
     2022.69130         4.79847         7.02905
     2022.69404         5.54861         7.01224
     2022.69678         6.71075         7.27469
     2022.69952        -0.59111         6.99156
     2022.70225         9.45703         7.18160
     2022.70499         7.83117         7.22427
     2022.70773         7.14831         7.09369
     2022.71047         2.94645         6.91658
     2022.71321        12.41659         6.87003
     2022.71594        10.26973         6.90623
     2022.71868         6.40487         6.95924
     2022.72142        10.16301         7.17514
     2022.72416        14.28615         7.15704
     2022.72689        14.61229         7.06654
     2022.72963         7.37343         6.91916
     2022.73237         5.63857         6.89977
     2022.73511        12.77671         6.85193
     2022.73785         5.37585         6.91658
     2022.74058        23.40399         7.47249
     2022.74332        21.36513         7.46861
     2022.74606        10.52627         6.99156
     2022.74880        -1.58159         6.94631
