# ================= DQRFIT RESULTS ================
# INPUT FILE: series/PNDL.rad
# OUTPUT: LDETRENDED
# FILTER FUNCTION: f(t)
# f(t)=+line(t)+annual(t)+jumps(t)
# line(t)=+P 1+P 2*t
# annual(t)=+P 3*sin(2*pi*t+P 4)
# jumps(t)=+P 5*heav(t-2011.0088  )
# heav(t)=(t<0?0:1)
# TOTAL OBSERVATIONS MTOT= 1402
# INITIAL TIME INTERVAL= 2011.1622 - 2007.0883 =  4.0739
# TOTAL OBSERVATIONS AFTER PREFILTER M= 1398
# TIME-SPAN= 2011.1622 - 2007.0883 =  4.0739
# OBSERVATIONS: USED M=  1398 REJECTED MTOT-M=     4 %USED=   99.7147
# N=  5 PARAMETERS
# MAXSIG= 175.00000
# MAXRES=  17.11126
# SCALE FACTOR FOR LENGTHS: SCL=  10.00000
# SCALE FACTOR FOR SIGMAS: SCLSIG=   1.00000
# CHI^2=   1005.560 DOF=  1393 CHI^2/DOF=   0.72187
# RMS=      5.044 SDEV=      5.045 MEAN=    0.07366
#  P #       PARAMETER +-    SIGMA %error PARAMETER NAME
# P 1 =      3912.92118 +-  253.768   6.49 YZERO                              
# P 2 =        -1.93251 +-    0.126   6.54 SLOPE                              
# P 3 =         4.21069 +-    0.190   4.52 ANNUAL AMPLITUDE                   
# P 4 =        -2.70522 +-    0.058   2.13 ANNUAL PHASE                       
# P 5 =       -19.78646 +-    0.774   3.91 OFFSET 2011.0088                   
#       T            LDETRENDED       SIG_OBS
     2007.08830        -6.18102         4.72138
     2007.09104        -6.16773         4.75706
     2007.09378        -8.79344         4.68145
     2007.09651        -6.80915         4.64916
     2007.09925        -5.39786         4.67805
     2007.10199        -6.66157         4.66870
     2007.10473        -7.92028         4.76471
     2007.10747        -4.81699         4.85052
     2007.11020        -5.86370         4.66190
     2007.11294        -4.65340         4.66105
     2007.11568        -9.47411         4.64661
     2007.12115        -7.87453         4.65851
     2007.12389        -6.67424         4.74687
     2007.12663        -2.16395         4.76301
     2007.12937        -2.49566         4.80464
     2007.13211        -4.71737         4.65256
     2007.13484         5.48892         4.67465
     2007.13758         2.21121         4.69589
     2007.14032         0.36850         4.68909
     2007.14306         0.99580         4.70693
     2007.14580        -4.93791         4.68909
     2007.15127         0.03867         4.71543
     2007.15401         0.17696         4.74347
     2007.15675         6.05925         4.74602
     2007.15948         4.25454         4.73242
     2007.16222        -2.33517         4.88111
     2007.16496         1.72912         4.85987
     2007.16767        -7.93663         4.85732
     2007.17046        -6.07424         4.88790
     2007.17317        -2.89900         4.84033
     2007.17591        -3.81871         4.79954
     2007.17865         0.80758         4.81059
     2007.18139         2.23087         5.05613
     2007.18413        -1.97284         4.81739
     2007.19062        -6.08928         9.24394
     2007.19234        -6.22597         4.88196
     2007.19508        -1.45768         4.76811
     2007.19781        -2.93639         4.75026
     2007.20055        -7.60409         4.81229
     2007.20329        -5.02480         4.79699
     2007.20603        -3.40351         4.75196
     2007.20877         1.37978         4.77915
     2007.21150        -3.92693         4.80719
     2007.21424        -0.41064         4.83098
     2007.21698         1.38565         4.80889
     2007.21972        -2.35306         4.72902
     2007.22246         2.20623         4.72987
     2007.22519        -0.47748         4.77151
     2007.22793        -1.61619         4.79020
     2007.23341        -1.62660         4.79360
     2007.23614        -8.50131         4.78255
     2007.23779        -7.89713        11.07744
     2007.24162        -7.80573         4.74262
     2007.24436        -1.28144         4.75706
     2007.24710        -0.94215         4.70354
     2007.24983         0.76614         4.67125
     2007.25257        -4.38357         4.75621
     2007.25531        -8.82628         4.85052
     2007.25805        -4.96099         4.80549
     2007.26079        -5.67469         4.73412
     2007.26352         1.59160         4.71883
     2007.26626        -0.94611         4.69419
     2007.26900         2.91018         4.84033
     2007.27174        -0.34753         4.79445
     2007.27447         3.71176         4.66615
     2007.27721         8.23805         4.69504
     2007.27995         1.45834         4.79614
     2007.28271        12.46567         9.21336
     2007.28543        -1.93108         4.74347
     2007.28816        -0.12379         4.77490
     2007.29090         1.32751         5.34925
     2007.29364         2.11580         4.90999
     2007.29638         1.42809         4.78255
     2007.29911         0.04138         7.04851
     2007.30186         1.77168         4.92614
     2007.30459        -0.15904         5.10456
     2007.30733         1.11425         4.83608
     2007.31007        -1.53746         4.96692
     2007.31228         1.72382         6.61265
     2007.32102         0.93671         4.96267
     2007.32376        -3.68000         4.79530
     2007.32648         0.82627         4.78510
     2007.32922         2.51656         4.83778
     2007.33196        -2.00715         4.95757
     2007.33428        -0.94667         5.92530
     2007.33744         0.76343         4.83693
     2007.34017        -0.07328         4.86411
     2007.34291        -2.69299         4.84287
     2007.34565        -7.06169         4.86242
     2007.34839        -0.24540         4.98476
     2007.35112         9.28289         5.09946
     2007.35386       -11.57282         5.22096
     2007.36208        -2.13095         4.89215
     2007.36481        -4.45066         4.88536
     2007.36755       -10.44237         4.82843
     2007.37029        -1.59508         4.84882
     2007.37303        -0.64079         4.96692
     2007.37577        -3.00549         4.98646
     2007.37850        -3.70520         4.86496
     2007.38124         0.21609         4.85392
     2007.38398        -0.02762         4.92444
     2007.38672        -3.98933         4.79020
     2007.38945        -2.62504         4.88875
     2007.39219        -6.18775         4.97712
     2007.39493        -5.60246         4.87516
     2007.39767        -3.51217         4.89385
     2007.40041        -6.48688         4.94653
     2007.40314         0.37141         4.86242
     2007.40588        -6.65129         4.83523
     2007.40862        -8.47800         4.89045
     2007.41136        -6.13771         4.82333
     2007.41410        -6.55242         4.84712
     2007.41683        -4.41313         4.85392
     2007.42231         2.50045         4.91934
     2007.42505        -3.97126         4.98561
     2007.42778         5.70203         4.81229
     2007.43052         2.48732         4.78765
     2007.43326         4.06361         4.79105
     2007.43600        -5.52109         4.86751
     2007.43874        -5.14580         4.88196
     2007.44421        -7.80422         4.91169
     2007.44695        -1.15893         4.94993
     2007.44969        -8.96864         4.95503
     2007.45243        -0.44835         4.91594
     2007.45516        -0.14706         4.84202
     2007.45790        -0.39377         4.85477
     2007.46064        -0.75248         4.81908
     2007.48254       -13.39515         4.80889
     2007.48528        -6.34286         4.79360
     2007.48802        -2.14957         4.74602
     2007.49076        -3.23828         5.18273
     2007.49453         1.04503         9.80640
     2007.49623         3.76031        13.53541
     2007.49937        10.54937         9.68490
     2007.50172        -0.78209         6.17509
     2007.50537       -18.07504        15.88463
     2007.50718        -4.23453         4.76131
     2007.50992        -2.75224         4.79699
     2007.51266        -3.30695         4.80974
     2007.51540        -0.86166         4.85902
     2007.51813         1.58863         4.82078
     2007.52087        -0.15808         4.75111
     2007.52361        -1.27879         4.77320
     2007.52635         2.76551         4.82843
     2007.52908        -0.38020         5.43506
     2007.53189         0.50222         5.02809
     2007.53456        -2.46062         4.86581
     2007.53730         0.22067         4.79699
     2007.54004         0.83796         4.80549
     2007.54277         5.49325         4.84882
     2007.54551        -0.87546         4.92699
     2007.54825         7.30483         4.80549
     2007.55099        -2.36688         4.73667
     2007.55373        -1.99259         4.79784
     2007.55646        -0.79929         4.81569
     2007.55920         3.70400         4.88281
     2007.56194         0.28229         5.55316
     2007.56468        -1.41542         4.82163
     2007.56741         5.34687         4.83608
     2007.57015         0.66916         4.80209
     2007.57289         2.56245         4.78340
     2007.57563         2.92774         4.85902
     2007.57837         4.40303         4.76216
     2007.58110         2.75032         4.82418
     2007.58384         5.17461         4.78935
     2007.58658         0.64991         4.87771
     2007.58932         3.20320         4.83268
     2007.59206         9.02849         4.79445
     2007.59479         9.55178         4.87771
     2007.59753         7.49107         4.94483
     2007.60027         4.29436         4.82673
     2007.60301        12.71665         4.85307
     2007.60574         4.78994         4.86157
     2007.60848         6.88123         4.71373
     2007.61122         7.08152         4.74432
     2007.61396        -0.02319         4.76301
     2007.61670        -0.90689         5.01620
     2007.61943         6.46940         5.15724
     2007.62303        11.33535         8.30680
     2007.62491         5.07298         4.97542
     2007.62769         5.10135         5.15894
     2007.63039         8.89056         5.03234
     2007.63312         3.81085         4.98306
     2007.63586        -1.31286         4.87261
     2007.63860        -0.21657         4.95503
     2007.64134         0.07172         4.80634
     2007.64407        10.10301         4.99411
     2007.64681        -1.98969         5.10796
     2007.64955         3.11060         5.14449
     2007.65229         1.77589         5.06293
     2007.65503         2.26618         4.93209
     2007.65776         1.57347         4.95672
     2007.66050         0.20276         5.01195
     2007.66324       -10.85795         5.37389
     2007.66598         5.63534         5.11051
     2007.66872         9.83463         5.03574
     2007.67145         0.59892         4.97287
     2007.67419         2.61621         4.97202
     2007.67693        15.62451         4.98306
     2007.67967         7.89880         4.92104
     2007.68537         6.54182         5.42317
     2007.68750         0.18694         5.96608
     2007.69142        11.42550         7.32718
     2007.69336         7.19725         4.95757
     2007.69609         4.65554         4.96267
     2007.69883         3.85083         4.98476
     2007.70157         7.42212         4.97542
     2007.70431         7.95141         5.09776
     2007.70705        10.30571         5.02045
     2007.70978         8.96400         4.96522
     2007.71252         3.63329         5.01195
     2007.71526         8.24058         4.79445
     2007.71800         9.02787         4.82078
     2007.72073        11.36616         4.84287
     2007.72347        10.93945         4.87516
     2007.72621         8.99774         4.81908
     2007.72895         4.15803         4.78850
     2007.73169         7.79032         4.84542
     2007.73442         6.96761         4.80209
     2007.73716         5.83491         4.92869
     2007.73990         9.91820         4.82758
     2007.74264        14.28049         4.76046
     2007.74538         7.50478         4.81824
     2007.74811        -0.32393         4.94823
     2007.75085        12.38336         5.16998
     2007.75359         4.81065         5.05528
     2007.75633         8.86194         4.85137
     2007.75906         9.33823         4.77236
     2007.76180         7.75252         4.83438
     2007.76454         3.26981         4.81739
     2007.76728         4.91811         5.10796
     2007.77002         9.91440         5.13090
     2007.77275         5.12469         4.99751
     2007.77549         6.60498         4.79614
     2007.77823        11.41327         4.95927
     2007.78100         8.22862         4.83013
     2007.78371         6.12085         4.75706
     2007.78644        10.71514         4.80464
     2007.78918         5.30443         4.86581
     2007.79192         7.36172         4.91339
     2007.79466        11.28001         4.95757
     2007.79739        11.77231         5.05528
     2007.80013        15.48660         4.82503
     2007.80281        -0.22022         4.88026
     2007.80561         3.92418         4.78935
     2007.80835         6.67747         4.94228
     2007.81108         5.70976         4.94313
     2007.81382         3.53705         4.99071
     2007.81656        -2.62466         4.99921
     2007.81930         0.04063         4.85562
     2007.82203        -1.23808         4.87006
     2007.82477        -1.14179         4.86666
     2007.82751        -0.78849         4.95418
     2007.83025         4.31680         4.86496
     2007.83299         3.34509         5.06038
     2007.83572         0.78538         4.75791
     2007.83846         3.41067         4.81059
     2007.84120         4.61197         4.77405
     2007.84400        -0.03263         4.82333
     2007.84674        -0.99234         4.82758
     2007.84948         0.68995         4.80379
     2007.85221         3.55324         4.93633
     2007.85495         1.37353         4.97372
     2007.85769         2.00783         4.94823
     2007.86043         6.63112         4.79105
     2007.86316         4.03541         4.84627
     2007.86590         7.58670         4.87771
     2007.86864         2.08699         4.84797
     2007.87138         1.68328         5.03829
     2007.87412         6.55657         4.96352
     2007.87685         3.66086         4.90405
     2007.87959        -0.53585         4.89215
     2007.88233        -6.04756         4.86072
     2007.88507        -0.80427         4.88026
     2007.88781         0.71903         4.88196
     2007.89054        -1.71368         4.97627
     2007.89287        -3.86018         5.93040
     2007.89720        -7.41882        18.45050
     2007.89876         0.80019         5.01535
     2007.90149        -5.68752         4.93548
     2007.90423         0.72277         5.07397
     2007.90697        -2.27194         4.98476
     2007.90971       -13.03065         5.05868
     2007.91518        -8.06307         4.97287
     2007.91792       -16.99677         5.01280
     2007.92066         2.92952         5.21671
     2007.92340         0.78281         5.06633
     2007.92614         4.60010         4.98986
     2007.92887        -0.46061         4.94823
     2007.93161        12.65468         5.00006
     2007.93435       -10.74203         4.96607
     2007.93709       -10.81874         4.98136
     2007.93982       -20.92445         4.96862
     2007.94256        -9.72016         4.90065
     2007.94530       -12.19087         5.11815
     2007.94804        -6.82657         4.92699
     2007.95078        -2.87928         4.92784
     2007.95345         3.54489         4.93293
     2007.95619         3.84918         4.88960
     2007.95893         7.11647         4.95503
     2007.96167         6.65176         4.96522
     2007.96530         5.00278         8.79024
     2007.96714         7.22834         5.01195
     2007.96988        -4.56537         4.94993
     2007.97262        -4.77008         5.04424
     2007.97535        -6.10378         4.91254
     2007.97809         0.10751         4.86242
     2007.98083        -2.28920         4.83523
     2007.98357         0.50709         4.84712
     2007.98631        -0.37362         4.98221
     2007.98904         1.39767         5.04169
     2007.99178         1.68596         4.95757
     2007.99452        -2.60275         4.97202
     2007.99726        -4.91246         4.81484
     2008.00068       -20.42284         7.10798
     2008.00273       -10.79888         4.89045
     2008.00547         0.18042         4.79275
     2008.00821         9.59171         4.96437
     2008.01095        13.99000         4.82248
     2008.01368         1.49129         4.77660
     2008.01642         5.31358         4.75621
     2008.01916        -2.77213         4.82928
     2008.02190        -1.89684         4.83863
     2008.02464         3.71445         4.81484
     2008.02737        -3.40026         4.79445
     2008.03011        -0.67597         4.94058
     2008.03285        -9.56168         4.76556
     2008.03644        -4.16073         8.10289
     2008.03833        -6.92409         4.97457
     2008.04106       -10.03880         4.85477
     2008.04380        -7.11351         4.91084
     2008.04654        -9.28122         4.82758
     2008.04928        -6.52993         4.81059
     2008.05201        -7.56664         4.76896
     2008.05475        -2.41635         4.79954
     2008.05749       -10.86506         4.76726
     2008.06023        -4.80277         4.72902
     2008.06297        -1.80048         4.74007
     2008.08333         6.24788        12.43514
     2008.08510        -2.88171         5.22606
     2008.08761        -1.73786         4.75536
     2008.09034        -8.51057         4.70863
     2008.09308        -9.16328         4.75111
     2008.09582         0.71702         4.87091
     2008.09856        -2.76969         4.89725
     2008.10130         0.82860         5.02809
     2008.10403         3.40689         4.91424
     2008.10677         2.25118         4.75536
     2008.10951         2.50947         4.79614
     2008.11225        -4.13824         4.75026
     2008.11498        -4.72495         4.82418
     2008.11861        -3.65795         7.52940
     2008.12046        -2.34937         4.75536
     2008.12320        -0.29708         4.95333
     2008.12571        -6.37723         5.85903
     2008.12902        -4.53083         7.32803
     2008.13141        -1.99620         4.80294
     2008.13415         0.50609         4.75196
     2008.13689         2.67238         4.75536
     2008.13963         2.95667         4.74007
     2008.14236         4.52996         4.79020
     2008.14510         4.82425         4.80379
     2008.14784         4.70354         4.75196
     2008.15058        -1.44817         4.76811
     2008.15331        -7.33388         4.72053
     2008.15697        -7.80281         7.71461
     2008.15879        -0.12829         4.73497
     2008.16153        -6.61100         4.72733
     2008.16427         1.06229         4.78000
     2008.16700        -3.09442         4.72563
     2008.16974        -6.02513         4.77915
     2008.17248        -1.33984         4.75451
     2008.17522        -6.27455         4.80464
     2008.17796        -8.55526         4.69419
     2008.18069        -6.53097         4.70184
     2008.18343        -2.29868         4.73242
     2008.18611        -4.05649         4.82503
     2008.18891        -4.90909         4.72648
     2008.19164         1.40820         4.75621
     2008.19438        -8.43851         4.73752
     2008.19712        -2.40322         5.79786
     2008.19986         0.49007         4.78765
     2008.20260         0.18836         4.73497
     2008.20533         1.33965         4.74347
     2008.20807        -2.20906         4.93293
     2008.21081        -8.65777         4.89640
     2008.21355         0.71952         5.01875
     2008.21629        -3.31918         4.80549
     2008.21902        -7.33489         4.87176
     2008.22176        -9.33060         4.79530
     2008.22450        -6.80231         4.81314
     2008.22724        -2.27702         4.83353
     2008.22997        -4.89473         4.86836
     2008.23271        -0.28244         4.90745
     2008.23545        -6.60815         6.57187
     2008.23819        -4.64486         4.84118
     2008.24093         2.00743         4.72223
     2008.24366        -9.00028         4.77575
     2008.24640        -5.34898         4.72563
     2008.24914        -1.24569         4.76131
     2008.25188        -0.51040         4.81739
     2008.25462        -2.37211         4.71968
     2008.25735         1.35918         4.76046
     2008.26009         0.93047         4.69164
     2008.26283        -2.37524         4.79020
     2008.26557        -4.90595         4.73837
     2008.26830         0.05334         4.74092
     2008.27104         1.72563         4.80889
     2008.27378        -1.44108         4.75536
     2008.27594        -9.16991         6.53533
     2008.28840        11.20718         8.66874
     2008.29021         5.44867         6.95675
     2008.29294        -1.87205         7.56338
     2008.29568         3.35825         7.84121
     2008.29842        -3.45446         4.71458
     2008.30116         2.06983         4.74857
     2008.30390        -1.81088         4.77405
     2008.30663         3.48242         4.91254
     2008.30937        -0.44429         4.97881
     2008.31211        -1.98000         5.05698
     2008.31485         0.73429         4.73667
     2008.31759        -5.67342         4.78510
     2008.32032        -3.34713         4.80124
     2008.32306        -0.17884         4.84797
     2008.32580         5.40845         4.89470
     2008.32854         0.01874         4.73752
     2008.33128        -0.97897         4.70693
     2008.33401        -4.23368         4.72308
     2008.33675        -1.85938         4.72053
     2008.33949        -5.51009         4.94483
     2008.34223        -2.09680         4.69844
     2008.34496        -5.30551         4.86496
     2008.34770         1.18578         4.79275
     2008.35044        -1.50593         4.73582
     2008.35318        -0.89864         4.67975
     2008.35592         2.83265         4.69164
     2008.35865         8.30594         4.79954
     2008.36139         2.40323         5.02894
     2008.36413         2.78052         4.64831
     2008.36687        -6.32818         4.69249
     2008.36961        -8.25289         4.69164
     2008.37234        -7.46060         4.66020
     2008.37508         1.42169         6.87943
     2008.37782         2.04298         4.82248
     2008.38056        -2.23273         4.72902
     2008.38329         1.99656         4.76131
     2008.38603         3.66085         4.77151
     2008.38877         1.73714         4.90745
     2008.39151        -2.94657         4.81144
     2008.39425        -2.30328         4.66955
     2008.39698        -1.25998         4.80294
     2008.39972         7.55231         4.76131
     2008.40246        -1.38940         5.26259
     2008.40520        -3.28411         4.88621
     2008.40794         2.89718         4.73412
     2008.41067         3.22447         4.74687
     2008.41341         0.04876         4.73412
     2008.41615         4.25705         4.75706
     2008.41889         0.91034         4.83608
     2008.42162        -6.23737         4.81824
     2008.42413         2.05848         5.26174
     2008.42710         0.71322         4.72563
     2008.42984         0.18651         4.85647
     2008.43258         5.57080         4.86921
     2008.43531        -5.93591         4.84627
     2008.43805         3.33238         4.87941
     2008.44079         0.87367         4.89725
     2008.44353        -3.90004         4.73327
     2008.44626        -3.89075         5.14959
     2008.44900        -0.06046         4.77575
     2008.45174       -12.39617         4.92104
     2008.45448         0.93012         4.86157
     2008.45722        -1.44058         4.82333
     2008.45995        -2.23929         4.81739
     2008.46269        -1.61800         4.80124
     2008.46543        -2.51671         4.72223
     2008.46817        -0.16942         4.72563
     2008.47091        -8.38613         4.84712
     2008.47364        -9.46584         4.90915
     2008.47638         3.67945         4.82843
     2008.47912         0.75574         4.78935
     2008.48186         3.09803         4.72733
     2008.48459        -1.13268         4.91934
     2008.48733        -7.59438         4.73837
     2008.49007        -6.19709         4.79530
     2008.49281        -0.60280         4.77660
     2008.49555        -2.83551         5.09521
     2008.49828         0.17978         4.96947
     2008.50102         3.94107         4.89725
     2008.50376         7.28336         4.89895
     2008.50650         5.43265         4.89895
     2008.50924         0.72394         4.86157
     2008.51197         0.95323         4.81908
     2008.51471        -2.97448         4.71458
     2008.51745        -1.63518         4.76726
     2008.52019         5.55811         4.81908
     2008.52292         6.54040         4.98901
     2008.52566         2.41369         4.92529
     2008.52840         1.52298         4.75706
     2008.53114         0.51227         4.83523
     2008.53388         4.90756         4.83863
     2008.53661        -2.74515         4.94568
     2008.53935         0.02014         4.99666
     2008.54209        -2.45757         4.76556
     2008.54483         1.96172         4.92019
     2008.54757         7.12102         4.85732
     2008.55030         5.02131         4.78680
     2008.55304         5.22760         4.83948
     2008.55578         0.13989         4.82078
     2008.55852         7.55718         4.85137
     2008.56125        -3.59753         4.73157
     2008.56399         1.49776         4.74517
     2008.56673         8.08705         4.76131
     2008.56947         5.94634         4.75876
     2008.57221         6.42263         4.87941
     2008.57494         8.06093         4.92444
     2008.57768         2.91722         5.14534
     2008.58042         6.55451         4.78765
     2008.58316        14.14980         4.74092
     2008.58590         6.01209         4.78000
     2008.58863        -0.72862         4.87686
     2008.59137         4.32167         5.60414
     2008.59411         6.32796         4.77236
     2008.59685         0.40025         4.79105
     2008.59958         8.61854         5.06548
     2008.60232         7.34383         5.30422
     2008.60506        11.23113         4.93888
     2008.60780         9.53642         4.93548
     2008.61054        -2.52029         4.91169
     2008.61327         2.93100         4.85392
     2008.61601         8.00129         4.88875
     2008.61875         0.81358         4.80974
     2008.62155         3.77099         4.94483
     2008.62423         5.85516         4.92359
     2008.62696         6.14645         4.82163
     2008.62970         4.90974         4.97372
     2008.63244        16.21203         4.98051
     2008.63518        11.22133         5.04848
     2008.63791        16.38662         4.95418
     2008.64065         6.03091         4.75281
     2008.64339         8.63020         4.78170
     2008.64613        14.13849         4.89130
     2008.64887        12.18478         4.97457
     2008.65160         8.95107         4.71883
     2008.65434         8.00136         4.88366
     2008.65708         3.48965         4.96692
     2008.65982        11.22294         4.85222
     2008.66256        21.29523         5.19377
     2008.66529        12.40553         4.86496
     2008.66803         1.75582         4.78085
     2008.67077         2.23211         4.77066
     2008.67351         4.67940         4.82928
     2008.67624         3.70769         5.19292
     2008.67898         2.01698         4.88196
     2008.68172         3.84627         4.72733
     2008.68446         5.26156         4.83353
     2008.68720         4.02385         4.72733
     2008.68993         6.85714         4.77745
     2008.69267         6.63043         4.83948
     2008.69541         7.28473         4.74942
     2008.69815        11.01202         4.94483
     2008.70089         8.71731         4.82843
     2008.70362         5.82860         4.70948
     2008.70636         8.44689         4.78595
     2008.70910         4.95218         4.77490
     2008.71184         6.45847         4.89810
     2008.71457         3.08576         4.76811
     2008.71731         1.57705         4.76471
     2008.72005         0.89334         4.77660
     2008.72279         3.39163         4.78000
     2008.72553        12.01593         4.80124
     2008.72826         6.61322         4.72223
     2008.73100         7.11851         4.75536
     2008.73374         7.61480         4.82503
     2008.73648         2.52009         4.69929
     2008.73921         5.95838         4.73837
     2008.74469         3.10696         4.67210
     2008.74743         1.90025         4.68909
     2008.75017         4.84454         4.73072
     2008.75290         9.94483         4.78425
     2008.75564         4.52013         4.85307
     2008.75838         5.62342         4.70523
     2008.76112        10.83971         4.68229
     2008.76386         2.42900         4.76471
     2008.76659        11.79829         4.83693
     2008.76933         2.88458         4.79020
     2008.77207         2.09787         4.62282
     2008.77481         1.75316         4.65766
     2008.77754         0.77545         4.61093
     2008.78028         3.30374         4.64661
     2008.78302        -3.89197         4.65851
     2008.78576        -0.14367         4.85392
     2008.78850         0.40062         4.70439
     2008.79123         1.43491         4.83438
     2008.79397         0.30720         4.77066
     2008.79671         2.50649         4.81569
     2008.79945        -1.78922         4.77236
     2008.80219         1.53307         4.77405
     2008.80492         3.39336         4.75196
     2008.80766        -0.49035         4.64066
     2008.81040         7.68994         4.66020
     2008.81314         1.60723         4.82928
     2008.81587         4.66953         4.73922
     2008.81861         1.83282         4.59733
     2008.82135        -2.60089         4.64916
     2008.82409         2.87440         4.69844
     2008.82683         9.80169         4.88451
     2008.82956        -2.85702         4.72308
     2008.83230        -1.87373         4.64321
     2008.83504         6.17456         4.68654
     2008.83778         8.17286         5.07397
     2008.84058         5.24826         4.80974
     2008.84332         9.93955         5.14789
     2008.84599         9.41573         4.72393
     2008.84879         0.11613         4.80039
     2008.85147         4.81331         4.79614
     2008.85420         0.99560         4.75706
     2008.85694         2.42189         4.76046
     2008.85968         6.60918         4.67125
     2008.86242         3.30247         4.75111
     2008.86516        17.44476         4.78680
     2008.86789         9.20305         4.88196
     2008.87063        -0.54766         4.79275
     2008.87337         1.04363         4.72563
     2008.87606        -0.83817         4.78765
     2008.87914        -9.94220         5.40703
     2008.88158        -4.01649         4.69334
     2008.88432        -2.85020         4.70269
     2008.88706        -4.82691         4.86666
     2008.88980        -3.59262         4.83013
     2008.89253         4.99267         5.00090
     2008.89527         0.65296         4.86242
     2008.89801         1.96925         4.89810
     2008.90075        -0.13246         4.78850
     2008.90326         1.21439         5.21926
     2008.90724        -6.49992        10.74099
     2008.90896         1.07842         4.72563
     2008.91170        -5.72529         4.73582
     2008.91444         1.60100         4.76046
     2008.91718         2.43529         4.66955
     2008.91991         6.06858         4.76896
     2008.92265        -0.58913         4.71543
     2008.92539        -4.53284         4.76301
     2008.92813         1.60345         4.78085
     2008.93086        -0.00626         4.76726
     2008.93360         1.29003         4.76981
     2008.93634        -0.97567         4.74602
     2008.93908        -8.38338         4.72223
     2008.94182        -4.85709         4.71203
     2008.94455        -6.90280         4.81824
     2008.94729         2.13849         4.81144
     2008.95003         1.63778         4.72138
     2008.95277        -2.16193         4.65681
     2008.95551        -1.79264         4.62962
     2008.95824        -9.75435         4.66445
     2008.96098        -1.81606         4.70693
     2008.96372         4.01923         4.67805
     2008.96604         4.39472         5.64577
     2008.96999       -17.40665         7.81572
     2008.97193        -5.88989         4.77575
     2008.97467       -13.40160         4.68399
     2008.97741       -13.01031         4.71883
     2008.98015        -2.00602         4.68060
     2008.98538       -17.46790         5.29488
     2008.98931        -8.19331         9.04598
     2008.99110         6.31214         4.80209
     2008.99358        -7.27706         5.29403
     2008.99749       -14.40351         8.44784
     2008.99931        -4.41098         4.71203
     2009.00479        -6.54340         4.75536
     2009.00752         2.77989         4.74772
     2009.01026        -1.93982         4.72648
     2009.01300         6.96847         4.68654
     2009.01574        -0.98024         4.74942
     2009.01848        -2.77795         4.77830
     2009.02121         1.26334         4.90150
     2009.02395        -4.18437         4.86836
     2009.02669        -7.74307         4.76046
     2009.02943       -14.04878         4.73582
     2009.03216       -12.95549         4.76896
     2009.03490       -14.78420         4.77236
     2009.03764       -10.74591         4.70948
     2009.04038       -10.02862         4.70608
     2009.04312       -13.24233         4.67550
     2009.04585       -13.24204         4.69589
     2009.04859       -15.52075         4.69249
     2009.05133        -9.16946         4.71203
     2009.05407       -11.20117         4.75366
     2009.05681        -7.80687         4.70778
     2009.05960        -8.16647         4.85817
     2009.06228       -12.67329         4.70608
     2009.06502       -13.08200         4.73837
     2009.06776       -13.87771         4.67720
     2009.07049        -9.87342         4.61093
     2009.07323       -12.17513         4.76471
     2009.07597        -5.03884         4.70693
     2009.07871        -8.50855         4.68994
     2009.08145       -11.36626         5.32461
     2009.08418         0.21003         4.95333
     2009.08692        -2.30267         4.79105
     2009.08966       -11.15638         4.63641
     2009.09240        -9.97709         4.80294
     2009.09514        -4.11680         4.67040
     2009.09787        -2.01551         4.68060
     2009.10061        -0.87422         4.69334
     2009.10335        -6.38893         4.68060
     2009.10609         1.97736         4.68060
     2009.10882         2.12865         4.66190
     2009.11156        -2.69506         4.64321
     2009.11430        -9.08177         4.71968
     2009.11704        -0.29547         4.73837
     2009.11978         0.41782         4.65001
     2009.12251        -2.02689         4.73497
     2009.12525        -4.69760         4.65681
     2009.12799         1.32469         4.71883
     2009.13073         0.17598         4.63217
     2009.13347        -4.26373         4.65171
     2009.13620        -7.12544         4.67550
     2009.13894        -5.26215         4.74177
     2009.14168        -9.88286         4.70863
     2009.14442        -3.42057         4.61008
     2009.14715        -9.47627         4.76811
     2009.14989        -6.82998         4.79445
     2009.15263         0.82731         4.81654
     2009.15537        -6.88040         4.85987
     2009.15811        -7.74911         4.77915
     2009.16084       -10.17982         4.80549
     2009.16358        -5.07253         5.46565
     2009.16632        -2.76224         4.92529
     2009.16906        -0.90195         4.91084
     2009.17180        -3.76166         4.79105
     2009.17453        -2.76037         4.63302
     2009.17727         0.96293         4.82843
     2009.18001        -0.87178         4.65001
     2009.18280        -2.49338         4.80549
     2009.18548        -4.60220         4.75026
     2009.18822        -9.16191         4.74432
     2009.19096        -7.98462         4.65001
     2009.19370        -7.19233         4.66530
     2009.19644        -6.90604         4.63641
     2009.19917        -3.33775         4.74942
     2009.20188        -5.97652         4.92529
     2009.20465        -8.91016         4.67210
     2009.20739        -9.10187         4.67465
     2009.21013        -8.69258         4.63472
     2009.21286        -5.75229         4.64661
     2009.21560        -0.45000         4.71458
     2009.21834        -3.92171         4.64236
     2009.22108         2.71558         4.70948
     2009.22381        -6.37913         4.64491
     2009.22655        -6.32384         4.66955
     2009.22929        -2.33055         4.73072
     2009.23203        -7.83926         4.72563
     2009.23477        -2.83096         4.85052
     2009.23750        -2.31067         4.70184
     2009.24024        -1.14538         4.71883
     2009.24298        -2.34309         4.68569
     2009.24572         3.17220         4.79020
     2009.24846         1.12449         4.74942
     2009.25119        -4.87722         4.90065
     2009.25393        -0.13893         4.81314
     2009.25667        -4.76364         4.71118
     2009.25941        -5.96435         4.78425
     2009.26214        -5.25106         4.80634
     2009.26488        -5.88976         4.71798
     2009.26762         3.93953         4.70948
     2009.27036        -1.47418         4.72902
     2009.27310        -1.35589         4.77660
     2009.27583        -0.37160         4.84712
     2009.27857        -5.99131         4.78000
     2009.28131        -5.98302         4.79105
     2009.28405        -6.16273         4.77575
     2009.28679         0.71256         4.82673
     2009.28952        -5.11815         4.80294
     2009.29226       -10.12886         4.86581
     2009.29500        -5.87556         4.78425
     2009.29774        -5.36327         4.76726
     2009.30047        -6.89098         4.75026
     2009.30321        -7.82469         5.06378
     2009.30595         1.53360         4.92104
     2009.30869         2.78289         4.74857
     2009.31143        -1.47982         4.70014
     2009.31416         2.34647         4.70184
     2009.31690        -7.84724         4.78765
     2009.31964        -1.37795         4.80379
     2009.32238        -9.52066         4.78000
     2009.32512        -6.10536         4.72902
     2009.32785        -4.94807         4.74347
     2009.33059        -7.06978         4.67635
     2009.33333        -6.76049         4.80294
     2009.33607        -3.67020         4.86836
     2009.33880        -3.99891         4.69929
     2009.34154        -2.80762         4.74007
     2009.34428        -6.93333         4.70863
     2009.34702        -4.60904         4.74007
     2009.34976        -6.99675         4.73667
     2009.35249        -9.43646         4.74517
     2009.35523       -10.96716         4.63981
     2009.35797         2.37913         4.71713
     2009.36071        -0.70258         4.89725
     2009.36344        -4.65529         4.75961
     2009.36618        -0.45900         4.78170
     2009.36892        -3.05271         4.74517
     2009.37166        -5.41942         4.64491
     2009.37440        -5.24813         4.79614
     2009.37713        -6.47584         4.81399
     2009.37987         0.17145         5.00855
     2009.38261        -6.50326         4.79954
     2009.38535        -5.34896         4.67720
     2009.38809        -9.04867         4.65001
     2009.39082        -4.59538         4.76471
     2009.39356        -9.91409         4.78595
     2009.39630        -6.65680         4.72902
     2009.39904        -4.46551         4.70693
     2009.40177        -4.46622         4.67380
     2009.40451        -0.11493         4.74772
     2009.40725        -6.73164         4.79954
     2009.40999        -8.01835         4.84542
     2009.41273        -0.37406         4.77745
     2009.41546         1.19924         4.80379
     2009.41820        -0.72147         4.79105
     2009.42094        -6.28818         4.74602
     2009.42368        -4.01989         4.82503
     2009.42642        -0.09560         4.93463
     2009.42915        -3.04731         4.83948
     2009.43189        -3.24802         4.74772
     2009.43463        -3.28073         4.72987
     2009.43737        -3.15744         4.74602
     2009.44010        -4.86315         4.79869
     2009.44284         1.92414         4.83438
     2009.44558        -7.06356         4.77575
     2009.44832         0.70473         4.79020
     2009.45106         0.94902         4.75706
     2009.45379        -4.37369         4.75281
     2009.45653        -3.00540         4.78340
     2009.45927       -10.56111         4.85987
     2009.46201         1.36618         4.77745
     2009.46475        -3.41553         5.02045
     2009.46748        -3.27124         4.90320
     2009.47022        -3.01795         4.76641
     2009.47296        -7.86066         4.75536
     2009.47570         2.02764         4.72478
     2009.47843         0.52393         4.74517
     2009.48117        -5.92278         4.86751
     2009.48391        -6.32949         4.76216
     2009.48665        -7.29920         4.82928
     2009.48939        -6.79191         4.82928
     2009.49212         3.12638         4.81229
     2009.49486         4.32667         4.85477
     2009.49760        -0.00504         4.80549
     2009.50034        -1.49875         4.73497
     2009.50308        -2.51946         4.75876
     2009.50581        -6.54816         4.75621
     2009.50855         7.00613         4.94143
     2009.51129         4.97442         4.92529
     2009.51403         6.86271         4.78255
     2009.51676         3.13700         4.69929
     2009.51950        -2.96871         4.78935
     2009.52224        -5.98642         4.85307
     2009.52498        -1.81413         4.83438
     2009.52772         2.62716         4.84457
     2009.53045         0.41945         4.79445
     2009.53319        -4.45226         4.81654
     2009.53593        -4.76196         4.86242
     2009.53867        -6.51467         4.85307
     2009.54141        -3.71638         4.76471
     2009.54414         2.11891         4.76131
     2009.54688         5.37520         4.99156
     2009.54962         2.60249         4.82078
     2009.55236        -4.07022         4.82673
     2009.55509         0.96707         4.79445
     2009.55783         2.24036         4.81484
     2009.56057         6.68065         5.08672
     2009.56331         6.07694         4.98221
     2009.56605         0.40424         5.13430
     2009.56878        -2.69847         4.90999
     2009.57152         3.84382         4.82503
     2009.57426         0.45211         4.86751
     2009.57700         1.20740         4.91849
     2009.57974         1.51069         4.85137
     2009.58247        -0.37402         4.85987
     2009.58521        -0.29273         4.95078
     2009.58795        -0.11144         5.01790
     2009.59069         7.77485         5.02045
     2009.59342         1.33614         4.93973
     2009.59616         3.81544         4.84118
     2009.59890         4.96773         4.85477
     2009.60164        -0.12198         4.83693
     2009.60438        -0.55269         4.83608
     2009.60711         1.41160         4.85307
     2009.60985        -1.61511         4.81059
     2009.61259         9.80318         4.85307
     2009.61533        -0.40253         4.88960
     2009.61807         0.08976         4.90235
     2009.62080         6.98605         4.87856
     2009.62354        -1.14166         4.82078
     2009.62628         2.12164         4.81908
     2009.62902         6.42393         4.92869
     2009.63175         1.49222         4.90915
     2009.63449        -3.34549         4.87516
     2009.63723        -4.60120         5.04933
     2009.63997         2.41709         4.95927
     2009.64271        -3.52162         4.88281
     2009.64544         2.94267         4.93803
     2009.64818         1.14896         4.95842
     2009.65092         0.44425         4.91849
     2009.65366        -3.27946         4.86157
     2009.65639        -8.77316         4.79190
     2009.65913        14.70913         5.38239
     2009.66198         6.32064         5.07652
     2009.66461        -3.55129         4.81314
     2009.66735         4.28500         4.91339
     2009.67008         2.95929         4.87006
     2009.67282         7.12058         4.94313
     2009.67557        -0.87011         4.88196
     2009.67830         4.78516         4.97796
     2009.68104         1.02145         5.04678
     2009.68377       -10.50026         4.89640
     2009.68651         4.80804         4.83013
     2009.68925         3.26833         4.81908
     2009.69199         1.00662         4.86836
     2009.69472        -1.16210         4.84542
     2009.69806         6.44836        10.72994
     2009.70034         6.58676         5.08927
     2009.70294         9.59578         4.88536
     2009.70568         2.52607         4.77830
     2009.70841         0.00436         4.81144
     2009.71115         5.58665         4.92869
     2009.71389         2.40694         5.02469
     2009.71663        -3.22476         5.03914
     2009.71937         3.09453         4.87261
     2009.72210        -4.36318         4.80549
     2009.72484         0.92411         4.92614
     2009.72758        -1.90360         4.90660
     2009.73032         5.75969         4.80124
     2009.73305         6.83598         4.86581
     2009.73579         2.19627         4.89130
     2009.73853         2.83856         4.84202
     2009.74127        10.87185         4.88451
     2009.74401        15.75014         5.04339
     2009.74674         8.48244         4.81229
     2009.74948         1.89273         4.83523
     2009.75222         0.89802         4.84797
     2009.75496         4.19931         4.86242
     2009.75770        -2.23740         4.80124
     2009.76043         3.69589         4.79105
     2009.76317         4.50618         4.79869
     2009.76591         3.52547         4.83098
     2009.76865         1.79476         4.95503
     2009.77138         5.44905         4.80549
     2009.77412         4.26234         4.81569
     2009.77686         5.49864         4.79614
     2009.77960         5.66193         4.81399
     2009.78234         8.96222         4.80974
     2009.78507        12.28851         4.88790
     2009.78781         5.21080         4.92869
     2009.79055         2.47609         4.94738
     2009.79329         3.17838         4.97712
     2009.79603        -0.92033         5.02300
     2009.79876         1.43296         4.96182
     2009.80150        -0.93075         4.96267
     2009.80424         4.05155         4.96267
     2009.80698         3.41884         5.01790
     2009.80971         8.43913         4.99666
     2009.81245         5.81942         5.02894
     2009.81519         7.20371         4.96947
     2009.81793         5.50000         5.06463
     2009.82067         6.01129         4.91764
     2009.82340         2.85358         4.95248
     2009.82614         4.05487         4.90490
     2009.82888         5.44416         4.99241
     2009.83162         9.90045         4.99326
     2009.83436         5.02175         4.93463
     2009.83709         2.01104         4.92699
     2009.83983         2.20633         4.89215
     2009.84257         4.09862         4.91849
     2009.84531         2.75391         5.06718
     2009.84804         8.52820         5.05953
     2009.85078         6.04649         4.94653
     2009.85352         5.89778         4.92869
     2009.85626         4.10507         5.01790
     2009.85900        -1.71264         5.01110
     2009.86173        -0.92535         4.96012
     2009.86447         5.88895         5.21586
     2009.86721         4.04324         5.16658
     2009.86995        -1.70147         4.96862
     2009.87269         5.61582         4.98306
     2009.87542         0.44011         5.03914
     2009.87817        12.13541         5.13345
     2009.88090        -0.33031         4.97627
     2009.88364        -1.01902         4.93548
     2009.88637        -2.11173         5.02384
     2009.88911        10.97756         4.89895
     2009.89185         5.56485         5.02894
     2009.89459         6.85715         4.93888
     2009.89733        -3.91356         4.92359
     2009.90006        -4.62627         4.90320
     2009.90280        -1.17198         4.85817
     2009.90554        -4.68269         4.89045
     2009.90828        -1.16840         4.89640
     2009.91102        -3.42011         4.84627
     2009.91375        -3.25882         4.86581
     2009.91649        -3.08053         4.93463
     2009.91923        -8.61824         4.83013
     2009.92197        -5.21495         7.94741
     2009.92470        -3.73265         4.88536
     2009.92744        -1.42436         4.84372
     2009.93018        -6.68307         4.83863
     2009.93292        -2.56978         4.85137
     2009.93566         0.22051         4.88111
     2009.93839        -1.04420         4.96182
     2009.94113        -1.02191         4.87006
     2009.94387        -0.55362         4.96012
     2009.94661         3.97767         4.97032
     2009.94935        -0.84004         4.78850
     2009.95208       -10.46575         5.75113
     2009.95756       -14.30416         4.97542
     2009.96030        -4.66587         4.86242
     2009.96303        -8.97658         4.84202
     2009.96577        -9.44829         4.87601
     2009.96851        -6.88500         4.85052
     2009.97125        -1.28571         4.95587
     2009.97399         3.07658         4.90235
     2009.97672        -6.38713         4.85562
     2009.97946       -11.95184         4.77320
     2009.98220        -5.99655         4.74857
     2009.98494        -6.19725         4.76216
     2009.98767        -3.20496         4.73242
     2009.99041        -3.63267         4.78850
     2009.99315        -7.36138         4.78255
     2009.99589       -10.40509         5.01365
     2010.00410        -2.65022         4.78510
     2010.00684        -9.74493         4.81144
     2010.00958        -8.06064         4.78425
     2010.01232       -10.95635         4.74772
     2010.01505       -14.64005         4.81144
     2010.01779        -8.67976         4.75026
     2010.02053        -7.60347         4.75111
     2010.02327       -10.59618         4.79105
     2010.02600        -6.57589         4.72053
     2010.02874       -14.10860         4.93718
     2010.03148        -3.35331         4.83948
     2010.03422        -3.97802         4.83183
     2010.03696        -8.61273         5.07482
     2010.03969         1.59156         4.90660
     2010.04243        -2.66115         4.79699
     2010.04517         5.09715         4.78680
     2010.04791        13.60544         4.83438
     2010.05065         4.39673         4.89215
     2010.05338        13.25002         5.00430
     2010.05612        10.98931         4.88281
     2010.05886         7.05060         4.74687
     2010.06160        -0.64811         4.72053
     2010.06433        -3.99382         4.75026
     2010.06707        -5.29953         4.71373
     2010.06981        -4.18624         4.89810
     2010.07255        -7.08395         4.82333
     2010.07529        -5.90765         4.79869
     2010.07802        -3.41336         4.81908
     2010.08076        -1.49507         4.73412
     2010.08316        -8.08844         5.74603
     2010.08578        -0.48037         6.13856
     2010.08852         3.76392         6.38835
     2010.09126         1.14721         6.01706
     2010.09399         1.24150         6.06804
     2010.09673         0.76879         6.14280
     2010.09947        -3.57492         6.06379
     2010.10221        -1.91963         6.21927
     2010.10495        -2.72934         6.25920
     2010.10768        -0.38205         6.10967
     2010.11042        -4.73475         6.34926
     2010.11316        -7.52046         6.21247
     2010.11590         1.28683         6.27959
     2010.11864         0.36612         6.09013
     2010.12137         0.33741         6.05359
     2010.12411        -5.32930         6.08078
     2010.12685        -7.22401         6.52853
     2010.12959       -10.98172         6.16999
     2010.13232        -9.84143         6.20738
     2010.13506        -7.56014         6.19633
     2010.13780        -1.13085         6.12411
     2010.14054        -0.22855         5.98477
     2010.14328        -1.06726         6.35521
     2010.14601        -8.06397         6.21842
     2010.14875         1.07532         6.21332
     2010.15149        -0.05739         5.94739
     2010.15423        -2.43510         5.94314
     2010.15697         0.37919         6.19718
     2010.15970         7.30448         5.91765
     2010.16244        -2.39323         6.11052
     2010.16518         4.19006         6.04425
     2010.16792        -3.62865         5.91001
     2010.17065         1.07165         5.86498
     2010.17339        -4.48506         5.86328
     2010.17613        -6.15277         5.81655
     2010.17887         0.56252         5.86498
     2010.18161         4.63181         5.90406
     2010.18434        -0.85690         5.77916
     2010.18708         2.41239         5.79870
     2010.18982        -3.13132         5.83694
     2010.19256         1.94197         5.80125
     2010.19530        -4.45274         5.80550
     2010.19809        -5.97734         5.63897
     2010.20083        -9.54904         5.65682
     2010.20357        -3.22975         5.67041
     2010.20630        -4.35146         5.76642
     2010.20904        -7.56517         5.65172
     2010.21178        -5.64188         5.63388
     2010.21452        -2.46859         5.61179
     2010.21726        -0.00530         5.63643
     2010.21999         0.40299         5.57695
     2010.22273       -14.18172         5.61519
     2010.22547        -7.54943         5.65512
     2010.22821        -2.70114         5.67976
     2010.23094         0.69916         5.75452
     2010.23368        -7.28455         5.67296
     2010.23916        -3.24997         5.77492
     2010.24190         2.56032         5.97288
     2010.24463        -1.15739         5.73753
     2010.24737        -1.75210         5.74178
     2010.25011         2.04219         5.84968
     2010.25285         4.35748         5.72309
     2010.25559         0.93577         5.70185
     2010.25832        -3.04894         5.73838
     2010.26106         1.43236         5.84883
     2010.26380        -0.95435         5.89981
     2010.26654        11.99494         5.83524
     2010.26927         3.14823         5.77916
     2010.27201        -4.42548         5.72734
     2010.27475         0.96081         5.65597
     2010.27749        -2.74890         5.75028
     2010.28023         5.79939         5.58715
     2010.28296        -4.83132         5.64577
     2010.28570        -6.03903         5.63982
     2010.28844        -7.21073         5.54467
     2010.29118         4.12556         5.58375
     2010.29391        -1.29715         5.57950
     2010.29665         4.16314         5.47245
     2010.29939         1.57943         5.58885
     2010.30213        -3.31228         5.59225
     2010.30487         5.86501         5.53872
     2010.30760         6.95230         5.52937
     2010.31034         5.04659         5.59479
     2010.31308         0.96488         5.62963
     2010.31582         2.52517         5.52003
     2010.31856         5.29147         5.68316
     2010.32129         9.56976         5.60159
     2010.32403         6.39105         5.51748
     2010.32677         6.76234         5.47585
     2010.32951        -0.48537         5.63303
     2010.33224         3.04692         5.45885
     2010.33498         4.70721         5.68825
     2010.33772        -1.01950         5.47075
     2010.34046         0.62979         5.44101
     2010.34320         0.81408         5.43676
     2010.34593        -1.80863         5.54382
     2010.34867        -4.76333         5.37729
     2010.35141         5.68196         5.42742
     2010.35415         1.00125         5.41807
     2010.35728         1.89031         4.68994
     2010.36002        -0.76040         4.75536
     2010.36276         1.07089         4.64406
     2010.36550         0.85918         4.87176
     2010.36824         1.04647         4.80889
     2010.37097         9.72176         4.70099
     2010.37371         4.17005         4.69674
     2010.37645         1.60935         4.70439
     2010.37919         4.29564         4.94483
     2010.38193        -0.36407         4.85477
     2010.38466         7.41222         4.74942
     2010.38740         7.69651         4.70523
     2010.39014         6.10180         4.75196
     2010.39288        -2.14291         7.37476
     2010.39561        -4.41062         4.72478
     2010.39835        -1.63033         4.67465
     2010.40109         2.51296         4.70439
     2010.40383        -1.61875         4.75451
     2010.40657         6.23355         4.58629
     2010.40930        -0.04416         4.62792
     2010.41204        -2.33287         4.61432
     2010.41478         7.11742         4.67805
     2010.41752         2.32171         5.20736
     2010.41991         5.06534         5.40703
     2010.42387        14.09899         8.14537
     2010.42573         1.01458         4.62027
     2010.42847        -5.12613         4.61008
     2010.43121        -2.10584         4.59223
     2010.43394        -0.65454         4.61602
     2010.43668        -4.61425         4.83863
     2010.43942         6.38204         4.59223
     2010.44216        -1.28267         4.55995
     2010.44490        -2.46138         4.56505
     2010.44763        -3.74409         4.61942
     2010.45037         2.92120         4.72563
     2010.45311         0.40649         4.67550
     2010.45585         1.88878         4.64831
     2010.45859        -5.19693         4.68314
     2010.46132        -1.05164         5.67976
     2010.46406         0.88966         4.62537
     2010.46680         4.44395         4.59223
     2010.46954         0.69524         4.61263
     2010.47227        -5.98947         4.52426
     2010.47501         0.33782         4.55060
     2010.47775        -1.57889         4.68994
     2010.48049        -1.01960         4.80464
     2010.48323         6.93869         5.16233
     2010.48596         5.48998         4.57609
     2010.48870         2.91627         4.61008
     2010.49144         4.38556         4.56929
     2010.49418         1.53586         4.62452
     2010.49692         2.02015         4.57354
     2010.49965         3.51944         4.58544
     2010.50239         4.91673         4.64491
     2010.50513         0.52502         4.53871
     2010.50787        -0.09269         4.53786
     2010.51060        -3.11940         4.54466
     2010.51334         2.25589         4.53701
     2010.51608        -1.90782         4.56335
     2010.51882         0.81247         4.59733
     2010.52156         4.88676         4.66700
     2010.52429         2.36306         5.01195
     2010.52703        11.52935         4.98476
     2010.52977         6.10064         4.57609
     2010.53251        -0.21507         4.60413
     2010.53525        -2.64578         4.55995
     2010.53798        -4.01849         4.56080
     2010.54072        -0.09620         4.54466
     2010.54346        -4.06791         4.86157
     2010.54620        -6.81962         4.66785
     2010.54893        -5.71633         4.67635
     2010.55167        -4.39804         4.63557
     2010.55441         6.00026         4.67380
     2010.55715         1.97855         4.66105
     2010.55989         2.52984         5.12495
     2010.56262         1.80213         4.66870
     2010.56536        -1.08458         4.68399
     2010.56810         0.39971         4.61347
     2010.57084        11.16000         4.82673
     2010.57357         4.94529         4.74772
     2010.57631         5.14558         4.95248
     2010.57905         1.20987         4.79869
     2010.58179        -1.18484         4.68060
     2010.58453        -0.66554         4.62537
     2010.58726         3.01675         4.76981
     2010.59000         9.00304         4.75791
     2010.59274        -0.70767         4.64576
     2010.59548        11.20162         5.84543
     2010.59822         2.76691         4.78595
     2010.60095         5.31520         4.69674
     2010.60369        11.30249         4.64321
     2010.60643         4.23778         4.69759
     2010.60917         2.33107         4.73922
     2010.61190        -1.81964         4.64576
     2010.61464         8.62466         4.64831
     2010.61738         7.24395         4.65426
     2010.62012         1.02624         4.66955
     2010.62286         0.20353         4.64236
     2010.62559         3.14982         4.66955
     2010.62833         6.44311         4.77830
     2010.63107         2.84640         4.96862
     2010.63381        10.84369         4.69759
     2010.63655         9.66598         4.65766
     2010.63928         3.24027         4.71713
     2010.64202         3.69756         4.62367
     2010.64476        -3.65614         4.72478
     2010.64750         3.08915         4.63726
     2010.65023         3.06044         5.31612
     2010.65297        -0.78827         4.97117
     2010.65571         4.93802         4.68060
     2010.65845        10.01731         4.64066
     2010.66119         5.35560         4.71118
     2010.66392         9.22589         4.72223
     2010.66666         7.00018         4.72138
     2010.66940        -0.26653         4.67635
     2010.67214         3.43776         4.58204
     2010.67488        10.81106         4.77236
     2010.67761         9.36935         4.63302
     2010.68035         9.68964         4.62877
     2010.68309        12.11193         4.69674
     2010.68583         6.30722         4.70014
     2010.68856         3.11051         4.59223
     2010.69130         7.00579         4.61008
     2010.70227         2.98400         4.97032
     2010.70499         4.24726         4.62197
     2010.70773         6.41455         4.62622
     2010.71047        11.79484         4.71883
     2010.71321         2.61313         4.82673
     2010.71594         1.81542         4.75281
     2010.71868        11.74471         4.73072
     2010.72142         8.99800         5.18867
     2010.72416         9.22229         4.80294
     2010.72689        -0.43242         4.82758
     2010.72963         2.04087         4.68739
     2010.73237         4.48116         4.67125
     2010.73511         4.62346         4.63557
     2010.73785         4.34575         4.78340
     2010.74058         4.55404         4.76386
     2010.74333         4.07534         4.70948
     2010.74606        10.48262         4.73242
     2010.74880         8.20291         4.73497
     2010.75154         5.39120         4.63472
     2010.75427         3.06549         5.06633
     2010.75701         8.67678         4.77745
     2010.75975         8.05307         4.68229
     2010.76249         9.55936         4.64746
     2010.76522         5.03366         4.75791
     2010.76796         4.52795         4.68654
     2010.77070         5.59024         4.70948
     2010.77344         5.70253         4.70099
     2010.77618         4.42982         4.83268
     2010.77891        -0.71689         4.69674
     2010.78165         3.77740         4.71883
     2010.78439         2.42069         4.74177
     2010.78713        12.49598         4.94058
     2010.78987         8.66827         4.77151
     2010.79260         8.98356         4.68739
     2010.79534         1.97586         4.70693
     2010.79808         9.14515         4.70693
     2010.80082         4.31944         4.66190
     2010.80355         7.74373         4.64491
     2010.80629        16.23502         4.93039
     2010.80903        11.09031         4.68314
     2010.81177        11.36160         4.76726
     2010.81439        17.13667         4.83948
     2010.81726        10.01322         4.73157
     2010.81998         8.44547         4.91934
     2010.82272         6.86376         4.87176
     2010.82546         5.45606         4.70523
     2010.82820         1.60435         4.71118
     2010.83093         2.28764         4.92699
     2010.83367         2.51993         4.90575
     2010.83641         1.36622         4.75791
     2010.83915        -7.13249         4.72138
     2010.84188        -2.27120         4.83863
     2010.84462         2.25309         4.70608
     2010.84736         8.28838         4.70099
     2010.85010         5.14367         4.75196
     2010.85284         5.04496         4.68399
     2010.85557         9.52926         4.67465
     2010.85831         1.50755         4.61008
     2010.86105        -3.02216         5.05273
     2010.86379        -1.59687         4.68145
     2010.86653        -6.07058         4.65341
     2010.86926        -2.84929         4.73752
     2010.87200         1.20900         4.61942
     2010.87434        -4.36948         5.52258
     2011.00889       -19.64745         5.02639
     2011.01163       -22.36116         4.96267
     2011.01437       -21.29087         4.71373
     2011.01711       -18.96958         4.69249
     2011.01984       -16.18329         4.70948
     2011.02259       -22.68099         4.63557
     2011.02532       -25.84171         4.65086
     2011.02806       -22.36242         4.90830
     2011.03080       -27.40813         4.57184
     2011.03353       -21.03684         5.00600
     2011.03627       -23.39854         4.68229
     2011.03842       -24.01738         6.09947
     2011.04820       -10.49150         8.18871
     2011.04996       -25.20109         4.67295
     2011.05270       -25.85680         4.52596
     2011.05544       -22.69651         4.55060
     2011.05715       -13.04320         9.69085
     2011.06443       -23.37614         8.27962
     2011.06639       -22.35234         4.62367
     2011.06913       -25.36005         4.99071
     2011.07186       -29.03276         4.67890
     2011.07454       -26.32958         4.80209
     2011.08373       -31.17083         7.63560
     2011.08555       -35.51231         4.56675
     2011.08829       -30.57202         4.59054
     2011.09109       -31.27562         4.69759
     2011.09377       -26.40143         4.64576
     2011.09650       -22.56714         4.63132
     2011.09925       -24.93584         4.57099
     2011.10198       -24.17156         4.59733
     2011.10472       -23.37427         4.60923
     2011.10746       -25.77098         4.72478
     2011.11019       -25.20069         4.61687
     2011.11293       -22.65240         4.63132
     2011.11567       -18.45011         4.64831
     2011.11841       -23.59981         4.85817
     2011.12115       -22.89153         4.66360
     2011.12388       -24.41623         4.78765
     2011.12662       -19.85794         4.80464
     2011.12936       -19.93565         4.64576
     2011.13210       -21.87236         4.66020
     2011.13483       -25.25407         4.56675
     2011.13758       -22.74577         4.58459
     2011.14031       -22.24949         4.62622
     2011.14305       -19.97820         4.75111
     2011.14579       -24.33191         4.68060
     2011.14852       -21.30662         4.51747
     2011.15126       -19.66233         4.55060
     2011.15400       -18.89303         4.64406
     2011.15674       -18.53673         4.84372
     2011.15948       -13.82645         4.77066
     2011.16216       -17.33027         9.56935
