# ================= DQRFIT RESULTS ================
# INPUT FILE: series/POKE.rad
# OUTPUT: LDETRENDED
# FILTER FUNCTION: f(t)
# f(t)=+line(t)
# line(t)=+P 1+P 2*t
# heav(t)=(t<0?0:1)
# TOTAL OBSERVATIONS MTOT=  424
# INITIAL TIME INTERVAL= 2018.3518 - 2006.5134 = 11.8384
# TOTAL OBSERVATIONS AFTER PREFILTER M=  424
# TIME-SPAN=    0.0000 -    0.0000 =  0.0000
# OBSERVATIONS: USED M=   424 REJECTED MTOT-M=     0 %USED=  100.0000
# N=  2 PARAMETERS
# MAXSIG= 175.00000
# MAXRES=  14.69059
# SCALE FACTOR FOR LENGTHS: SCL=  10.00000
# SCALE FACTOR FOR SIGMAS: SCLSIG=   1.00000
# CHI^2=    577.714 DOF=   422 CHI^2/DOF=   1.36899
# RMS=      6.659 SDEV=      6.667 MEAN=    0.03392
#  P #       PARAMETER +-    SIGMA %error PARAMETER NAME
# P 1 =      1537.40404 +-  153.615   9.99 YZERO                              
# P 2 =        -0.76180 +-    0.076  10.02 SLOPE                              
#       T            LDETRENDED       SIG_OBS
     2006.51335        -5.75900         6.95003
     2006.51609        -4.61191         7.08926
     2006.51883        10.16717         7.08575
     2006.52157        -3.91074         7.02140
     2006.52430         3.42834         7.01321
     2006.52704        -2.69757         7.14776
     2006.52978         5.50552         7.01087
     2006.53252        -1.96540         6.96407
     2006.53525        -1.27531         6.99917
     2006.53799         6.64777         7.00736
     2006.54073        -3.96314         7.25541
     2006.54347         3.15594         6.82483
     2006.54621         0.87203         6.83185
     2006.54894        -1.87988         6.80962
     2006.55168        -2.12880         6.84823
     2006.55442        -2.76071         6.75580
     2006.55716        -7.05763         7.04129
     2006.55990        -1.42854         6.89621
     2006.56263        -2.54246         6.91025
     2006.56537         5.01063         6.84941
     2007.20055        -6.60049         6.80026
     2007.20329        -4.01540         6.74878
     2007.20603        -2.54932         6.65401
     2007.20877        -1.16023         6.71953
     2007.21150        -4.92514         6.66805
     2007.21424         0.18794         6.80143
     2007.21698         2.89903         6.79558
     2007.21972         2.43811         6.66103
     2007.22246         0.22320         6.70549
     2007.22519         1.38328         6.59200
     2007.22793         0.91637         6.73825
     2007.23067        -2.06454         6.69145
     2007.23341        -3.62846         6.80377
     2007.23614        -7.61137         6.80728
     2007.23888        -2.92329         6.66571
     2007.24162        -2.52520         6.62476
     2007.24436        -6.51812         6.78973
     2007.24710        -4.02203         6.74761
     2007.24983         3.44806         6.84355
     2007.25257        -5.46686         6.62710
     2007.25531       -10.32077         6.61423
     2007.25805        -4.75669         6.77101
     2007.26079        -1.82560         6.74878
     2007.26352         2.36048         6.65635
     2007.26626         8.99157         6.74878
     2007.26900         3.77866         7.02023
     2007.27174         2.71074         6.74410
     2007.27447         4.77283         6.73591
     2007.27721         5.64591         6.60487
     2007.27995         1.57700         6.61189
     2007.28269         2.94908         6.66922
     2007.28543         1.42417         6.66688
     2007.28816         1.77626         6.70198
     2007.29090         1.56734         6.73123
     2007.29364        -2.27757         6.64933
     2007.29638        -1.57649         6.67390
     2007.29911        -1.56940         6.76867
     2007.30185         3.25468         6.71017
     2007.30459       -12.45023         6.66337
     2007.30733         0.21286         6.71017
     2007.31007        -2.72406         6.75463
     2007.31280         5.91103         6.89855
     2007.31554         1.78811         6.61891
     2007.31828        -2.61080         6.72538
     2007.32102        -4.32372         6.66454
     2007.32376        -6.11963         6.65401
     2007.32649        -0.97554         6.70783
     2007.32923        -0.60046         6.66103
     2007.33197        -6.67937         6.84706
     2007.33471        -4.79029         6.87164
     2007.33708       -12.53248         7.67194
     2007.90966        -6.28929         6.88802
     2007.91239        -1.10720         6.84004
     2007.91513         6.84288         6.82249
     2007.91787        -1.19403         6.82951
     2007.92061       -11.48295         6.97811
     2007.92334        -8.50486         7.09628
     2007.92608         2.11422         6.92078
     2007.92882         0.75431         6.92195
     2007.93156       -22.98260         6.99917
     2007.93430        -4.85652         6.88685
     2007.93703        -6.26643         6.88685
     2007.93977        -6.97735         6.89387
     2007.94251         1.71574         6.89504
     2007.94525         0.82882         7.02491
     2007.94799        -0.09709         6.92780
     2007.95072        -0.97200         6.97577
     2007.95346        -2.84492         7.02374
     2007.95620         1.73517         6.99917
     2007.95894         7.77825         6.98396
     2007.96167         2.50234         6.97694
     2007.96441        -3.76058         6.88100
     2007.96715        -8.13949         7.11617
     2007.96989       -11.19840         6.91259
     2007.97263        -3.27132         6.94184
     2007.97536        -6.71123         6.99449
     2007.97810        -4.65215         7.01789
     2007.98084         1.22294         6.95939
     2007.98358        -1.60798         6.82951
     2007.98632         2.02511         7.03193
     2007.98905         3.06520         6.98279
     2007.99179        -2.72672         6.92780
     2007.99453        -5.97863         7.01321
     2007.99727        -2.98555         6.72421
     2008.00000       -13.03446         6.71719
     2008.00274        -4.55538         6.74527
     2008.00548        -1.33829         6.67975
     2008.00822         0.37680         6.82600
     2008.01096        -3.78112         6.71251
     2008.01369         2.33497         6.62359
     2008.01643        -0.21495         6.68092
     2008.01917         1.28214         6.80260
     2008.02191        -5.10878         6.84589
     2008.02465         1.11731         6.76399
     2008.02738        -7.58660         6.76282
     2008.03012         2.29548         6.77686
     2008.03286        -9.06443         6.70549
     2008.03560        -2.28935         6.69262
     2008.03833        -7.13826         6.72655
     2008.04107        -5.25618         6.81430
     2008.04381        -5.24609         6.76048
     2008.04655        -6.08501         6.75229
     2008.04929        -3.38192         6.68677
     2008.05202        -8.01583         6.68209
     2008.05476         0.97125         6.68560
     2008.05750        -5.01566         6.63880
     2008.06024        -4.74458         6.61657
     2008.06298         0.45851         6.67390
     2008.06571        -1.87741         6.63880
     2008.06845        -2.44332         6.69964
     2008.07119        -3.82023         6.68911
     2008.07393         2.88385         6.68092
     2008.07666         1.55594         6.95237
     2008.07940        -1.48398         7.02842
     2008.08214        -1.21189         6.67390
     2008.08488        -8.42481         6.75229
     2008.08762        -1.42072         6.62125
     2008.09035        -2.57563         6.64231
     2008.09309        -2.86255         6.64582
     2008.09583        -0.01346         6.77218
     2008.09857        -6.38038         6.84121
     2008.10131        -6.35129         6.89153
     2008.10404        -2.87421         6.69028
     2008.10678        -1.28412         6.65986
     2008.10952        -3.54603         6.65284
     2008.11226        -2.31995         6.68209
     2008.11499        -3.96786         6.60721
     2008.11773        -2.17378         6.69262
     2008.12047         0.04731         6.67273
     2008.12321         1.13139         6.79675
     2008.12595        -0.73152         6.64231
     2008.12868        -0.41743         6.65635
     2008.13142        -0.36735         6.69262
     2008.13416         2.75574         6.62944
     2008.13690         5.37382         6.68677
     2008.13964         5.88491         6.62008
     2008.14237        -4.04601         6.68326
     2008.14511         4.98808         6.67741
     2008.14785        -3.54883         6.66805
     2008.15059         3.48125         6.71251
     2008.15332        -3.45966         6.73708
     2008.15606        -4.25958         6.59668
     2008.15880         0.62451         6.67858
     2008.16154        -3.90141         6.68677
     2008.16428         1.08768         6.72772
     2008.16701        -8.22123         6.71485
     2008.16975        -7.48715         6.69964
     2008.17249       -15.57706         6.71134
     2008.17523        -5.02898         6.80962
     2008.17797        -2.33789         6.65050
     2008.18070        -4.81481         6.63178
     2008.18344       -10.24272         6.80962
     2008.18618        -2.29863         6.61540
     2008.18892        -2.98755         6.67741
     2008.19165        -0.20346         6.71602
     2008.19439        -6.22038         6.67156
     2008.19713        -6.37129         6.86345
     2008.19987         1.55879         6.75697
     2008.20261         1.31588         6.73474
     2008.20534        10.66497         6.71719
     2008.20808         0.31505         6.91493
     2008.21082         3.69114         6.87983
     2008.21356         2.17422         6.87632
     2008.21629        -0.86969         6.97577
     2008.21903        -5.68161         6.87632
     2008.22177        -4.24052         6.77920
     2008.22451        -5.54543         6.79909
     2008.22725        -6.30835         6.83419
     2008.22998        -8.64026         7.03076
     2008.23272         2.84382         7.00034
     2008.23546         3.03991         6.98513
     2008.23820         1.14899         6.77803
     2008.24094         1.41608         6.71953
     2008.24367        -1.19883         6.69145
     2008.24641        -1.70075         6.73474
     2008.24915         1.04034         6.63529
     2008.25189         1.97442         6.78271
     2008.25462         0.35251         6.74644
     2008.25736         5.02159         6.67741
     2008.26010        -0.81932         6.81079
     2008.26284        -4.45623         6.70432
     2008.26558         1.67985         6.78388
     2008.26831         3.90894         6.66103
     2008.27105         2.84502         6.72421
     2008.27379        -1.07289         6.76516
     2008.27653        -2.45781         6.69145
     2008.27927        -2.63372         6.79090
     2008.28200         2.11437         6.68092
     2008.28474        -0.94355         6.72889
     2008.28748         4.64454         6.85526
     2008.29022         1.86862         6.84589
     2008.29295         4.59471         6.64582
     2008.29569         0.35179         6.62827
     2008.29843        -1.70112         6.77686
     2009.92471        -3.90821         6.70549
     2009.92745        -4.78713         6.70081
     2009.93019         1.81696         6.69496
     2009.93293         3.73704         6.71719
     2009.93567         0.27313         6.70432
     2009.93840         2.30221         6.88685
     2009.94114         0.50430         6.72187
     2009.94388        -0.12761         6.83653
     2011.92882         0.19752         6.77218
     2011.93156         5.70261         6.72187
     2011.93430         4.22269         6.66454
     2011.93703         3.53178         6.65635
     2011.93977         3.85686         6.63880
     2011.94251         8.65095         6.69028
     2011.94525         9.37703         6.68443
     2011.94799        10.54112         6.69379
     2011.95072         8.50321         6.56626
     2011.95346        13.63829         6.67507
     2011.95620         7.52138         6.70783
     2011.95894         2.11346         6.46914
     2011.96167         6.95155         6.46212
     2011.96441        11.80463         6.58498
     2011.96715         7.83772         6.47967
     2011.96989         9.85481         6.55456
     2011.97263         4.07689         6.46212
     2011.97536         2.97798         6.49020
     2011.97810         3.36206         6.51009
     2011.98084         6.13515         6.48201
     2011.98358        12.48223         6.43521
     2011.98632         8.18732         6.43521
     2011.98905         3.39641         6.57562
     2011.99179         6.35849         6.44691
     2011.99453        11.89458         6.82951
     2011.99727        10.40266         6.94067
     2012.00274         3.26883         6.46212
     2012.00548         5.10892         7.17936
     2012.00822         8.75601         7.30806
     2012.01096         8.82509         7.04129
     2012.01369         6.56818         6.43638
     2012.01643         8.23426         6.87866
     2012.01917         6.76535         6.90557
     2013.61534         9.96231         6.68209
     2013.61807         6.20540         6.59434
     2013.62081        11.23148         6.47499
     2013.62355        13.10857         6.49254
     2013.62629         3.81266         6.55573
     2013.62903         7.44474         6.56509
     2013.63176         6.90783         6.51711
     2013.63450        13.50091         6.65050
     2013.63724         3.00300         6.91025
     2013.63998         7.66308         6.59785
     2013.64272        10.61717         6.55807
     2013.64819         9.36434         6.54871
     2013.65367        12.56651         6.58498
     2013.65640        11.63160         7.94807
     2013.65914         3.44668         8.33067
     2013.66737        10.73795         7.97147
     2013.68378        11.56045         6.53817
     2013.68652        10.02554         6.49371
     2013.68926         9.78263         6.53349
     2013.69200        11.92171         6.49137
     2015.54005         4.69756         6.76516
     2015.54278        -1.63035         6.93716
     2015.54552         7.23173         6.76750
     2015.54826         6.53882         6.68560
     2015.55100         6.72390         6.69496
     2015.55374         5.33699         6.76399
     2015.55647        11.81807         6.82132
     2015.55921         9.25116         6.59317
     2015.56195         9.21025         6.67039
     2015.56469         9.10933         6.68092
     2015.56742         2.94942         6.76399
     2015.57016         5.50750         6.95237
     2015.57290         4.82859         6.90557
     2015.57564         5.44367         6.66922
     2015.57838         1.29176         6.65518
     2015.58111         2.39085         6.71719
     2015.58385         2.72493         6.76399
     2015.58659         6.75702         6.87866
     2015.58933         2.12710         6.74059
     2015.59206        10.09419         6.83419
     2015.59480         8.46327         6.73006
     2015.59754         2.87736         6.76750
     2015.60028        10.39745         6.86228
     2015.60302         2.72053         7.03076
     2015.60575         3.05662         6.78856
     2015.60849         6.14070         6.67741
     2015.61123         2.88079         6.71368
     2015.61397         6.36687         6.73708
     2015.61671         0.92996         6.72070
     2015.61944        10.01605         6.64114
     2015.62218        12.05113         6.63412
     2015.62492        10.51222         6.54168
     2015.62766         8.81130         6.57679
     2015.63039         7.54139         6.56743
     2015.63313         3.84947         6.69262
     2015.63587         8.51956         6.64816
     2015.63861         5.42465         6.58498
     2015.64135         5.85573         6.59200
     2015.64408         3.91282         6.66688
     2015.64682         0.98590         6.69730
     2015.64956         3.72699         6.58147
     2015.65230         8.80507         6.57796
     2015.65504         7.30516         6.58615
     2015.65777        -0.26675         6.88451
     2015.66051         9.04833         6.73357
     2015.66325         9.62142         6.56275
     2015.66599         9.79250         6.70432
     2015.66872        14.69059         6.72772
     2015.67146         7.72767         6.62827
     2015.67420        14.04776         6.64114
     2015.67694        10.77785         6.57211
     2015.67968         5.46393         6.55807
     2015.68241         8.56502         6.57796
     2015.68515         4.73310         6.56509
     2015.68789         3.97519         6.58264
     2015.69063        10.64727         6.62710
     2015.69337         6.55336         6.73825
     2015.69610         7.05245         6.56626
     2015.69884         9.57953         6.67039
     2015.70158         2.30962         6.65284
     2015.70432         3.85470         6.59200
     2015.70705        -1.04221         6.68911
     2015.70979        10.52787         6.62242
     2015.71253         1.49096         6.55807
     2015.71527         7.23305         6.63295
     2015.71801         8.95613         6.54637
     2015.72074         9.60622         6.58030
     2015.72348         9.23830         6.63061
     2015.72622         7.18739         6.59434
     2015.72896        -2.10053         6.67624
     2015.73170         6.21956         6.62827
     2015.73443         2.65765         6.60721
     2015.73717         7.46673         6.66103
     2015.73991        11.23582         6.76633
     2015.74265         6.92390         6.86930
     2015.74538         5.76399         6.99098
     2015.74812         4.16907         6.93716
     2015.75086        -0.67884         6.57913
     2015.75360         4.73925         6.70549
     2015.75634         6.91533         6.67858
     2015.75884         2.70924         7.61344
     2017.91650        -1.84505         6.44223
     2017.91924         2.39704         6.47499
     2017.92198         0.56512         6.52764
     2017.92471        -5.55879         6.48786
     2018.01780        -3.89388         7.50580
     2018.03970       -10.62119         6.50190
     2018.06982        -8.08525         7.60759
     2018.08351        -5.95182         6.67858
     2018.09172        -8.59157         6.68443
     2018.09994        -7.51831         6.66337
     2018.11363        -5.86788         6.58264
     2018.17386        -7.05899         6.60838
     2018.17933        -5.46282         6.64231
     2018.18481        -5.96865         6.69847
     2018.19302       -10.38439         6.60721
     2018.19576        -5.78931         6.65869
     2018.19850        -5.40322         6.58381
     2018.20124         4.78986         7.61227
     2018.21493       -17.95071         6.52296
     2018.21766        -8.90462         6.43755
     2018.22040       -13.62854         6.45744
     2018.22588       -16.34337         6.52530
     2018.22862       -13.58928         6.54988
     2018.23135        -9.42519         6.47148
     2018.23409        -8.70311         6.46680
     2018.23683        -8.10302         6.51828
     2018.23957       -11.15594         6.43170
     2018.24230       -10.07085         6.49956
     2018.24504        -7.78777         6.43053
     2018.24778        -4.08868         6.47265
     2018.25052        -8.87159         6.55456
     2018.25326       -10.46951         6.44106
     2018.25599        -8.49342         6.40362
     2018.25873        -7.20634         6.61189
     2018.26147       -16.75025         6.49839
     2018.26421        -6.32317         6.46797
     2018.26695       -14.83108         6.57445
     2018.26968       -10.55099         6.40713
     2018.27242        -7.43791         6.52647
     2018.27516        -7.68082         6.47616
     2018.27790        -4.01174         6.72304
     2018.28063       -15.96165         6.57328
     2018.28337        -8.93857         6.42702
     2018.28611        -5.48648         6.48318
     2018.28885        -2.79239         6.48903
     2018.29159        -3.31931         6.58147
     2018.29432        -1.85222         6.51711
     2018.29706       -14.88614         6.39894
     2018.29980        -8.60605         6.42000
     2018.30254        -7.89297         6.39426
     2018.30528        -8.72588         6.38256
     2018.30801        -6.40979         6.37320
     2018.31075        -9.02371         6.36969
     2018.31349       -11.24162         6.39777
     2018.31623        -9.93754         6.37320
     2018.31896         1.10955         6.76516
     2018.32170        -4.50637         6.39309
     2018.32444        -6.45428         6.42585
     2018.32718        -8.63519         6.45627
     2018.32992        -6.73111         6.60487
     2018.33265        -3.41102         6.34161
     2018.33539        -7.98694         6.57913
     2018.33813        -8.97185         6.58849
     2018.34087        -9.06377         6.42702
     2018.34361       -11.18968         6.46212
     2018.34634        -8.22159         6.47499
     2018.34908       -11.50951         6.45276
     2018.35179       -17.09545         6.65752
