# ================= DQRFIT RESULTS ================
# INPUT FILE: series/PTWA.rad
# OUTPUT: LDETRENDED
# FILTER FUNCTION: f(t)
# f(t)=+line(t)
# line(t)=+P 1+P 2*t
# heav(t)=(t<0?0:1)
# TOTAL OBSERVATIONS MTOT=  620
# INITIAL TIME INTERVAL= 2016.7201 - 2015.0007 =  1.7194
# TOTAL OBSERVATIONS AFTER PREFILTER M=  556
# TIME-SPAN= 2016.7173 - 2015.0171 =  1.7002
# OBSERVATIONS: USED M=   556 REJECTED MTOT-M=    64 %USED=   89.6774
# N=  2 PARAMETERS
# MAXSIG= 175.00000
# MAXRES= 424.19678
# SCALE FACTOR FOR LENGTHS: SCL=  10.00000
# SCALE FACTOR FOR SIGMAS: SCLSIG=   1.00000
# CHI^2=   3212.353 DOF=   554 CHI^2/DOF=   5.79847
# RMS=     39.591 SDEV=     39.613 MEAN=    1.01862
#  P #       PARAMETER +-    SIGMA %error PARAMETER NAME
# P 1 =      1133.46013 +- 1382.907 122.01 YZERO                              
# P 2 =        -0.55673 +-    0.686 123.22 SLOPE                              
#       T            LDETRENDED       SIG_OBS
     2015.01711        -8.25975         8.00139
     2015.01985         1.02582         7.85540
     2015.03080         4.35183         7.93638
     2015.04175         3.75182         8.67810
     2015.06092        23.46609         7.93038
     2015.06366        15.62213         8.00210
     2015.06639         1.14502         7.79945
     2015.06913        -2.45822         7.97854
     2015.07187         3.19037         7.98395
     2015.07461         2.44798         7.89181
     2015.07734       -13.74566         7.92349
     2015.08008       -10.23951         7.77404
     2015.08282        -6.10936         7.77421
     2015.08556         5.08277         7.86085
     2015.09103        10.10859         7.95273
     2015.09377        -2.35399         7.85538
     2015.09651        14.52300         8.03193
     2015.09925        21.90471         8.11444
     2015.10198        11.92041         8.14154
     2015.10472         7.56955         7.98401
     2015.10746         4.68636         7.90309
     2015.11020         0.54857         8.20911
     2015.11294        -9.73129         8.35625
     2015.12389        -9.80637         8.02587
     2015.12663        -9.07970         7.81750
     2015.12936        -7.37821         7.93296
     2015.13210        -3.38103         7.87668
     2015.13484        -2.47829         8.07639
     2015.13758        -4.12904         8.07908
     2015.14031        -5.89231         7.95168
     2015.14305       -10.36916         7.85615
     2015.14579        -0.73734         7.86142
     2015.14853         0.34541         7.81912
     2015.15127        -2.77956         8.04494
     2015.15400         3.21909         9.32546
     2015.15674         4.22534         9.71779
     2015.15948         2.36045         7.85955
     2015.16222         3.60478         8.22891
     2015.16496         0.00318         8.05019
     2015.16769        -1.76759         7.99911
     2015.17043        -1.41911         7.99363
     2015.17317        -1.55857         8.13050
     2015.17591        -7.82732         8.36646
     2015.17864         3.99807         8.31076
     2015.18138         2.00228         7.83699
     2015.18412         2.86110         7.86436
     2015.18686         1.98548         7.85243
     2015.18960         4.62205         7.85044
     2015.19233        -1.03295         8.05070
     2015.19507       -12.28832         7.86502
     2015.19781        15.95983         7.88154
     2015.20055         7.12426         7.91959
     2015.20329         5.37021         7.81334
     2015.20602        -4.48418         8.14258
     2015.20876        -3.05576         7.98297
     2015.21150         1.45093         7.93576
     2015.21424         7.99349         8.12099
     2015.21697         4.41351         8.28871
     2015.21971        -2.33205         7.79463
     2015.22245         4.62596         7.85351
     2015.22519         7.53988         8.67357
     2015.22793        10.19670         7.82636
     2015.23066        -1.16791         7.85344
     2015.23340        -2.29922         7.90880
     2015.23614         2.56423         7.97638
     2015.23888         3.56004         8.51025
     2015.24162         2.41654         8.26972
     2015.24435         2.28952         8.40014
     2015.24709        -1.68598         8.07451
     2015.24983         6.78217         8.70237
     2015.25257         1.93384         7.98868
     2015.25530         0.84461         7.77749
     2015.25804         2.91945         7.86868
     2015.26078         1.36857         7.94529
     2015.26352         5.81271         7.86940
     2015.26626        -0.56471         7.90788
     2015.26899         0.16440         7.89509
     2015.27173        -2.12597         8.06112
     2015.27447         8.55354         8.03621
     2015.27721        -1.21947         8.03920
     2015.27995         3.60390         8.02439
     2015.28268        -4.33515         7.95133
     2015.28542        -0.51978         8.69049
     2015.28816        -4.33899         8.27107
     2015.29090        -1.02044         8.09206
     2015.29363         2.24609         8.20294
     2015.29637        -1.22725         8.15438
     2015.29911         1.08972         7.95747
     2015.30185        -6.59420         8.72586
     2015.30459         2.86973         8.24446
     2015.30732       -11.40827         7.95990
     2015.31006        -5.57604         8.04471
     2015.31280        -7.79678         8.06312
     2015.31554        -5.36392         7.91087
     2015.31828        -7.88593         7.87613
     2015.32101        -3.59311         7.81634
     2015.32375        -6.45104         7.97033
     2015.32649        -6.60878         8.08060
     2015.32923        -1.80283         8.10403
     2015.33196         4.00739         7.82045
     2015.33470        -2.37636         7.65244
     2015.33744        -8.53463         7.93116
     2015.34018        -9.30040         7.83369
     2015.34292       -12.57180         7.78406
     2015.34565       -11.53951         7.78820
     2015.34839       -10.08588         7.64879
     2015.35113        -7.01500         7.63964
     2015.35387        -4.97677         7.88757
     2015.35661       -12.80997         7.74887
     2015.35934        -9.38876         7.92428
     2015.36208        -5.82745         7.84410
     2015.36482        -2.65016         7.66298
     2015.36756        -2.64725         7.71188
     2015.37029        -6.69885         7.77949
     2015.37303        -9.71708         7.77364
     2015.37577        -8.77725         7.84846
     2015.37851       -11.54976         8.10375
     2015.38125        -9.93687         7.70903
     2015.38398         0.30043         7.76368
     2015.38672       -11.07737         7.70840
     2015.38946       -10.88334         7.69910
     2015.39220        -2.80861         7.82034
     2015.39493        -5.57199         8.90551
     2015.39767       -14.01554         7.69642
     2015.40041       -11.89743         9.14143
     2015.40315       -11.35958         7.87433
     2015.40589        -4.43969         7.74756
     2015.40862        -3.54104         7.87337
     2015.41136        -9.26439         7.76639
     2015.41410        -7.97306         7.76957
     2015.41684        -4.63167         7.82537
     2015.41958        -2.81738         7.80348
     2015.42231        -3.93065         7.79485
     2015.42505        -1.36870         8.16601
     2015.42779        -4.55365         7.74019
     2015.43053         3.77737         7.75825
     2015.43326        -3.14330         7.85763
     2015.43600        -3.53981         7.78173
     2015.43874         1.64910         7.88003
     2015.44148        -8.01672         8.40301
     2015.44422        -7.41748         8.01481
     2015.44695        -7.06129         7.85218
     2015.44969       -11.01443         7.74339
     2015.45243        -9.73674         8.21310
     2015.45517        -3.23585         7.81822
     2015.45791        -5.47679         8.05507
     2015.46064        -1.35948         8.11092
     2015.46338         4.06333         8.02203
     2015.46612        -0.95626         7.82012
     2015.46886         8.28358         8.18071
     2015.47159        -4.71171         8.72377
     2015.47433         4.91390         8.31805
     2015.47707        -0.52180         8.44552
     2015.47981        -2.47436         8.21767
     2015.48255        -0.34500         9.39136
     2015.48528        -2.75274         7.74490
     2015.48802         4.85442         7.90417
     2015.49076         1.84485         7.95297
     2015.49350       -13.93565        10.06470
     2015.49624         0.02671         8.10883
     2015.49897        -7.30822         8.05738
     2015.50171        -0.67856         7.72985
     2015.50445        -3.67254         7.88187
     2015.50719        -7.06131         7.79228
     2015.50992         0.13507         7.84454
     2015.51266         2.09510         7.76765
     2015.51540         3.55263         7.71729
     2015.51814        15.86958         8.05654
     2015.52088        -2.22517         7.99509
     2015.52361         4.91549         8.11142
     2015.52635        -4.91802         7.76313
     2015.52909         1.01483         7.91695
     2015.53183         3.72657         7.74850
     2015.53457         0.63166         8.05908
     2015.53730         3.15534         8.17161
     2015.54004        -9.23988         9.29865
     2015.54278         6.98366         8.05756
     2015.54552        13.76621         8.00465
     2015.54825         1.73506         7.86773
     2015.55099         3.34992        11.11465
     2015.55373         4.46025         8.19556
     2015.55647        -0.54519         8.28349
     2015.55921        11.13627         8.49510
     2015.56194         7.38235         7.89877
     2015.56468         3.08000         7.91514
     2015.56742        -7.98558         7.97996
     2015.57016        -2.56938         8.34556
     2015.57290        -0.90964         8.18900
     2015.57563         1.07678         7.78044
     2015.57837        -1.98017         7.81083
     2015.58111        -0.90905         8.48695
     2015.58385        13.26348         8.05168
     2015.58658         9.48667         8.11322
     2015.58932        17.89661         7.86654
     2015.59206         7.65402         7.97184
     2015.59480         5.49707         8.66951
     2015.59754         7.30167         8.19035
     2015.60027        13.71190         8.54662
     2015.60301         4.00012         8.95378
     2015.60575         6.79930         7.94353
     2015.60849        -0.68070         8.40742
     2015.61123        10.59567         8.48572
     2015.61396         9.36148         7.90876
     2015.61670         7.30384         7.74151
     2015.61944         5.65923         7.82256
     2015.62218        14.69348         9.56435
     2015.62491         9.11243         7.95213
     2015.62765         8.06262         7.92145
     2015.63039        19.57064         8.39675
     2015.63313        19.51918         7.97199
     2015.63587        11.73875         8.10564
     2015.63860         7.08752         7.93951
     2015.64134         0.47358         7.79215
     2015.64408        10.72588         7.77889
     2015.64682         2.13046         8.68537
     2015.64956         4.50501         7.79766
     2015.65229         8.10134         7.91313
     2015.65503        15.92055         7.74659
     2015.65777        16.02581         7.85722
     2015.66051        10.35742         8.65649
     2015.66324        22.14140         7.72440
     2015.66598        18.97022         8.96935
     2015.66872        -1.75268         8.07100
     2015.67146         3.52820         7.80296
     2015.67420        -0.98985         7.93857
     2015.67693         3.21358         9.27634
     2015.68789         7.44566         7.81673
     2015.69062        14.42394         7.78051
     2015.69336        11.83676         8.23747
     2015.69610        11.85989         7.81107
     2015.69884         2.92419         7.74362
     2015.70157        12.30303         7.68898
     2015.70431        15.91162         7.78703
     2015.70705         4.60231         7.76901
     2015.70979         3.18878         7.61333
     2015.71253         5.37548         7.79019
     2015.71526        13.55308         7.67708
     2015.71800        13.53398         7.74802
     2015.72074         5.43661         7.63809
     2015.72348         2.47664         7.89555
     2015.72621        -1.44907         7.65016
     2015.72895         8.05368         8.45192
     2015.73169        12.98918         7.81492
     2015.73443         9.98877         7.71753
     2015.73717         9.17438         7.62764
     2015.73990         5.37907         7.93162
     2015.74264        10.77878         7.94519
     2015.74538         4.94766         8.07174
     2015.74812        -0.12682         8.03954
     2015.75086        -3.53793         7.91455
     2015.75359         0.01982         7.68422
     2015.75633        -3.33269         7.80728
     2015.75907         2.46548         7.68553
     2015.76181         1.95380         7.76057
     2015.76454        20.18136         7.81711
     2015.76728         8.38165         7.70883
     2015.77002        11.26918         7.75530
     2015.77276         8.05670         7.71048
     2015.77550         8.02260         7.77853
     2015.77823        10.76861         7.91720
     2015.78097         9.35309         7.85614
     2015.78371         5.37787         7.75181
     2015.78645         8.39074         7.69155
     2015.78919         2.64682         7.67020
     2015.79192        -1.82371         8.10660
     2015.79466         5.47149        10.63398
     2015.80014         3.66949         9.56276
     2015.80287         2.80635         8.15614
     2015.80561        -0.02012         7.71978
     2015.80835         2.62222         7.70657
     2015.81109       -10.56112        17.93103
     2015.81383        11.11260         8.64768
     2015.83299        59.48129       123.26051
     2015.83573       294.79691        90.05140
     2015.84120        10.08309       139.94359
     2015.84668      -101.93357       150.69815
     2015.84942      -142.14316      2356.67311
     2015.85216       -64.86094       143.08528
     2015.86311      -203.51644      2569.40389
     2015.86858       -22.88433       125.46657
     2015.87132       107.22862       146.53647
     2015.87406       122.63458        86.89684
     2015.87680      -118.43877        89.41522
     2015.87953        39.72555        97.45774
     2015.88227       222.72081      3783.82473
     2015.88501       258.94589        95.17227
     2015.88775       424.19678      6223.64886
     2015.89049      -246.39288      4317.09260
     2015.89596        -7.20810       150.83568
     2015.89870      -169.77833       114.02479
     2015.90418        42.14718       449.55984
     2015.90691       -87.92626       146.20842
     2015.91239       110.83151       145.75500
     2015.91786       124.87367       104.58854
     2015.92608       371.41895       102.04658
     2015.93155        70.21006       346.46836
     2015.93703        11.86566       225.66808
     2015.93977       -73.95508       138.13280
     2015.94798      -192.01688       188.68159
     2015.95072       -87.55604       169.10338
     2015.95346       -43.12807        32.70317
     2015.95619        39.40459       100.06458
     2015.96441       -63.12966       280.63725
     2015.96715       -13.79127        86.64138
     2015.96988         4.97340        10.28559
     2015.97262        -4.85868         7.87831
     2015.97536         8.76637         8.46945
     2015.97810        -5.05161         7.79967
     2015.98084        12.80611        12.65689
     2015.98631        14.61850       308.70149
     2015.99179       -11.53190        11.72523
     2015.99452        -3.62450         7.86696
     2015.99726        -2.49048         7.79418
     2016.00000        -3.60993         7.88902
     2016.00274        -9.88629         7.92790
     2016.00548       -20.11691         7.69682
     2016.00821        -9.82487         8.04050
     2016.01095        -7.51184         7.83817
     2016.01369        -9.37462         7.92554
     2016.01643       -20.28357         8.16310
     2016.01916        -8.97496         8.04881
     2016.02190       -12.35933         8.02407
     2016.02464        -9.45780         7.74771
     2016.02738        -5.96335         8.17974
     2016.03012        -0.48907         7.85064
     2016.03285         4.66906         7.94751
     2016.03559         6.42549         7.85885
     2016.03833        -6.36798         7.99242
     2016.04107         6.37907         7.98162
     2016.04381         1.78541         7.91275
     2016.04654        -5.27402         8.76205
     2016.04928       -12.58643         7.87652
     2016.05202        -7.68067         7.86116
     2016.05476        -4.83566         7.94651
     2016.05749        -8.97968         8.04590
     2016.06023        -3.48335         7.74380
     2016.06297       -11.67228         7.76540
     2016.06571        -0.30676         7.99812
     2016.06845         6.79221         8.08955
     2016.07118         9.68464         7.98341
     2016.07392        -0.06569         7.95790
     2016.07666         5.96788         8.08356
     2016.07940         5.66147         7.99254
     2016.08214         0.34889         8.19129
     2016.08487        -2.08674         8.10320
     2016.08761       -12.61177         8.01699
     2016.09035       -13.40504         8.29703
     2016.09309        -6.53483         8.05718
     2016.09582        -5.77387         8.13224
     2016.09856       -15.40435         8.06100
     2016.10130       -13.11250         8.05875
     2016.10404       -15.31642         7.92360
     2016.10678         1.88406         7.86958
     2016.10951         5.37214         8.07535
     2016.11225        -7.75067         8.03613
     2016.11499        -2.38747         8.15350
     2016.11773         0.41176         8.06785
     2016.12047        -1.70097         8.03075
     2016.12320        -6.49564         8.22980
     2016.12594        -2.56953         8.16571
     2016.12868        -6.67277         8.01585
     2016.13142         0.34617         8.21258
     2016.13415        -2.04131         8.00838
     2016.13689        -7.09489         8.03758
     2016.13963        -8.64043         7.94652
     2016.14237        -9.41224         7.87609
     2016.14511        -9.75094         8.01984
     2016.14784        -8.30464         7.99798
     2016.15058        -5.28117         7.81116
     2016.15332        -5.10246         9.22513
     2016.15606         2.97203         7.94467
     2016.15880        -1.93160         7.95000
     2016.16153        -5.09193         8.00799
     2016.16427        -0.35274         7.93493
     2016.16701        -3.18788         7.76326
     2016.16975        -9.86475         8.18556
     2016.17248       -11.18098         8.03273
     2016.17522         7.86624         7.86673
     2016.17796         5.06179         8.01646
     2016.18070        10.56270         7.76700
     2016.18617         2.89236         9.53128
     2016.18891        11.50914         7.97066
     2016.19165         1.73230         7.87630
     2016.19439         3.98291         7.83050
     2016.19713        -1.58487         7.84208
     2016.19986        -1.61695         8.00070
     2016.20260        -5.48776         7.76100
     2016.20534       -13.29325         8.00925
     2016.20808       -12.51818         8.34256
     2016.21903       -18.24951        72.22202
     2016.22998        -8.66644        96.21400
     2016.23546       -37.50682        41.60809
     2016.24093       -20.04873       116.00725
     2016.24641       -20.81139        73.65377
     2016.24914        21.56791       113.84929
     2016.25462        -6.06566       200.45072
     2016.26010       -33.48553       301.03194
     2016.26557        14.48650       151.25995
     2016.27105        -4.44664       177.31986
     2016.29021       -15.91476        11.25669
     2016.29295       -13.18346         7.72277
     2016.29569        -6.69952         8.29941
     2016.29843        -8.64687         7.90198
     2016.30116        -9.63361         8.40873
     2016.30390       -15.21521         7.85059
     2016.30664        -4.98812         7.74142
     2016.30938       -14.12987         7.78848
     2016.31211       -16.20539         7.82219
     2016.31485       -14.63508         7.99849
     2016.31759       -13.96631         7.74411
     2016.32033       -17.08007         7.72066
     2016.32307       -26.84929         9.94487
     2016.32580       -12.94252         9.76488
     2016.32854       -22.22128         8.00646
     2016.33128        -2.70612        14.29209
     2016.33402        -4.30978         7.95638
     2016.33676        -5.12958         7.87345
     2016.33949        -2.05262         7.99211
     2016.34223       -12.27916         7.94414
     2016.34497       -10.68335         7.87381
     2016.34771        -5.48192         7.73455
     2016.35044         1.29088         8.04948
     2016.35318       -13.22981         8.01748
     2016.35592       -17.52239         7.85054
     2016.35866       -12.77393         7.73842
     2016.36140       -14.17008         7.64547
     2016.36413        -6.62323         7.78268
     2016.36687        -8.44457         7.81185
     2016.36961        -4.70135         7.82552
     2016.37235         2.37220         9.13137
     2016.37509        -9.54615         7.81304
     2016.37782        -5.45403         7.76256
     2016.38056        -0.18919         8.13427
     2016.38330        -4.85465         7.94306
     2016.38604        -6.09003         7.73385
     2016.38877        -4.17360         7.74026
     2016.39151        -3.87952         8.05901
     2016.39425        -6.59806         7.90555
     2016.39699        -7.78584         7.87383
     2016.39973        -7.63047         7.93265
     2016.40246        -2.38012         7.84343
     2016.40520        -4.04265         7.75225
     2016.40794        -0.65921         7.76735
     2016.41068        -8.35564         7.83292
     2016.41342       -10.40137         7.90086
     2016.41615        -8.25545         7.85133
     2016.41889        -5.85797         7.99674
     2016.42163         0.14807         8.21949
     2016.42437        -6.75999         8.27337
     2016.42710       -11.62169         8.01218
     2016.42984        -4.37368         7.84295
     2016.43258         1.10450         7.80774
     2016.43532        -0.52578         7.84413
     2016.43806         0.83030         7.85358
     2016.44079         3.75570         7.69172
     2016.44353         1.94628         7.75173
     2016.44627        -6.14493         7.81755
     2016.44901         1.94818         7.91123
     2016.45175        -0.00680         7.86874
     2016.45448         0.66103         7.74076
     2016.45722        -2.18229         7.69767
     2016.45996        -3.01338         7.81124
     2016.46270        -2.99322         7.82314
     2016.46543         2.81557         7.83369
     2016.46817        -8.91261         7.74333
     2016.47091        -1.99286         7.68540
     2016.47365         0.06770         7.90516
     2016.47639         1.19608         8.10624
     2016.47912        -1.66903         7.98316
     2016.48186         2.01002         8.00821
     2016.48460         1.04628         7.70801
     2016.48734         7.02625         7.85745
     2016.49008        -3.30943         7.83083
     2016.49281        -3.64787         7.86791
     2016.49555        -4.97774         8.15897
     2016.49829         1.53353         7.75087
     2016.50103        -2.88040         7.97233
     2016.50376        -7.29214         8.59396
     2016.50650        -5.33533         7.91871
     2016.50924        -4.61618         7.89391
     2016.51198         4.66720         7.78621
     2016.51472         7.63152         8.09593
     2016.51745         3.68174         8.44524
     2016.52019         2.16213         7.84831
     2016.52293        -4.58860         7.82299
     2016.52567        -0.08303         7.75057
     2016.52841         0.69627         7.80580
     2016.53114         0.06635         7.73489
     2016.53388        -7.80381         7.83607
     2016.53662        -5.47740         8.00136
     2016.53936         2.39796         7.73741
     2016.54209        -1.84571         7.66805
     2016.54483        -0.72678         7.83885
     2016.54757        -1.30219         8.02155
     2016.55031         6.25328         7.95131
     2016.55305         4.54692         7.74968
     2016.55578         6.40563         7.97591
     2016.55852         8.28837         7.77890
     2016.56126         7.97888         7.73860
     2016.56400        13.09013         7.80378
     2016.56674         5.19871         7.84336
     2016.56947        -4.46281         7.98438
     2016.57221        -8.03372         7.79145
     2016.57495        -2.51670         7.88261
     2016.57769        10.32115         7.82569
     2016.58042         6.71139         7.78800
     2016.58316         3.69834         7.71892
     2016.58590         5.44450         7.86340
     2016.58864         7.52095         8.59835
     2016.59138         5.80319         7.73687
     2016.59411        13.70370         9.63245
     2016.59685        14.98995         7.71245
     2016.59959         3.76563         7.76808
     2016.60233         8.46663         7.72424
     2016.60507        10.95439         7.86419
     2016.60780        -3.73633         7.70372
     2016.61054         2.89171         7.74869
     2016.61328        -2.84311         7.84699
     2016.61602         4.86475         7.75378
     2016.61875         7.27124         8.01444
     2016.62149         5.88612         7.76353
     2016.62423         2.18421         8.17744
     2016.62697         3.78011         7.78139
     2016.62971         4.64948         7.85205
     2016.63244        11.24783         7.91439
     2016.63518         9.16068         7.96616
     2016.63792        22.90344         8.18359
     2016.64066        10.14909         7.80661
     2016.64339         5.77593         7.93910
     2016.64613         3.19603         8.05007
     2016.64887         3.48254         8.09364
     2016.65161         7.56449         8.00823
     2016.65435        -2.98929         7.71831
     2016.65708        -8.74608         7.69435
     2016.65982         8.92066         7.81655
     2016.66256        12.11392         8.22065
     2016.66530         6.16075         7.78566
     2016.66804         7.89961         7.71533
     2016.67077        13.07901         7.83494
     2016.67351         3.93996         7.63319
     2016.67625        10.02839         7.70572
     2016.67899         2.39850         7.65913
     2016.68172        15.13793         7.86175
     2016.68446        -1.78726         8.50702
     2016.68720         3.16753         7.90919
     2016.68994         2.84726         7.68955
     2016.69268         6.98033         7.66843
     2016.69541        16.40338         7.77594
     2016.69815         5.19548         7.78767
     2016.70089         7.62065         7.80988
     2016.70363        18.36451         7.81004
     2016.70637         5.64211         8.00013
     2016.70910         3.94895         7.86855
     2016.71184        10.47276         9.87660
     2016.71458        10.06227         7.78272
     2016.71732        18.18552         8.49924
