# ================= DQRFIT RESULTS ================
# INPUT FILE: series/ROKY.rad
# OUTPUT: LDETRENDED
# FILTER FUNCTION: f(t)
# f(t)=+line(t)+annual(t)
# line(t)=+P 1+P 2*t
# annual(t)=+P 3*sin(2*pi*t+P 4)
# heav(t)=(t<0?0:1)
# TOTAL OBSERVATIONS MTOT=  945
# INITIAL TIME INTERVAL= 2022.7488 - 2020.0503 =  2.6985
# TOTAL OBSERVATIONS AFTER PREFILTER M=  922
# TIME-SPAN= 2022.7488 - 2020.0503 =  2.6985
# OBSERVATIONS: USED M=   922 REJECTED MTOT-M=    23 %USED=   97.5661
# N=  4 PARAMETERS
# MAXSIG= 175.00000
# MAXRES=  60.22222
# SCALE FACTOR FOR LENGTHS: SCL=  10.00000
# SCALE FACTOR FOR SIGMAS: SCLSIG=   1.00000
# CHI^2=    820.196 DOF=   918 CHI^2/DOF=   0.89346
# RMS=      6.523 SDEV=      6.526 MEAN=    0.06333
#  P #       PARAMETER +-    SIGMA %error PARAMETER NAME
# P 1 =      6014.22961 +-  462.632   7.69 YZERO                              
# P 2 =        -2.99054 +-    0.229   7.65 SLOPE                              
# P 3 =         5.03184 +-    0.271   5.38 ANNUAL AMPLITUDE                   
# P 4 =         3.08932 +-    0.076   2.46 ANNUAL PHASE                       
#       T            LDETRENDED       SIG_OBS
     2020.05030        -4.25579         9.73303
     2020.05201        -1.98067         5.14111
     2020.05475        -3.62248         5.10330
     2020.05749        -6.87829         5.14678
     2020.06023        -4.73211         5.20255
     2020.06297        -3.07392         5.15528
     2020.06570        -0.94673         5.14016
     2020.06844        -6.11554         5.25359
     2020.07118        -1.73835         5.12409
     2020.07392        -9.08817         5.25359
     2020.07666       -14.26498         5.09952
     2020.07939        -7.50479         5.08250
     2020.08213       -11.33160         5.09952
     2020.08487       -10.87642         5.23563
     2020.08761        -1.64123         5.08534
     2020.09034        -3.33504         5.05225
     2020.09308        -2.21385         5.06832
     2020.09582        -6.04667         5.04280
     2020.09856       -11.25448         5.16001
     2020.10130       -14.86729         5.12126
     2020.10403       -10.31510         5.21105
     2020.10677       -13.88892         5.12787
     2020.10951       -10.29973         5.08439
     2020.11225        -7.82954         5.06549
     2020.11498       -10.81935         5.08628
     2020.11772       -10.41316         5.30936
     2020.12046       -11.84098         5.26304
     2020.12320       -10.22379         5.11086
     2020.12594        -8.73960         5.14489
     2020.12867       -11.27441         5.05793
     2020.13141        -9.75823         5.16474
     2020.13415        -8.55004         5.11464
     2020.13689        -4.58385         5.13165
     2020.13963        -1.53066         5.15245
     2020.14236        -4.04048         5.08250
     2020.14510         1.26671         5.20444
     2020.14784        -7.47210         5.13638
     2020.15058        -9.81491         5.13922
     2020.15331       -14.69473         5.04942
     2020.15605        -7.59554         5.07778
     2020.15879        -4.08035         5.07305
     2020.16153        -6.59116         5.16852
     2020.16427        -3.80697         5.11559
     2020.16700        -2.16079         5.13260
     2020.16974        -2.62660         5.10897
     2020.17248        -2.58741         5.42751
     2020.17522         0.49378         5.40199
     2020.17796       -10.11204         5.09857
     2020.18069        -6.20685         5.11748
     2020.18343        -7.58566         5.01539
     2020.18617        -4.66647         5.02012
     2020.18891        -7.14329         5.11086
     2020.19164        -7.77010         5.23657
     2020.19438        -6.35791         5.17419
     2020.20260        -7.08535         5.17041
     2020.20533        -3.70416         5.09574
     2020.20807         0.27603         5.17797
     2020.21081        -5.01478         5.20444
     2020.21355        -2.56760         5.61467
     2020.21629        -6.84241         5.37363
     2020.21901        -6.02526         5.23374
     2020.22055        24.01136       103.65677
     2020.23391        -9.33972        15.88081
     2020.23545        -3.51510         5.18175
     2020.23819        -5.60091         5.15528
     2020.24093        -5.31272         5.20066
     2020.24366         3.41647         5.27911
     2020.24640        -5.45135         5.24225
     2020.24914       -12.46316         5.14678
     2020.25188        -2.70197         5.17608
     2020.25462        -4.67678         5.17513
     2020.25735         0.95241         5.18931
     2020.26009         7.06859         5.10802
     2020.26283         0.37878         5.11559
     2020.26557        -4.66003         5.10424
     2020.26830        -3.24784         5.18553
     2020.27104        -1.73366         5.13449
     2020.27378         2.64753         5.13449
     2020.27652         3.83572         5.18742
     2020.27929        -0.97499         5.32543
     2020.28199        -2.17691         5.23752
     2020.28473        -4.03972         5.23090
     2020.28747         2.18047         5.16946
     2020.29021         2.14966         5.17041
     2020.29295        -6.01116         5.12031
     2020.29568        -0.06397         5.14583
     2020.29842        -2.75778         5.17230
     2020.30116        -0.35459         5.12976
     2020.30390         3.69860         5.10613
     2020.30663        -0.86722         5.23374
     2020.30937        -8.00903         5.31408
     2020.31211        -3.74284         5.37741
     2020.31485        -8.14965         5.35945
     2020.31759         0.98153         5.15339
     2020.32032         1.22472         5.36418
     2020.32306        -2.61411         5.17797
     2020.32580        -3.93290         5.08723
     2020.32854        -0.25372         5.20727
     2020.33128        -1.04753         5.26588
     2020.33401        -0.30434         5.22712
     2020.33675        -1.18015         5.30558
     2020.33949        -3.07097         5.18553
     2020.34223        -5.70878         5.28667
     2020.34496        -8.82859         5.47099
     2020.34770        -7.09240         5.09384
     2020.35044        -0.99021         5.26210
     2020.35318        -4.10903         5.20444
     2020.35592        -1.30884         5.21862
     2020.35865         1.93435         5.23185
     2020.36139        -5.18446         5.11086
     2020.36413         1.42572         5.21578
     2020.36687        -2.89909         5.16757
     2020.36961         0.33611         5.18175
     2020.37234        -1.94771         5.14205
     2020.37508         1.95447         5.15907
     2020.37782         3.47866         5.16474
     2020.38056        -2.45215         5.10802
     2020.38329         0.04704         5.14772
     2020.38603        -4.12478         5.14300
     2020.38877        -2.23959         5.20255
     2020.39151        -1.89240         5.08534
     2020.39425        -1.02521         5.09857
     2020.39698        -3.82702         5.22334
     2020.39972        -8.87984         5.13638
     2020.40246        -2.95965         5.11559
     2020.40520        -5.53046         5.17703
     2020.40794        -3.97927         5.12976
     2020.41067         3.64591         5.25075
     2020.41341         0.32310         5.23185
     2020.41615        -5.79571         5.10424
     2020.41889         1.68048         5.13733
     2020.42162        -2.86234         5.17892
     2020.42436        -2.39615         5.48801
     2020.42710        -2.46096         5.42751
     2020.42984        -5.11477         5.31125
     2020.43258        -0.22959         5.29140
     2020.43531        -3.87340         5.22051
     2020.43805        -2.12121         5.31219
     2020.44079        -6.68902         5.31597
     2020.44353         2.42217         5.35662
     2020.44626        -6.23665         5.18931
     2020.44900         2.16154         5.25831
     2020.45174        -0.27927         5.14394
     2020.45448         2.89992         5.24319
     2020.45722        -4.37290         5.15812
     2020.45995         4.15129         5.22429
     2020.46269        -4.06152         5.11369
     2020.46543         0.17667         5.11653
     2020.46817         3.96985         5.27722
     2020.47091         6.77204         5.19782
     2020.47364        -3.17377         5.13733
     2020.47638         0.61742         5.17892
     2020.47912         8.48360         5.22712
     2020.48086        -0.55819         9.77841
     2020.48485        -7.08327         6.12226
     2020.48733        -0.93883         5.31125
     2020.49007         2.92436         5.36796
     2020.49281         0.48654         5.28100
     2020.49555         7.05973         5.36891
     2020.49828         8.93692         5.16001
     2020.50102         1.37511         5.13071
     2020.50376         4.70629         5.17608
     2020.50650        -0.59852         5.17608
     2020.50924        -2.33233         5.15339
     2020.51197         0.11786         5.13354
     2020.51471         2.33304         5.12031
     2020.51745         4.05123         5.15434
     2020.52019         8.20342         5.35000
     2020.52292         7.54361         5.21672
     2020.52566         5.00380         5.30274
     2020.52840         6.54098         5.25170
     2020.53114         0.37217         5.24036
     2020.53388        -1.38264         5.23657
     2020.53661         0.23055         5.29896
     2020.53935         1.85873         5.40010
     2020.54209         2.61592         5.31597
     2020.54483         2.40311         5.21578
     2020.54757         3.50930         5.20727
     2020.55030        -5.54952         5.27155
     2020.55304         4.25567         5.36891
     2020.55578         3.61486         5.42468
     2020.55852         8.41205         5.24697
     2020.56125         4.58023         5.25075
     2020.56399         3.53442         5.28667
     2020.56673         4.21561         5.29234
     2020.56947         4.53180         5.39726
     2020.57221         6.99999         5.53149
     2020.57494         1.04917         5.34055
     2020.57768        12.62036         5.34622
     2020.58042        -1.61845         5.35095
     2020.58316        11.07774         5.35000
     2020.58590        -2.03008         5.32259
     2020.58863         6.76611         5.28762
     2020.59137         0.99930         5.29707
     2020.59411        12.59249         5.33393
     2020.59685        11.92267         5.61750
     2020.59958         4.54386         5.36134
     2020.60232         7.34905         5.27344
     2020.60506         4.12324         5.24414
     2020.60780        15.93142         5.48517
     2020.61054         4.69361         5.37458
     2020.61327        10.98480         5.26493
     2020.61601         6.06899         5.28478
     2020.61875         3.41718         5.24225
     2020.62149         0.63536         5.26588
     2020.62423        11.63355         5.35473
     2020.62696         4.41274         5.33960
     2020.62970         3.59693         5.29140
     2020.63244         3.85811         5.23563
     2020.63518         6.62430         5.42751
     2020.63791         5.86649         5.71581
     2020.64065        -5.62332         5.36040
     2020.64339         4.50186         5.28667
     2020.64613         8.02705         5.36040
     2020.64887         4.14924         5.32637
     2020.65160         6.97543         5.31125
     2020.65434         6.30261         5.35662
     2020.65708         7.68580         5.27816
     2020.65982         6.63999         5.35567
     2020.66256         8.37218         5.27060
     2020.66529         2.76737         5.24130
     2020.66803         5.54255         5.23279
     2020.67077        13.12874         5.26399
     2020.67351         9.34593         5.35567
     2020.67624         4.14212         5.25926
     2020.67898         6.71330         5.29991
     2020.68172         3.12349         5.33488
     2020.68446         6.76568         5.45965
     2020.68720         2.96387         5.33299
     2020.68993         3.98705         5.35378
     2020.69267         5.47124         5.35851
     2020.69541         4.19543         5.46627
     2020.69815         8.10162         5.39065
     2020.70089         4.03580         5.30936
     2020.70362         4.32699         5.46627
     2020.70636         9.26918         5.75551
     2020.70910         3.25137         5.68272
     2020.71184         8.25756         5.36607
     2020.71457         5.40574         5.45776
     2020.71731         3.01893         5.41144
     2020.72008        -1.40778         5.53432
     2020.72279         2.63331         5.34717
     2020.72553        10.55549         5.38781
     2020.72826         2.85268         5.64586
     2020.73100         6.84487         5.47383
     2020.73374         6.93506         5.42846
     2020.73648        -0.12176         5.38119
     2020.73921         1.42943         5.46532
     2020.74195         8.03762         5.28384
     2020.74469         2.00081         5.26966
     2020.74743         0.14499         5.27344
     2020.75017         3.09318         5.26966
     2020.75290         2.13737         5.27155
     2020.75564         3.24756         5.21672
     2020.75838         3.90075         5.28195
     2020.76112        -0.22007         5.27060
     2020.76386         4.18812         5.24792
     2020.76659         5.69231         5.17419
     2020.76933        12.98950         5.42184
     2020.77207         4.70868         5.26871
     2020.87611        10.18281         5.40104
     2020.87885        10.47700         5.56835
     2020.88158         4.84319         5.40294
     2020.88432         6.54538         5.24981
     2020.88706        -1.29244         5.55795
     2020.88980         0.94975         5.30085
     2020.89253         2.96594         5.30936
     2020.89527         6.67513         5.48706
     2020.89801         4.61332         5.43035
     2020.90075        10.51950         5.30369
     2020.90349         7.01269         5.25831
     2020.90622         5.45988         5.23752
     2020.90896         9.01807         5.61372
     2020.91170         6.17125         5.59293
     2020.91443         9.68143         5.56173
     2020.91718         6.66463         5.22996
     2020.91991         2.04182         5.26304
     2020.92265         0.76900         5.25737
     2020.92539         1.49619         5.24792
     2020.92813        -2.52462         5.25453
     2020.93086        -1.87543         5.29423
     2020.93360        -1.43525         5.33582
     2020.93634        -3.53406         5.29518
     2020.93908        -8.91787         5.38592
     2020.94182        -0.06068         5.24886
     2020.94455         0.66751         5.23847
     2020.94729        -4.13831         5.22429
     2020.95003        -3.47712         5.45114
     2020.95277       -11.44693         5.24508
     2020.95551        -6.31274         5.33110
     2020.95824         1.34044         5.69879
     2020.96104         1.76080         5.51920
     2020.96372        -4.69918         5.24603
     2020.96646        -4.86199         5.38687
     2020.96919         0.70819         5.45020
     2020.97193        -6.13262         5.19971
     2020.97467        -3.26843         5.39915
     2020.97741        -4.81224         5.30936
     2020.98015        -7.22306         5.46059
     2020.98288        -6.21587         5.34339
     2020.98562         5.43432         5.27060
     2020.98836        10.91851         5.29329
     2020.99110         1.06070         5.13733
     2020.99384        -2.46412         5.09857
     2020.99657        -6.98993         5.23279
     2020.99931        -1.39974         5.20160
     2021.00205        -3.42055         5.23847
     2021.00479         5.80963         5.20727
     2021.00752        -1.57818         5.14205
     2021.01026        -0.52699         5.20916
     2021.01300        -4.53280         5.19687
     2021.01574         3.10238         5.37552
     2021.01848        -2.56443         5.16285
     2021.02121        -2.88324         5.32070
     2021.02395        -3.36005         5.14583
     2021.02669        -8.47486         5.30369
     2021.02943        -3.85368         5.21294
     2021.03216         2.56651         5.18270
     2021.03490       -10.33530         7.22912
     2021.03764        -4.81211         5.70919
     2021.04038        -4.47793         5.26871
     2021.04312        -5.57074         5.17041
     2021.04585        -0.23255         5.29612
     2021.04859        -7.31536         5.14678
     2021.05133        -5.98318         5.21294
     2021.05407        -6.34199         5.56268
     2021.05681        -4.59379         5.40199
     2021.05954        -6.03061         5.21294
     2021.06228        -5.13443         5.18742
     2021.06502        -7.13824         5.16663
     2021.06776        -3.78805         5.23563
     2021.07049        -3.63386         5.19971
     2021.07323        -0.03267         5.27344
     2021.07597        -4.60949         5.19971
     2021.07871        -4.15330         5.15718
     2021.08145        -4.13611         5.19782
     2021.08418       -12.53592         5.15339
     2021.08692        -8.30674         5.17892
     2021.08966        -9.89355         5.19215
     2021.09240       -12.17636         5.20633
     2021.09514        -7.66317         5.31030
     2021.09787        -9.66399         5.35095
     2021.10061        -6.52680         5.15434
     2021.10335        -0.41261         5.23657
     2021.10609        -4.06942         5.14961
     2021.10882        -3.57924         5.16757
     2021.11156        -7.59905         5.20538
     2021.11430        -8.26386         5.19593
     2021.11704         4.12233         5.20444
     2021.11978       -24.00748         5.20444
     2021.12251         2.79970         5.16757
     2021.12524       -10.04615         6.78392
     2021.12799        34.84608       124.14557
     2021.13347         1.79447        10.62722
     2021.13620        -7.37437         6.32642
     2021.13894       -11.53917         7.69323
     2021.14060        -7.54722        22.87173
     2021.14442        -8.89480         6.28956
     2021.14989        -4.60942         6.47388
     2021.15811        -8.26686         6.92097
     2021.16084        -2.45567         8.27833
     2021.16358        -1.33748         7.70457
     2021.16632         0.63571         6.58542
     2021.16877         2.67004         8.25564
     2021.17177       -11.59900         7.51647
     2021.17453       -15.42573         7.05709
     2021.17728        -1.28553         7.41438
     2021.18001        -8.96534         6.76596
     2021.18275        -6.32617         7.32837
     2021.18548        -4.26200         7.12231
     2021.18822        -8.64081         7.20643
     2021.19096         1.43439         5.71770
     2021.19370        -4.89942         7.21967
     2021.19644        -6.87122         7.05331
     2021.19917        -2.84004         7.10718
     2021.20192        -3.23784         8.54583
     2021.20465        -6.56467         6.62701
     2021.20739        -1.88848         8.76512
     2021.21013         2.96171         7.94277
     2021.21286        -3.28410         7.00605
     2021.21560        -6.35092         6.57975
     2021.21834         3.24327         6.58164
     2021.22108       -11.79753         6.66387
     2021.22382       -18.98534         6.94744
     2021.22593         8.20597         8.88611
     2021.22930        -3.08196         6.30847
     2021.23203         6.86521         6.52587
     2021.23477       -12.95760         5.95873
     2021.23751        -2.07740         7.34160
     2021.24024        -0.64323         6.62323
     2021.24298         3.35596        31.37502
     2021.24572        -7.97785         6.97391
     2021.24845       -10.37768         6.87371
     2021.25120        -7.96546         7.17997
     2021.25331        -0.81815         9.76990
     2021.25941        -6.96491         7.09679
     2021.26214         0.98127         7.31230
     2021.26488        -5.26655         8.27171
     2021.26762         5.08066         6.60716
     2021.27036        -4.71815         6.41906
     2021.27310        -4.13698         6.96729
     2021.27583        -5.64779         6.18748
     2021.27857        -9.03560         6.30941
     2021.28405        -4.28923         6.49089
     2021.28679        -5.20704         8.24052
     2021.28953        -2.08784         8.31708
     2021.29227        -3.16965         9.85969
     2021.29500        -2.85148         7.40966
     2021.29774        -1.17127         7.57035
     2021.29932       -14.94455        29.64242
     2021.30320         0.12906         7.31135
     2021.30595         3.76329         7.16579
     2021.30869         3.97348         7.58264
     2021.31143        -0.94235         6.86048
     2021.31416        -0.14216         6.28483
     2021.31690         2.25903         6.37841
     2021.32021        -7.09608         9.44757
     2021.32295        -0.47589         8.47304
     2021.32569        -2.65571         8.75283
     2021.32842        -5.48152         9.08083
     2021.33114         6.20560         8.75094
     2021.33390        -3.98414         8.46832
     2021.33664         5.29206         8.48155
     2021.33938         0.95225         8.96740
     2021.34212       -16.62657         9.06381
     2021.34485        21.32661        11.62349
     2021.34759       -15.87919         8.35772
     2021.35030        -5.36409         8.41538
     2021.35306        -5.30483         9.10351
     2021.35580        -4.98964         8.25848
     2021.35854        -1.44945         9.25475
     2021.36128        -7.38127         8.24335
     2021.36402        -1.58308         9.69144
     2021.36653        -8.51957         9.55060
     2021.37166        -3.61022         6.68467
     2021.37440        -4.85603         6.35289
     2021.37770         0.34385         8.22728
     2021.38045        -0.70594         9.35967
     2021.38318       -13.11876        11.25580
     2021.38592        -5.15856        10.15933
     2021.38866       -13.60938         8.78780
     2021.39214         4.48103       115.79825
     2021.39414       -12.20000         8.83412
     2021.39938         1.20268         8.22634
     2021.40451         2.07703         7.09962
     2021.40782        -3.01708         8.05431
     2021.41054        -2.33696         8.86153
     2021.41279         1.66778        18.57566
     2021.41603        -4.36951        10.41360
     2021.41877        -6.17733         9.90790
     2021.42151        -9.61512         9.41071
     2021.42425         2.48705         9.35211
     2021.42699        -2.48176         9.00332
     2021.42972       -11.03957        10.52514
     2021.43245         3.10258         7.73009
     2021.43519        -4.74121         8.18569
     2021.44066         0.37612         8.90690
     2021.44342        -3.88362         8.50707
     2021.44615        -0.01445        10.83801
     2021.44889        -8.71425         8.85113
     2021.45163        -4.99907        10.41454
     2021.45437         2.91613         8.95889
     2021.45707        -2.86978         9.31524
     2021.45982        -3.70357         9.31146
     2021.46806        -2.65793         7.79531
     2021.47080         4.32525         9.49578
     2021.47353         1.96943         8.18286
     2021.47627         0.65662         8.08077
     2021.47899         7.55975         9.27082
     2021.48721        -9.44265         8.42105
     2021.48996        -4.44743         8.39931
     2021.49269         0.29774         7.89078
     2021.49515        -5.40792         9.04207
     2021.49817        -1.84188         8.77079
     2021.50091       -11.45370         8.97780
     2021.50365       -10.11051         8.93621
     2021.50638       -19.28432         8.71408
     2021.50913       -24.53012         9.54210
     2021.51186        60.33607       146.26774
     2021.51459        -1.31377         9.05341
     2021.51732        -1.86663         7.81989
     2021.52281         0.71281         9.59409
     2021.52555        -8.16099         8.20932
     2021.52829       -11.70682         9.70846
     2021.53102        -3.40563         8.72069
     2021.53376         5.10756         8.91163
     2021.53650        -5.79726         8.00893
     2021.53924        16.32693         9.28783
     2021.54197        -3.74190         8.21121
     2021.54471        -5.98569         8.96362
     2021.54745        -3.01551         8.70840
     2021.55017       -31.00937        56.39810
     2021.55293        -6.37913         8.04769
     2021.55840         0.11824        10.55633
     2021.56115        -0.62655         8.10062
     2021.56388        -0.50937         9.70751
     2021.56605        -4.27790         5.24508
     2021.56878         1.84829         5.28478
     2021.57152        -1.30152         5.28951
     2021.57426        -6.17533         5.43129
     2021.57700         4.42585         5.59954
     2021.57974         0.99404         5.31786
     2021.58247        -8.50977         5.35567
     2021.58521        -4.68258         5.31219
     2021.58795        -4.69240         5.44453
     2021.59069         3.77279         5.44642
     2021.59342        -3.49102         5.30463
     2021.59616        -6.41283         5.49179
     2021.59890         2.33735         5.47761
     2021.60164         0.22354         5.43507
     2021.60438        -4.04327         5.23847
     2021.60711         2.14392         5.30747
     2021.60985        -0.64590         5.34622
     2021.61259         0.84329         5.28384
     2021.61533        -2.63752         5.34055
     2021.61807        -3.47333         5.31786
     2021.62080        -1.08114         5.25170
     2021.62354         0.36204         5.35567
     2021.62628        -0.22877         5.45776
     2021.62902         5.69642         5.23279
     2021.63175         5.25761         5.32165
     2021.63449        -2.96221         5.99181
     2021.63723        -0.57402         5.51258
     2021.63997         4.78417         5.49084
     2021.64271         3.08836         5.37363
     2021.64544        -0.24546         5.23657
     2021.64818         4.26473         5.23374
     2021.65092         1.05092         5.32543
     2021.65366         1.62911         5.33299
     2021.65639         0.57029         5.28006
     2021.65913         1.42748         5.23090
     2021.66187         6.87767         5.29329
     2021.66461         3.01186         5.28006
     2021.66735         4.25105         5.21483
     2021.67008         3.27823         5.36324
     2021.67282         8.07142         5.42373
     2021.67556        11.89261         5.53054
     2021.67830         3.49080         5.51731
     2021.68104         2.16898         5.44169
     2021.68377         2.80517         5.36229
     2021.68651         3.75136         5.32826
     2021.68925         2.36755         5.22145
     2021.69199         4.36573         5.37647
     2021.69472         0.05892         5.30841
     2021.69746         1.73911         5.30841
     2021.70020         6.21730         5.37930
     2021.70294         6.38848         5.34528
     2021.70568        12.66267         5.62979
     2021.70841        11.47086         5.41711
     2021.71115         5.48905         5.45965
     2021.71389        21.18124         6.49468
     2021.71663         5.91742         5.47477
     2021.71937         3.78261         5.48328
     2021.72210        -0.51620         5.44263
     2021.72484         6.54399         5.43791
     2021.72758         1.86217         5.42184
     2021.73032         2.50536         5.68839
     2021.73305         4.87555         5.38309
     2021.73579         7.44474         5.55890
     2021.73855        -0.18202         5.92565
     2021.74127         9.81811         5.45587
     2021.74401        10.72030         5.42184
     2021.74674         0.80449         5.50029
     2021.74948        -0.27133         5.64302
     2021.75222         7.39886         5.43224
     2021.75496        17.28305         5.57686
     2021.75706         9.09733         7.41344
     2021.76043         7.12043         5.64586
     2021.76317         5.31161         5.41617
     2021.76591         6.03980         5.46532
     2021.76865         9.61699         5.49273
     2021.77138         7.17118         5.47383
     2021.77412        16.88336         5.50218
     2021.77686         4.84955         5.47477
     2021.77960        10.93174         5.39443
     2021.78234        10.77693         5.44074
     2021.78507        11.71311         5.34906
     2021.78781        10.71830         5.43129
     2021.79055         8.36349         5.38309
     2021.79329         7.76768         5.34906
     2021.79603         4.89586         5.35189
     2021.79876         4.58105         5.34339
     2021.80150         7.46324         5.51825
     2021.80424        11.66843         5.60805
     2021.80698         0.75262         5.42940
     2021.80971         9.07980         8.99103
     2021.81245        19.13499         5.65153
     2021.81519        14.10618         5.41522
     2021.81793        10.27937         5.43224
     2021.82067         3.14855         5.57969
     2021.82340        10.93174         5.62979
     2021.82614         6.21193         5.53905
     2021.82888         8.73112         5.41333
     2021.83162        10.58630         5.47572
     2021.83436        11.23249         5.56930
     2021.83709         9.11768         5.49840
     2021.83983         5.38087         5.66760
     2021.84257         7.80305         5.78764
     2021.84531         5.87624         5.49084
     2021.84804         2.91943         5.55134
     2021.85078         6.44262         5.53810
     2021.85352         7.11081         5.43129
     2021.85626         9.64999         5.59198
     2021.85900         1.26018         5.31597
     2021.86447         0.19956         5.69690
     2021.86721         2.19374         5.73566
     2021.86995        -1.75007         5.77157
     2021.87269        17.98712         5.66949
     2021.87542         5.84631         5.50124
     2021.87816        -0.42851         5.31597
     2021.88090         9.16568         5.55606
     2021.88364         0.22087         5.45020
     2021.88637         2.90106         5.35662
     2021.88911        -1.98476         5.34906
     2021.89185        -1.93757         5.66665
     2021.89459        -0.20238         5.42373
     2021.89733        -1.21019         5.33677
     2021.90006        -5.10200         5.53621
     2021.90280        -4.93382         5.47666
     2021.90554        -0.94563         5.42184
     2021.90828        10.99156         5.60616
     2021.91102         5.16175         5.43791
     2021.91375         2.78893         5.42278
     2021.91649         5.69912         5.46910
     2021.91923         6.65131         5.50880
     2021.92197        -0.75550         5.62506
     2021.92470        -5.85132         5.50029
     2021.92744         4.01487         5.56457
     2021.93018        -2.82794         5.52960
     2021.93291         2.91523         5.64113
     2021.93566        12.66343         5.69974
     2021.93839         6.78662         5.55228
     2021.94113        10.17181         5.71108
     2021.94387        21.88300         5.65909
     2021.94661         0.48819         5.52298
     2021.94935         8.56537         5.49935
     2021.95208         9.76756         5.47855
     2021.95482         2.41975         5.50597
     2021.95756         7.24594         5.50691
     2021.96030         2.05512         5.54472
     2021.96303        -0.79569         5.45965
     2021.96577         6.58750         5.47855
     2021.96851         0.99969         5.60427
     2021.97125         6.89787         5.57497
     2021.97399         6.47606         5.57780
     2021.97672         6.74425         5.48990
     2021.97946        14.83444         5.52203
     2021.98220        11.18763         5.62223
     2021.98494        12.74981         5.49273
     2021.98767        14.57100         5.42846
     2021.99041        20.15519         5.40388
     2022.00410        15.90413         5.47761
     2022.00684        -8.78669         5.51069
     2022.00958        -4.47450         5.55795
     2022.01232       -13.55231         5.48517
     2022.01505         0.34088         5.60049
     2022.01779         1.80506         5.69029
     2022.01937        -3.17222        15.52824
     2022.02345       -12.10701         6.33021
     2022.02600        -7.99837         5.56079
     2022.02874        -8.08018         5.53243
     2022.03148       -18.94900         5.57308
     2022.03422        -2.16181         5.56741
     2022.03696       -11.77462         5.48895
     2022.03969       -11.36443         5.74605
     2022.04243        -5.84625         5.46154
     2022.04517         0.12194         5.52960
     2022.04791        -2.85687         5.48895
     2022.05065        -1.65168         5.43885
     2022.05338        -4.89150         5.50597
     2022.05612       -12.66431         5.43791
     2022.05886        -7.78112         5.45020
     2022.06160       -11.05893         5.50975
     2022.06433         0.82025         5.48990
     2022.06707        -6.51056         5.46059
     2022.06981         2.57963         5.52014
     2022.07255        -7.78918         5.33488
     2022.07529         0.12501         5.37080
     2022.07802         0.93019         5.40766
     2022.08076         2.46138         5.43129
     2022.08350         2.24357         5.43129
     2022.08624        -1.49324         5.32448
     2022.08898         1.16494         5.41050
     2022.09171        -2.56087         5.49179
     2022.09445        -2.38468         5.40672
     2022.09719        -4.72349         5.46343
     2022.09993        -3.71231         5.54188
     2022.10266        -8.93112         5.57213
     2022.10540        -1.00393         5.39726
     2022.10814         5.52926         5.38687
     2022.11088        -2.02356         5.42089
     2022.11362         5.25863         5.42278
     2022.11635         3.63282         5.31314
     2022.11909        -0.95599         5.35378
     2022.12183         2.37720         5.40955
     2022.12457         3.90938         5.50029
     2022.12731         3.66357         5.38970
     2022.13004        -8.79624         5.30558
     2022.13278         2.98695         5.33393
     2022.13552        -1.09387         5.47288
     2022.13826         6.96632         5.38214
     2022.14099         5.38051         5.37174
     2022.14373        -4.45830         5.33866
     2022.14647         2.47888         5.30652
     2022.14921         1.33707         5.60427
     2022.15195         1.08026         5.57875
     2022.15468         1.27645         5.35284
     2022.15742        -1.61737         5.40672
     2022.16016         2.06982         5.39254
     2022.16290        -5.86099         5.48706
     2022.16564        -5.12280         5.36324
     2022.16837         0.65539         5.40577
     2022.17111         1.26257         5.41522
     2022.17385         5.03976         5.35284
     2022.17659        -0.97005         5.32354
     2022.17932        -4.32186         5.33488
     2022.18206        -3.37768         5.41711
     2022.18480        -0.60949         5.43791
     2022.18754         0.50570         5.47855
     2022.19028        -1.98511         5.40388
     2022.19301         1.70907         5.40388
     2022.19575         0.22926         5.41522
     2022.19849        -1.84155         5.40104
     2022.20123         2.79864         5.46816
     2022.20397         4.35382         5.39159
     2022.20670        -4.91699         5.52109
     2022.20944         2.47220         5.44358
     2022.21218         3.02139         5.45492
     2022.21492        -0.87942         5.36229
     2022.21765        -5.39224         5.39632
     2022.22039        -3.35505         5.35000
     2022.22313         0.43414         5.44925
     2022.22587        -2.65567         5.53338
     2022.22861         8.60651         5.48328
     2022.23134         2.74170         5.34528
     2022.23408         1.93389         5.35284
     2022.23682         6.91508         5.62034
     2022.23956        -1.53374         5.41711
     2022.24230         5.39947         6.58542
     2022.24452        14.86810         8.65736
     2022.24774         1.23173         6.68089
     2022.25051        -3.27997         6.22434
     2022.25325       -43.74280        27.37197
     2022.25594         3.30326         5.75645
     2022.25876        -1.29331         5.77630
     2022.26146        -5.65123         5.38214
     2022.26420         1.61395         5.40104
     2022.26694        -6.79586         5.76023
     2022.26967        -1.22367         5.52014
     2022.27241         4.33152         5.41333
     2022.27515         1.41270         5.54661
     2022.27789        -2.32611         5.39159
     2022.28062        -1.90292         5.35284
     2022.28336        -1.88973         5.32921
     2022.28610         0.12845         5.51920
     2022.28884        -4.48536         5.39159
     2022.29158        -5.03017         5.38687
     2022.29431        -3.58698         5.36324
     2022.29705       -12.23480         5.39348
     2022.29979         6.91939         5.40104
     2022.30253         0.71759         5.54756
     2022.30527        -3.49423         5.46059
     2022.30800        -6.83804         5.35284
     2022.31074        -1.22386         5.41144
     2022.31348        -5.49967         5.46532
     2022.31622        -7.03248         5.44169
     2022.31895       -22.20929         5.48990
     2022.32169        -4.69911         5.55890
     2022.32443        -0.31292         5.33299
     2022.32717       -12.48273         5.41900
     2022.32991        -0.86054         5.47572
     2022.33264       -11.00636         5.50029
     2022.33538        -7.72917         5.60049
     2022.33812        -0.47498         5.61372
     2022.34086        -1.48579         5.45776
     2022.34360        -7.19861         5.49840
     2022.34633        -6.73442         5.45965
     2022.34907        -0.89023         5.38403
     2022.35181         4.21896         5.44925
     2022.35455        -4.33185         5.37930
     2022.35728        -6.43867         5.37552
     2022.36002        -1.11548         5.43507
     2022.36276         1.46971         5.30652
     2022.36550        -1.02710         5.48990
     2022.36824        -5.97992         5.48422
     2022.37097        -3.72173         5.48233
     2022.37371        -3.55354         5.37647
     2022.37645        -4.55435         5.43413
     2022.37919        -3.82417         5.52014
     2022.38193        -5.96098         5.46059
     2022.38466        -8.09779         5.38876
     2022.38740       -19.23860         5.41239
     2022.39014        -2.10542         5.32921
     2022.39288        -2.93623         5.37647
     2022.39561        -6.86604         5.48801
     2022.39773        -4.84473         7.59114
     2022.40109        -8.90466         5.59009
     2022.40383        -8.11948         5.29234
     2022.40657        -2.04129         5.29612
     2022.40930        -9.40710         5.42846
     2022.41204        -0.47391         5.36985
     2022.41478        -6.38873         5.31314
     2022.41752        -3.52154         5.62601
     2022.42026       -12.70035         5.51164
     2022.42299        -3.43616         5.36796
     2022.42573        -3.84198         5.51353
     2022.42847        -4.67079         5.33771
     2022.43121        -1.93860         5.41806
     2022.43394        -0.10241         5.55984
     2022.43668        -9.58623         5.35756
     2022.43942        -2.56104         5.46248
     2022.44216        -0.06485         5.57213
     2022.44490         3.71034         5.45209
     2022.44763         0.09753         5.28006
     2022.45037        -6.40129         5.33582
     2022.45311        -5.43610         5.39537
     2022.45585        -4.66291         5.38309
     2022.45859       -17.01172         5.33204
     2022.46132        -9.11554         5.28856
     2022.46406        -6.47735         5.28006
     2022.46680        -1.94116         5.36418
     2022.46954        -9.28097         5.32070
     2022.47227       -17.48179         5.35473
     2022.47501         0.57640         5.32732
     2022.47775        -7.35741         5.46438
     2022.48049        -5.22522         5.42846
     2022.48323         0.57897         5.32448
     2022.48596         7.17215         5.36702
     2022.48870        -6.42566         5.41995
     2022.49144        -6.12547         5.33393
     2022.49418        -6.51028         5.53432
     2022.49692        -3.64910         5.31597
     2022.49965        -9.59791         5.33866
     2022.50239       -17.32272         5.39632
     2022.50513        -7.25053         5.54850
     2022.50787         9.51865         5.80938
     2022.51060       -11.60716         5.57024
     2022.51334        -8.96197         5.41144
     2022.51608       -10.66278         5.44263
     2022.51882       -11.96060         5.34339
     2022.52156        -8.64741         5.35756
     2022.52429        -4.23222         5.29329
     2022.52703        -3.28803         5.37552
     2022.52977         0.77316         5.44736
     2022.53251        -5.40266         5.34811
     2022.53525        -5.97547         5.73377
     2022.53798        -8.36328         5.45020
     2022.54056        -8.62758         5.64680
     2022.54359        -4.34552         5.53905
     2022.54620        -4.99872         5.39537
     2022.54893         0.45647         5.30085
     2022.55167         4.64066         5.32354
     2022.55441        -3.76716         5.29329
     2022.55715         5.52603         5.38970
     2022.55989       -12.12478         5.33771
     2022.56262        -7.90659         5.35095
     2022.56810         1.08078         5.42751
     2022.57084        -9.32303         5.31314
     2022.57357        -1.86484         5.45870
     2022.57631       -12.57965         5.41144
     2022.57905        -8.07347         5.33582
     2022.58179        11.91472         5.50407
     2022.58453         0.84191         5.73093
     2022.58726        -8.63790         5.51447
     2022.59000         2.21328         5.47950
     2022.59274       -10.22753         5.22807
     2022.59548        -3.89834         5.30558
     2022.59822        -7.54715         5.30652
     2022.60095        -9.54197         5.34150
     2022.60369        -4.51278         5.38403
     2022.60643         5.33541         5.58820
     2022.60917        -5.56340         5.36418
     2022.61190         3.51778         5.56930
     2022.61464        10.18997         5.39348
     2022.61738         6.26016         5.28856
     2022.62012        -6.18865         5.29234
     2022.62286        -3.33446         5.32259
     2022.62559         1.79472         5.24225
     2022.62833        -0.01009         5.30747
     2022.63107         3.89310         5.31503
     2022.63381         7.15729         5.37269
     2022.63655        -2.74553         5.27627
     2022.63928         3.61266         5.31786
     2022.64202        -0.23415         5.67233
     2022.64476         4.47304         5.78859
     2022.64750         6.63222         5.47572
     2022.65023         3.04241         5.43413
     2022.65297        11.39660         5.44642
     2022.65571        11.72679         5.45114
     2022.65845         2.32497         5.43318
     2022.66119         4.78016         5.28951
     2022.66392         5.85335         5.33299
     2022.66666         7.95254         5.27155
     2022.66940         8.04573         5.23090
     2022.67214         3.08391         5.26399
     2022.67488         1.91110         5.28384
     2022.67761        11.74729         5.26777
     2022.68035        12.71648         5.23374
     2022.68309         8.61066         5.34244
     2022.68583         7.57485         5.43224
     2022.68856         6.65804         5.37174
     2022.69130         7.02023         5.38309
     2022.69404        10.34241         5.48517
     2022.69678         2.92760         5.56268
     2022.69952         4.34679         5.40483
     2022.70225        13.07598         5.47572
     2022.70499        13.18116         5.40577
     2022.70773         7.12435         5.36985
     2022.71047         7.09754         5.23657
     2022.71321        12.78873         5.31030
     2022.71868        11.38910         5.26966
     2022.72142        12.81029         5.34811
     2022.72416         2.44348         5.33393
     2022.72689        13.43767         5.35945
     2022.72963         8.81185         5.27627
     2022.73238         9.91906         5.48517
     2022.73511         7.60123         5.27060
     2022.73785         9.01242         5.34055
     2022.74058        11.44160         5.62885
     2022.74332         6.88079         5.68083
     2022.74606        10.10998         5.32448
     2022.74880         9.79317         5.33204
