# ================= DQRFIT RESULTS ================
# INPUT FILE: series/ROOS.rad
# OUTPUT: LDETRENDED
# FILTER FUNCTION: f(t)
# f(t)=+line(t)
# line(t)=+P 1+P 2*t
# heav(t)=(t<0?0:1)
# TOTAL OBSERVATIONS MTOT=   88
# INITIAL TIME INTERVAL= 2005.8590 - 2005.5934 =  0.2656
# TOTAL OBSERVATIONS AFTER PREFILTER M=   88
# TIME-SPAN= 2005.8590 - 2005.5934 =  0.2656
# OBSERVATIONS: USED M=    88 REJECTED MTOT-M=     0 %USED=  100.0000
# N=  2 PARAMETERS
# MAXSIG= 175.00000
# MAXRES=  10.73313
# SCALE FACTOR FOR LENGTHS: SCL=  10.00000
# SCALE FACTOR FOR SIGMAS: SCLSIG=   1.00000
# CHI^2=    195.210 DOF=    86 CHI^2/DOF=   2.26988
# RMS=      4.943 SDEV=      4.971 MEAN=   -0.02612
#  P #       PARAMETER +-    SIGMA %error PARAMETER NAME
# P 1 =    -13253.24525 +- ******** 111.37 YZERO                              
# P 2 =         6.61262 +-    7.359 111.28 SLOPE                              
#       T            LDETRENDED       SIG_OBS
     2005.59343         0.16393         4.84584
     2005.59617         4.41866         4.80860
     2005.59890        -1.46250         4.81722
     2005.60164        -5.55347         4.88492
     2005.60438        -2.97759         5.26174
     2005.61259       -10.64870         4.95276
     2005.61533        -3.44895         8.46328
     2005.63723         0.37562         4.97450
     2005.63997        -7.64069         4.84150
     2005.64271         3.53360         4.84422
     2005.64545        -2.26087         4.91642
     2005.64819         0.06010         4.91718
     2005.65092         0.92058         5.14554
     2005.65366        -2.25361         5.00048
     2005.65640         3.87363         4.83228
     2005.65914        -4.35363         4.89386
     2005.66188        -2.07304         5.10830
     2005.66461        -2.77335         4.86789
     2005.66735         6.88423         4.90434
     2005.67009         5.24078         5.17624
     2005.67283         2.50446         4.83006
     2005.67556         7.13246         4.98045
     2005.67830        -4.02986         4.88885
     2005.68104        -5.99277         4.85721
     2005.68378        -3.56193         4.89358
     2005.68652         0.09809         4.92177
     2005.68925         4.46840         4.90330
     2005.69199         5.55557         5.18835
     2005.69473         4.55481         4.95088
     2005.69747        -1.77849         4.89874
     2005.70021        -1.51792         5.19042
     2005.70294        -0.66939         5.01796
     2005.70568         4.19546         5.00851
     2005.70842         6.70200         5.04133
     2005.71116         0.74126         4.87286
     2005.71389        -1.16741         4.90150
     2005.71663         1.18844         5.02525
     2005.71937         4.42727         4.88160
     2005.72211        -0.48958         5.02542
     2005.72485        -4.31143         4.87392
     2005.72758        -8.77735         5.01628
     2005.73032        -5.56328         5.01526
     2005.73306         0.69043         4.99603
     2005.73580         3.91568         5.02335
     2005.73854        -1.57621         4.94964
     2005.74127         0.33762         5.11125
     2005.74401        10.64215         5.01178
     2005.74675         7.71466         4.87189
     2005.74949        10.63966         4.87122
     2005.75222         3.68660         4.96598
     2005.75770       -12.25677         4.96371
     2005.76044        -7.16281         4.97735
     2005.76318        -4.42492         5.02414
     2005.76591         6.90985         4.95659
     2005.76865         3.12861         4.80563
     2005.77139        -0.16262         4.89062
     2005.77413        -7.09652         4.89988
     2005.77687         2.95075         5.04434
     2005.77960         3.31125         4.98072
     2005.78234         3.43585         4.98777
     2005.78508         0.96060         4.86576
     2005.78782         0.38106         4.91972
     2005.79055        -0.35176         4.88958
     2005.79329         4.01417         4.87322
     2005.79603         1.43026         4.92179
     2005.79877         4.79796         4.94106
     2005.80151        -5.07872         4.96579
     2005.80424         0.68340         5.02444
     2005.80698        -1.74506         4.86279
     2005.80972        10.73313         4.84033
     2005.81246         2.50718         4.82965
     2005.81520        -0.55517         5.05338
     2005.81793         4.60172         4.99656
     2005.82067        -0.24468         4.83675
     2005.82341         8.18472         4.89445
     2005.82615         1.57771         5.17846
     2005.82888        -8.38854         4.84745
     2005.83162        -1.69060         4.99479
     2005.83436        -0.63433         5.30385
     2005.83710        -7.79898         5.23901
     2005.83984         4.17987        11.18894
     2005.84257        -2.41697         5.01795
     2005.84531        -5.31625         5.11390
     2005.84805        -4.86454         5.04525
     2005.85079        -7.51714         5.38224
     2005.85352       -10.35229         5.23885
     2005.85626        -1.17338         5.34758
     2005.85900         3.36117         5.36204
