# ================= DQRFIT RESULTS ================
# INPUT FILE: series/RYEP.rad
# OUTPUT: LDETRENDED
# FILTER FUNCTION: f(t)
# f(t)=+line(t)
# line(t)=+P 1+P 2*t
# heav(t)=(t<0?0:1)
# TOTAL OBSERVATIONS MTOT=  243
# INITIAL TIME INTERVAL= 2017.9658 - 2006.5188 = 11.4470
# TOTAL OBSERVATIONS AFTER PREFILTER M=  243
# TIME-SPAN=    0.0000 -    0.0000 =  0.0000
# OBSERVATIONS: USED M=   243 REJECTED MTOT-M=     0 %USED=  100.0000
# N=  2 PARAMETERS
# MAXSIG= 175.00000
# MAXRES=  13.01254
# SCALE FACTOR FOR LENGTHS: SCL=  10.00000
# SCALE FACTOR FOR SIGMAS: SCLSIG=   1.00000
# CHI^2=    227.055 DOF=   241 CHI^2/DOF=   0.94214
# RMS=      5.641 SDEV=      5.652 MEAN=    0.08091
#  P #       PARAMETER +-    SIGMA %error PARAMETER NAME
# P 1 =       -25.96802 +-  209.937 808.45 YZERO                              
# P 2 =         0.01378 +-    0.104 757.89 SLOPE                              
#       T            LDETRENDED       SIG_OBS
     2006.51883         4.47729         6.02668
     2006.52157        -0.93675         5.95389
     2006.52430         4.52722         5.93350
     2006.52704        11.31018         5.97233
     2006.52978         8.22214         5.90633
     2006.53252         0.32510         5.83062
     2006.53525         3.64107         5.87041
     2006.53799         6.69703         5.96165
     2006.54073         2.82299         6.18490
     2006.54347         5.96195         5.75199
     2006.54621         0.59491         5.81800
     2006.54894        -1.54712         5.72190
     2006.55168         0.69384         5.73064
     2006.55442        -3.12620         5.93447
     2006.55716        -2.65924         5.89662
     2006.55990         0.49873         5.76461
     2006.56263        -0.59131         5.82964
     2006.56537         6.35665         5.68502
     2006.56792        -0.92838         6.05969
     2007.05271        -1.93006         5.70055
     2007.05545        -0.87910         5.49866
     2007.05818        -7.27514         5.51225
     2007.06092        -4.34318         5.56757
     2007.06366        -7.03122         5.52584
     2007.06640        -5.78625         5.56175
     2007.06914        -1.85329         5.44916
     2007.07187         3.73867         5.47730
     2007.07461        -2.89237         5.47924
     2007.07735        -0.15040         5.43945
     2007.08009         1.06656         5.43363
     2007.08282         2.95652         5.44333
     2007.08556         1.20248         5.54913
     2007.08830        -0.39155         5.58213
     2007.09104         1.80041         5.54816
     2007.09378         0.31937         5.47051
     2007.09651        -3.27667         5.47536
     2007.09925         0.73729         5.55690
     2007.10199        -0.98574         5.47730
     2007.10473        -3.52878         5.66367
     2007.10747        -3.07882         5.76170
     2007.11020        -6.34786         5.44430
     2007.11294        -2.41489         5.54428
     2007.11568        -4.12693         5.47342
     2007.11842        -0.97297         5.41324
     2007.12115        -0.17201         5.46080
     2007.12389        -3.29505         5.48992
     2007.12663        -1.33808         5.52875
     2007.12937        -5.88112         5.61028
     2007.13211         0.91984         5.43363
     2007.13484         0.85980         5.44624
     2007.13758         7.09777         5.60155
     2007.14032        -2.21227         5.65687
     2007.14306         4.89969         5.58893
     2007.14580         3.87365         5.55787
     2007.14853        -3.32338         5.47148
     2007.15127        -4.72642         5.54719
     2007.15401         4.16654         5.53457
     2007.15675         4.68050         5.53166
     2007.15948         3.91546         5.56175
     2007.16222         3.82043         5.69764
     2007.16496         1.76639         5.70055
     2007.16770         1.19935         5.62581
     2007.17044         2.03231         5.65978
     2007.17317        -1.45772         5.66367
     2007.17591        -2.91076         5.66075
     2007.17865         4.57720         5.61028
     2007.18139         6.15416         5.73452
     2007.18413         2.67312         5.72482
     2007.18686         3.54909         5.85682
     2007.18960        -6.05495         5.68211
     2007.19234        -5.02499         5.68308
     2007.19508         0.89197         5.55301
     2007.72074         3.32873         5.61222
     2007.72348         6.13469         5.69084
     2007.72622         3.66066         5.72385
     2007.72896         6.64662         5.67628
     2007.73170         2.37758         5.68017
     2007.73443         0.98754         5.57146
     2007.73717         2.30250         5.80635
     2007.73991         5.21947         5.69376
     2007.74265         8.39143         5.70443
     2007.74538         5.23439         5.62096
     2007.74812         2.31535         5.84129
     2007.75086         7.85732         5.91215
     2007.75360         9.75528         5.81897
     2007.75634         2.66324         5.87332
     2007.75907         3.37420         5.64619
     2007.76181         6.13516         5.65687
     2007.76455         3.47713         5.57534
     2007.76729         1.52209         6.06939
     2007.77003         0.26405         6.02377
     2007.77276         4.48701         5.95389
     2007.77550         2.79098         5.59087
     2007.77824        10.91994         5.70346
     2007.78098         8.57590         5.62775
     2007.78371         2.35986         5.60446
     2007.78645         6.31083         5.58893
     2008.53662        -7.51151         5.70152
     2008.53936         0.56745         5.73355
     2008.54209        -3.86559         5.70832
     2008.54483         3.55138         5.80150
     2008.54757         2.28434         5.77044
     2008.55305        -2.13874         5.84615
     2008.55578        -1.98878         5.70540
     2008.55852         1.35519         5.71317
     2008.56126         2.42515         5.62096
     2008.56400         0.94411         5.61513
     2008.56674        -2.96093         5.67531
     2008.57221         0.74700         5.69084
     2008.57495         1.29996         5.71220
     2008.57769        -0.68808         5.76170
     2008.58042         5.79789         5.57728
     2008.58316         2.16385         5.50545
     2008.58590         6.72881         5.51710
     2008.59138        -1.23627         5.53166
     2009.92471        -8.82764         5.57534
     2009.92745        -6.06568         5.58796
     2009.93019        -8.57271         5.58213
     2009.93293        -3.24775         5.58310
     2009.93567        -3.76379         5.61999
     2009.93840        -1.54983         5.76947
     2009.94114        -2.44486         5.59087
     2009.94388        -6.96490         5.73938
     2009.94662       -13.36294         5.61999
     2009.94935       -15.58998         5.55107
     2009.95209       -11.87701         5.53651
     2009.95483       -13.03905         5.53360
     2009.95757       -10.83309         5.64134
     2009.96031        -9.09113         5.53360
     2009.96304       -12.12817         5.57922
     2009.96578       -15.04620         5.64328
     2009.96852       -12.76124         5.64037
     2009.97126       -11.68128         5.66270
     2009.97400        -7.67532         5.61513
     2009.97673       -11.48835         5.54040
     2009.97947       -10.83239         5.49186
     2009.98221        -9.67143         5.52972
     2009.98495        -6.26847         5.52778
     2009.98768        -6.22751         5.55301
     2009.99042        -5.10354         5.47633
     2009.99316        -6.39258         5.56272
     2009.99590        -4.85562         5.59960
     2009.99864       -11.72966         5.57728
     2010.00959        -7.35081         5.56369
     2010.01233        -9.66884         5.53845
     2010.01506       -11.93688         5.53748
     2010.01780        -5.95792         5.46857
     2010.02054        -8.90296         6.36835
     2010.02601        -5.72303         6.48580
     2010.02875        -7.09907         5.54428
     2010.03149        -7.89211         5.95097
     2010.03423        -9.20815         5.64037
     2010.03697        -8.85918         5.84420
     2010.03970        -2.42622         5.65784
     2010.04244        -7.31726         5.52778
     2010.04518         0.23870         5.66949
     2011.92882        -1.73825         5.63358
     2011.93156         4.05571         5.57340
     2011.93430         2.57667         5.57437
     2011.93703         0.86663         5.57825
     2011.93977         1.11360         5.55593
     2011.94251         7.34156         5.57048
     2011.94525         6.83952         5.55981
     2011.94799         6.85848         5.59087
     2011.95072         5.72045         5.47051
     2011.95346         4.17841         5.58796
     2011.95620         4.43337         5.63649
     2011.95894         1.97633         5.41421
     2011.96167         5.28230         5.35500
     2011.96441         4.89326         5.45595
     2011.96715         5.83622         5.41227
     2011.96989         8.78118         5.39577
     2011.97263         2.06614         5.41227
     2011.97536         0.44911         5.39771
     2011.97810         0.10507         5.39189
     2011.98084         3.24103         5.39674
     2011.98358         5.87699         5.38315
     2011.98632         4.10596         5.38509
     2011.98905         2.74592         5.50254
     2011.99179         9.25488         5.49089
     2011.99453        10.33584         5.51807
     2011.99727         4.98180         5.40645
     2012.00274         2.29473         5.42586
     2012.00548         5.56969         5.37053
     2012.00822         5.18665         5.38995
     2012.01096        -1.38438         5.50739
     2012.01369         8.94558         5.37150
     2012.01643        13.01254         5.35015
     2012.01917         4.26650         5.38801
     2012.02150         4.27847         6.66828
     2013.61534         8.19851         6.13345
     2013.61807         8.97947         6.09948
     2013.62081         7.19543         6.37126
     2013.62355         1.87340         6.12666
     2013.62629        -0.41964         6.18975
     2013.62903         0.90532         6.24702
     2013.63176        -3.78172         5.78694
     2013.63451         5.55625         6.30137
     2013.63722        -0.77079         5.96359
     2013.63998        -2.82083         5.77432
     2013.64545         0.09209         5.45110
     2013.64819         4.95006         5.57728
     2013.65640         9.62694         6.16063
     2013.68376         4.64557         5.50545
     2013.69200         3.26845         7.31278
     2015.54005         4.77999         5.62678
     2015.54278        -3.40205         5.69473
     2015.54552         9.95391         5.67240
     2015.54826         0.87488         5.55398
     2015.55100         2.12384         5.63066
     2015.55374         4.23780         5.67823
     2015.55647         0.98376         5.61125
     2015.55921         6.58172         5.54234
     2015.56195         9.36069         5.65202
     2015.56469         6.98565         5.64814
     2015.56742         1.66761         5.79858
     2015.57016         3.28657         6.06357
     2015.57290         3.87454         6.04124
     2015.57564        -0.17150         5.96748
     2015.57838         0.62646         6.78766
     2015.58111         8.02442         8.33001
     2015.58385         6.13639         8.28147
     2015.58659        -6.98165         8.64546
     2015.60028         6.50316         6.43532
     2017.91650        -1.18576         5.47245
     2017.91924         1.09221         5.39868
     2017.92198        -3.27283         5.43557
     2017.92471        -0.00387         5.41421
     2017.92745        -5.74491         5.43071
     2017.93019        -7.24194         5.47051
     2017.93293        -7.04098         5.37733
     2017.93567        -6.76302         5.40645
     2017.93840        -0.80006         5.35792
     2017.94114        -5.15510         5.38121
     2017.94388         0.90487         5.39480
     2017.94662        -1.18417         5.37150
     2017.94935        -3.71621         5.34336
     2017.95209        -1.49325         5.49769
     2017.95483        -5.46928         5.45498
     2017.95757        -5.52632         5.40839
     2017.96031        -1.49436         5.39092
     2017.96304        -1.32540         5.39092
     2017.96578         0.84056         5.51128
