# ================= DQRFIT RESULTS ================
# INPUT FILE: series/SEPR.rad
# OUTPUT: LDETRENDED
# FILTER FUNCTION: f(t)
# f(t)=+line(t)+annual(t)
# line(t)=+P 1+P 2*t
# annual(t)=+P 3*sin(2*pi*t+P 4)
# heav(t)=(t<0?0:1)
# TOTAL OBSERVATIONS MTOT= 1600
# INITIAL TIME INTERVAL= 2022.7488 - 2017.7413 =  5.0075
# TOTAL OBSERVATIONS AFTER PREFILTER M= 1556
# TIME-SPAN= 2022.7488 - 2017.7413 =  5.0075
# OBSERVATIONS: USED M=  1556 REJECTED MTOT-M=    44 %USED=   97.2500
# N=  4 PARAMETERS
# MAXSIG= 175.00000
# MAXRES=  47.06107
# SCALE FACTOR FOR LENGTHS: SCL=  10.00000
# SCALE FACTOR FOR SIGMAS: SCLSIG=   1.00000
# CHI^2=   4286.382 DOF=  1552 CHI^2/DOF=   2.76184
# RMS=     10.303 SDEV=     10.306 MEAN=    0.08354
#  P #       PARAMETER +-    SIGMA %error PARAMETER NAME
# P 1 =     43346.08116 +-  383.180   0.88 YZERO                              
# P 2 =       -21.51839 +-    0.190   0.88 SLOPE                              
# P 3 =        13.16458 +-    0.385   2.93 ANNUAL AMPLITUDE                   
# P 4 =         1.23266 +-    0.013   1.03 ANNUAL PHASE                       
#       T            LDETRENDED       SIG_OBS
     2017.74127        -8.68730         9.93472
     2017.74401         1.53362         9.84331
     2017.74674        -0.97947         9.89483
     2017.74948        12.42545         9.85827
     2017.75222        12.87636         9.94635
     2017.75496        -2.08373         9.87655
     2017.75770        -3.94081        10.11254
     2017.76043        -4.89090         9.87323
     2017.76317        -0.31098        10.00784
     2017.76591        12.74293         9.88486
     2017.76865        21.77385         9.92973
     2017.77138        -4.38224         9.85495
     2017.77412        -3.86033         9.85495
     2017.77686       -12.75241         9.89982
     2017.77960        -7.31350         9.86824
     2017.78234         2.99942         9.90480
     2017.78507         4.38133         9.88320
     2017.78781        -0.76376         9.78349
     2017.79055        -4.75384         9.99122
     2017.79329         2.63307        10.05437
     2017.79603         7.83199         9.99454
     2017.79876         0.25490        10.29368
     2017.80150        -0.32019        10.18234
     2017.80424         0.28473        10.32692
     2017.80698         6.61864        10.10921
     2017.80971         2.78356        10.21225
     2017.81245       -12.64953        10.08927
     2017.81519        -5.09261        10.01116
     2017.81793        -8.75570         9.79678
     2017.82067       -12.92079        10.10921
     2017.82340       -10.84087         9.96629
     2017.82614       -13.08596         9.81008
     2017.82888        -9.77904         9.89151
     2017.83162        -6.20113        10.00119
     2017.83436        -0.59422         9.84664
     2017.83709        12.02770        10.12251
     2017.83983         6.02861         9.78515
     2017.84257         6.01053         9.91311
     2017.84531         6.49844         9.96297
     2017.84804        -0.60064         9.82836
     2017.85078        -8.44673        10.00119
     2017.85352        -6.83582         9.99288
     2017.85626         3.32910        10.08927
     2017.85900        -8.52399        10.23884
     2017.86173         7.62593        10.27374
     2017.86447         1.89284         9.93472
     2017.86721        12.54375        10.03277
     2017.87000         2.31390        10.21890
     2017.87269         8.45758        10.02778
     2017.87542        13.96050         9.87821
     2017.87816        15.30741         9.87323
     2017.88090         9.12733         9.97128
     2017.88312       -10.11491        13.26845
     2017.88637         4.13915        10.81219
     2017.88911         3.71907         9.96962
     2017.89185        -0.10302         9.98623
     2017.89459         5.53090        10.03609
     2017.89733        14.95081        10.12085
     2017.90006         6.26072        10.03443
     2017.90280        -0.09636        10.04440
     2017.90554         6.88555         9.85827
     2017.90828         3.12247        10.06102
     2017.91102        15.59538        10.17070
     2017.91375        -1.59170        10.21890
     2017.91649         0.62321        10.07598
     2017.91923         2.39012        10.01615
     2017.92197        14.12904        10.13913
     2017.92470         4.17195        10.07598
     2017.92744        -6.96013        10.13248
     2017.93018        -5.64722        11.20772
     2017.93292        -4.97131        10.16406
     2017.93566         2.61961        10.13248
     2017.93839         2.33952        10.09924
     2017.94113         0.37244        10.12417
     2017.94387         0.07435        10.14578
     2017.94661         2.79527        10.12916
     2017.94935         2.83618        10.13913
     2017.95208        -3.57391        10.27208
     2017.95482        -2.01999        10.20893
     2018.21791         3.05219        10.96508
     2018.22039         9.27668        10.07431
     2018.22313         4.68459        10.05271
     2018.22587        -6.23649        10.07598
     2018.22861       -12.22958        10.11919
     2018.23134         4.85334        10.80720
     2018.23408        26.61025        10.18732
     2018.23682        -4.41883        10.25214
     2018.23956        -7.16992        10.18566
     2018.24230         1.53099        10.14411
     2018.24503        -8.49109        10.23053
     2018.24777        -1.65318        10.23385
     2018.25051         9.26074        10.27374
     2018.25325        -2.82435        10.23053
     2018.25598         0.16256        10.17403
     2018.25872         3.63848        10.34852
     2018.26146         1.41039        10.55958
     2018.26420        15.18531        10.19563
     2018.26694         5.42722        10.15741
     2018.26967         5.00614        10.33024
     2018.27241         0.29805        10.38841
     2018.27515        15.29796        10.23718
     2018.27789         9.36188        10.38342
     2018.28062         0.14779        10.54296
     2018.28336         5.54771        10.22721
     2018.28610        -0.05438        10.13580
     2018.28884         2.11653        10.23385
     2018.29158         7.90845        10.44325
     2018.29431        -4.59064        10.50474
     2018.29705        -6.81572        10.07764
     2018.29979        -5.71881        10.30033
     2018.30253        -6.83890        10.15907
     2018.30527        -8.54798        10.23718
     2018.30800        -5.92807        10.29867
     2018.31074       -11.18515        10.26377
     2018.31348         2.71376        10.14744
     2018.31622        -4.28432        10.22056
     2018.31895         3.93659        10.52136
     2018.32169        -4.31050        10.14578
     2018.32443        -4.77758        10.11254
     2018.32717       -13.99467        10.16738
     2018.32991        -4.75475        10.50973
     2018.33264        -7.06684        10.19896
     2018.33538       -14.06293        10.43162
     2018.33812        -9.87101        10.70250
     2018.34086       -13.12810        10.25878
     2018.54192         7.22251        32.76728
     2018.54620        -4.34154         9.77850
     2018.54893       -11.26462         9.90480
     2018.55167       -11.88671         9.84664
     2018.55441        -6.95179         9.95798
     2018.55715        -8.65988        10.02778
     2018.55989       -10.55096        10.16073
     2018.56262        -7.01405         9.85993
     2018.56536        -7.80514         9.89151
     2018.56810        -0.45822         9.96131
     2018.57084        -5.84031        10.04274
     2018.57357         0.60261        10.24050
     2018.57631       -14.35248        10.40503
     2018.57905        -7.17157        10.46984
     2018.58179        -3.30965        10.08761
     2018.58453       -17.56674        10.18566
     2018.58726        -2.75982         9.85495
     2018.59000        -2.58991         9.85162
     2018.59274        -0.84399         9.93305
     2018.59548         2.57992         9.99953
     2018.59822        -3.47017         9.91477
     2018.60095        -7.92225         9.87655
     2018.60369         0.57066         9.90148
     2018.60643        -0.86942         9.93305
     2018.60917        -5.69051         9.83500
     2018.61190        -1.92260         9.97128
     2018.61464         1.93632         9.92142
     2018.61738         1.91323         9.83999
     2018.62012         4.61915         9.93305
     2018.62286         2.89806        10.25047
     2018.62559         1.75697        10.17901
     2018.62833        -7.13411         9.86658
     2018.63107        -4.29320         9.87156
     2018.63381        -4.03228        10.12417
     2018.63655        -1.46437         9.99953
     2018.63928        -2.11145        10.38675
     2018.64202        -7.26154        10.35517
     2018.64476         1.16437         9.87323
     2018.64750        -7.00371         9.98956
     2018.65023         5.19520        10.04939
     2018.65297         5.63312        10.04939
     2018.65571        -0.13097         9.95964
     2018.65845        -2.14406         9.86492
     2018.66119         3.28186        10.16239
     2018.66392         4.85777         9.88486
     2018.66666        -1.48031         9.87323
     2018.66940        -0.16140        10.06268
     2018.67214        -6.79648         9.97460
     2018.67488        -3.78357        10.14578
     2018.67761        -3.25566         9.92475
     2018.68035        -5.13074        10.10090
     2018.68309       -13.84483        10.13580
     2018.68583        -1.89891        10.03111
     2018.68856        -8.82500         9.95466
     2018.69130        -5.68409         9.95300
     2018.69404        -3.21917        10.16572
     2018.69678         0.12474         9.94967
     2018.69952         1.79166        10.00452
     2018.70225        -5.15343        10.21557
     2018.70499        -7.99551         9.95632
     2018.70773       -22.00460        10.03775
     2018.71047        -9.93669         9.99787
     2018.71321        -5.98277        10.04606
     2018.71594        -9.01486         9.87323
     2018.71868       -12.14094         9.89317
     2018.72142       -12.68503         9.98457
     2018.72416         9.52488         9.96297
     2018.72689         0.01280         9.95798
     2018.72963        -3.83129         9.98956
     2018.73237       -10.49737        10.10423
     2018.73511        -9.50746         9.86824
     2018.73785        -6.16854         9.89151
     2018.74058        -8.66163         9.81174
     2018.74332        -1.84772        10.00452
     2018.74606       -10.87380         9.95300
     2018.74880         2.35511         9.92142
     2018.75427        -2.99406         9.94801
     2018.75701        -3.38315        10.12417
     2018.75975        -3.80323         9.98125
     2018.76249        18.91668        10.00285
     2018.76522        -7.36240        10.05936
     2018.76796         3.32251         9.87821
     2018.77070        10.68142        10.04606
     2018.77344        -2.17466         9.92973
     2018.77618        -6.28675         9.97959
     2018.77891        -1.49783         9.79678
     2018.78165        -9.49492         9.93804
     2018.78439       -10.32300         9.89649
     2018.78713        -7.84109         9.99288
     2018.78987       -12.22718        10.06600
     2018.79260       -12.32426         9.92308
     2018.79534        -0.03035         9.92142
     2018.79808       -11.04043         9.86326
     2018.80082        -5.30752         9.87987
     2018.80355        -4.88061         9.91311
     2018.80629        -4.05269        10.18067
     2018.80903        -7.62378         9.92641
     2018.81177        -8.29586        10.47317
     2018.81451        -2.56095        10.13248
     2018.81724         5.68097        10.05437
     2018.81998        -1.47312        10.02944
     2018.82272         1.03479        10.01449
     2018.82546        -0.41729         9.94469
     2018.82820        -4.62138         9.89982
     2018.83093         1.26354         9.95632
     2018.83367         0.15245         9.76687
     2018.83641         9.49136        10.09426
     2018.83915         7.99928         9.89317
     2018.84188        -3.08081        10.11420
     2018.84462        16.43711         9.90979
     2018.84736        17.98902         9.80675
     2018.85010        23.01394         9.96297
     2018.85284         4.13585         9.96962
     2018.85557       -12.94024        10.07598
     2018.85831        -7.61132         9.93638
     2018.86105        -5.21941         9.90979
     2018.86379        -1.95849        10.08096
     2018.86653         0.45042         9.94635
     2018.86926        -5.81767        10.06434
     2018.87200         0.92825        10.06102
     2018.87474         9.28816         9.92973
     2018.87748        -3.52292        10.05271
     2018.88021        -7.41601        10.19065
     2018.88295        -7.26709        10.14411
     2018.88569        -4.23018        10.19065
     2018.88843        -1.34327        10.19231
     2018.89117        10.24665        10.18234
     2018.89390        12.62456        10.17569
     2018.89664        13.08248        10.35019
     2018.89938         3.08739        10.05936
     2018.90212         1.43630        10.07598
     2018.90485        13.56522        10.00618
     2018.90759         8.43313        10.16406
     2018.91033        14.74105         9.80177
     2018.91307        19.24596         9.99288
     2018.91581        13.99188         9.75357
     2018.91854        18.99779         9.87821
     2018.92128        12.45570         9.92973
     2018.92402        11.41462         9.86326
     2018.92676        18.35353         9.78016
     2018.92950        17.62345         9.85993
     2018.93223         9.84936        10.26709
     2018.93497        18.77827        10.03775
     2018.93771        18.40719         9.92973
     2018.94045        26.68610         9.81174
     2018.94318        23.91002         9.77351
     2018.94592        44.30493         9.83833
     2018.94866        28.86684        10.05603
     2018.95140        18.86376        10.24549
     2018.95414        27.49167         9.95134
     2018.95687        20.56459         9.90480
     2018.95961        33.72650         9.79844
     2018.96235        32.69742         9.92807
     2018.96509        32.86233         9.98291
     2018.96783        30.36824        10.16904
     2019.03197        49.54553        28.90507
     2019.03353        37.92718        22.30575
     2019.03627         6.06410        16.82487
     2019.03901        16.81801        16.51908
     2019.04082         1.94988        18.46348
     2019.06365        60.20024        13.42466
     2019.06639        15.04015        10.29701
     2019.06913         8.55807        10.47150
     2019.07186         9.97898        10.45156
     2019.07460         6.47790        10.09426
     2019.07734         7.43781        10.09259
     2019.08008        13.00672        10.10257
     2019.08282        10.01264        10.50973
     2019.08555        15.85455        10.09426
     2019.08829        17.59447        10.02280
     2019.09103        18.07338        10.02778
     2019.09377        11.30630         9.93139
     2019.09650         6.20021        10.03941
     2019.09924         2.37112        10.07099
     2019.10198         4.27704        10.00285
     2019.10861        33.64572        25.45833
     2019.11019         8.67078        10.13082
     2019.11293        17.82669        10.28039
     2019.13056        34.56306        28.88845
     2019.13210        16.40409        13.18037
     2019.13483        22.71501        14.13429
     2019.13757        20.74592        14.46334
     2019.14031        19.34884         9.98125
     2019.14305        12.78475        10.09758
     2019.14579        14.43166        10.09592
     2019.14852         8.40858        10.01781
     2019.15126        15.09349        14.81399
     2019.15400        16.85441        12.26800
     2019.15674        14.66332        10.16904
     2019.15948         8.74823         9.96297
     2019.16221        14.08115        10.35351
     2019.16495         8.48206        10.09758
     2019.16769        -0.92202        10.07431
     2019.17043         2.74989         9.91477
     2019.17316         3.43481        10.10257
     2019.17590         4.61172        10.00452
     2019.17864         7.45963        10.07431
     2019.18138         1.65755        10.08429
     2019.18412       -10.19454        10.01282
     2019.18685         1.56638         9.93804
     2019.18959         5.39329        10.06933
     2019.19233        11.40620        10.17403
     2019.19507        23.15812        10.15408
     2019.19780        11.17003        10.05271
     2019.20054         6.15695        10.42331
     2019.20328        -2.09614        10.00119
     2019.20602        -0.73522        10.20560
     2019.20876         2.77569        10.12916
     2019.21149         2.07960        10.24715
     2019.21423         9.88952        10.10755
     2019.21697         7.23143        10.00285
     2019.21971         9.81335        10.41168
     2019.22245         9.85926        10.05437
     2019.22518         8.87217        10.20726
     2019.22792         7.33209        10.11420
     2019.23066         5.95200        10.00119
     2019.23340         5.89092        10.03941
     2019.23613         6.92283        10.00285
     2019.23887         2.22975         9.93472
     2019.24161         4.15966        10.51970
     2019.24435         3.26957        10.40503
     2019.24709         0.02849        10.32027
     2019.24982        13.13340        10.02612
     2019.25256        20.83932        10.42331
     2019.25530        10.58923        10.07099
     2019.25804         6.71714        10.09093
     2019.26078        22.18506        10.08429
     2019.26351        13.47097        10.12583
     2019.26625         9.99989        10.19231
     2019.27451        21.28665        10.20062
     2019.27725        18.23657        10.47150
     2019.27994        13.69446        10.16904
     2019.28268        11.56037        10.12251
     2019.28542         9.30029        10.01615
     2019.28815        10.53920        10.12085
     2019.29089        15.98311        10.08096
     2019.29363         9.56003        10.25214
     2019.29637         4.66994        10.38342
     2019.29911        15.05086        10.20394
     2019.30184         3.36077        10.26543
     2019.30458         2.65368        10.22388
     2019.30839        15.15161        23.32947
     2019.31006         5.38651        10.06933
     2019.31279        -4.18457        10.10589
     2019.31553         6.06634         9.98790
     2019.31827        -3.36974        10.36514
     2019.32101         0.63217        10.21391
     2019.32375       -14.68692        10.43827
     2019.32648        -6.49000        10.66594
     2019.32922        -3.33109         9.94801
     2019.33196        -4.80217        10.39007
     2019.33470        -2.45226        10.36681
     2019.33744        -0.99235        10.41666
     2019.34017        -6.50043         9.97294
     2019.34291        -8.87352        10.70583
     2019.34565       -15.89560        10.73076
     2019.34839       -10.70869        10.24715
     2019.35112       -17.61477        10.19729
     2019.35386       -14.96386         9.88652
     2019.35660       -21.95595        10.27873
     2019.35934       -17.00203        10.34022
     2019.36208       -17.37812         9.98457
     2019.36481       -14.03220         9.98790
     2019.36755       -18.51429        10.26377
     2019.37029        -7.78438         9.90480
     2019.37303        -7.36346        10.05271
     2019.37577       -15.53655        10.53133
     2019.37850        -7.34563        10.41001
     2019.38124       -25.57872        10.02944
     2019.38398       -13.80380        10.01116
     2019.38672       -19.79589        10.05105
     2019.38945       -26.75498        10.85207
     2019.39219       -12.06706         9.94967
     2019.39493       -14.47315        10.72411
     2019.39767        -8.23023         9.94303
     2019.40041       -20.11932         9.86326
     2019.40314       -17.44841         9.98291
     2019.40588       -13.82749         9.81340
     2019.40862       -11.16358        11.28416
     2019.41136       -18.66966        10.10423
     2019.41410       -15.91875         9.95134
     2019.41683       -16.27384        10.18400
     2019.41957       -10.85992        10.34022
     2019.42231       -31.13801        10.22721
     2019.42505       -15.59809        10.07930
     2019.42778       -15.61518        10.19729
     2019.43052        -9.79326         9.99288
     2019.43326       -12.59235        10.09758
     2019.43600       -19.78744        10.27540
     2019.43874       -22.03652        10.31362
     2019.44147       -25.19561        10.20726
     2019.44421       -17.88769        10.30365
     2019.44695       -26.34978        11.35729
     2019.44969       -22.22487        10.93351
     2019.45243       -15.75195        10.38010
     2019.45516       -14.56104        10.29202
     2019.45790       -17.16412        10.24881
     2019.46064       -18.43721        10.97339
     2019.46338        -9.44629        11.00995
     2019.46611        -0.32438        10.40835
     2019.46885        -6.74547        10.45488
     2019.47159       -15.16355        10.38176
     2019.47433       -17.65964        10.80554
     2019.47707       -15.33572        10.29534
     2019.47980       -13.64881        10.66927
     2019.48254       -17.20390        10.50474
     2019.48528        -7.12398        10.38176
     2019.48802       -14.46707        10.31529
     2019.49076       -25.93015        16.39278
     2019.49349       -13.13324        10.29701
     2019.49623       -10.90432        11.27087
     2019.49897       -13.89941         9.86492
     2019.50171       -11.17350         9.91644
     2019.50444       -15.12158        10.74405
     2019.50718       -12.19567        10.47981
     2019.50992       -18.02775        10.02113
     2019.51266       -20.04784        10.48480
     2019.51540        -8.31693         9.87489
     2019.51813       -22.61601         9.93970
     2019.52087       -20.91410         9.99787
     2019.52361       -12.00818        10.02778
     2019.52635       -17.34227        10.02612
     2019.52908       -13.72535        10.96508
     2019.53182       -12.49844        11.42376
     2019.53456       -21.70453        10.18732
     2019.53730       -15.26061        10.41832
     2019.54004       -23.09570        10.41832
     2019.54277        -9.46778        10.15076
     2019.54551        -4.31887        10.47317
     2019.54825        -7.96096        10.06933
     2019.55099       -18.58204         9.98125
     2019.55373       -11.22113        10.38010
     2019.55646       -13.88421        10.52136
     2019.55920       -12.60430        10.53632
     2019.56194       -11.25439        11.15952
     2019.56468       -15.60247        10.08927
     2019.56741       -17.32056        10.19563
     2019.57015       -10.70264        10.19563
     2019.57289       -15.41673        10.41832
     2019.57563       -11.38081        10.18400
     2019.57837        -8.71990        10.20560
     2019.58110       -16.52299        10.19563
     2019.58384       -20.73407        10.62938
     2019.58658        -7.98816        11.09138
     2019.58932         4.93276        10.56623
     2019.59206       -11.51433        10.35019
     2019.59479       -11.02842        10.15575
     2019.59753       -11.49050        11.02657
     2019.60027       -10.01359        10.86371
     2019.60301        -8.95567         9.93638
     2019.60574        -2.87976        10.62273
     2019.60848       -15.31284        10.35351
     2019.61122       -22.96693        10.89030
     2019.61396        -5.36502        12.01871
     2019.61670       -14.39010         9.88818
     2019.61943        -9.05119        10.80887
     2019.62217        -6.27627        10.62772
     2019.62491        -6.98236         9.98623
     2019.62765        -6.64445        10.29202
     2019.63039        -7.90653        10.16738
     2019.63312        -7.25862        10.99500
     2019.63586        -3.96870        10.39838
     2019.63860        -8.64379        10.32858
     2019.64134        -9.13987        10.51305
     2019.64407       -11.16096        10.10423
     2019.64681       -13.34205        10.06767
     2019.64955       -10.86813        10.27208
     2019.65229        -9.16222        10.55127
     2019.65503       -14.82330        10.95511
     2019.65776        -9.77939        10.53798
     2019.66050        -5.87048        10.37678
     2019.66324        -4.20156        10.02778
     2019.66598        -4.24665        10.21890
     2019.66872        -8.26173        10.02280
     2019.67145       -10.96882        10.02612
     2019.67419       -11.27090        10.01615
     2019.67693        -0.82099        10.37511
     2019.67967        -9.43308        10.19065
     2019.68240       -10.45716        10.19563
     2019.68514         4.72675        11.01161
     2019.68788        -3.94133        10.13580
     2019.69062       -13.44542        10.01615
     2019.69336       -23.04851        10.32692
     2019.69609        -9.25959        10.01282
     2019.69883       -14.08768        10.42165
     2019.70157       -16.95876         9.97294
     2019.70431       -13.46485         9.97294
     2019.70705       -12.23493         9.97460
     2019.70978       -16.37702        10.02446
     2019.71252       -37.76911        10.08595
     2019.71526       -20.65919         9.82171
     2019.71800       -14.62728        10.60944
     2019.72073       -17.19836        10.38342
     2019.72347        -7.93045         9.96297
     2019.72621       -12.14954         9.98956
     2019.72895        -6.74162         9.98291
     2019.73169        -9.46171         9.89982
     2019.73442        -3.27879         9.99953
     2019.73716        -6.13788        10.06600
     2019.73990        -7.11297        10.22222
     2019.74264       -16.06505        10.02944
     2019.74538       -13.97714         9.95466
     2019.74811        -6.76522        10.11752
     2019.75085        -9.58731        10.97007
     2019.75359        -7.51539        10.24715
     2019.75633       -12.19348        10.30864
     2019.75906        -3.44757        12.70175
     2019.76180       -11.07165        10.09093
     2019.76454        -1.60874        10.33357
     2019.76728        -0.28282         9.92142
     2019.77002        -1.30191         9.92973
     2019.77275         0.05400        10.67924
     2019.77549        -7.09908        10.22222
     2019.77823        -9.52917        10.08761
     2019.78097        -3.38925         9.86658
     2019.78371        -7.34234         9.98956
     2019.78644        -7.67942        10.03609
     2019.78918        -8.84551        10.41500
     2019.79192         5.92740         9.88486
     2019.79466         8.72132         9.92641
     2019.79739         5.75823         9.95798
     2019.80013        17.74515        10.05936
     2019.80287        -0.36294        10.15408
     2019.80561        -6.77803        10.17237
     2019.80835       -15.24211        10.17237
     2019.81108       -11.62220        10.11586
     2019.81382        -7.28228         9.99288
     2019.81656        -8.26437         9.94303
     2019.81930       -11.73245        10.10423
     2019.82203       -12.11054         9.86824
     2019.82477       -17.17463         9.97793
     2019.82751       -12.78671        10.44325
     2019.83025       -10.01780        10.29534
     2019.83299       -12.25888        10.50474
     2019.83572       -13.17597        10.64434
     2019.83846        -6.53206        10.49477
     2019.84120       -12.70214         9.87323
     2019.84394       -19.50923        10.33689
     2019.84668       -15.51031         9.95798
     2019.84941       -11.20140        10.33357
     2019.85215        -8.23348        10.77563
     2019.85489       -12.34957        10.10921
     2019.85763       -16.99566        10.23385
     2019.86036       -12.75774        10.00285
     2019.86310        -4.00383        10.40835
     2019.86584        -2.97491        11.04485
     2019.86858       -12.02700         9.96463
     2019.87132       -18.15409        10.08429
     2019.87405       -12.24617        10.29701
     2019.87679        -9.99926        10.50308
     2019.87953        -2.78934         9.95134
     2019.88227         4.76057        10.18400
     2019.88501        -4.24652        10.07598
     2019.88774        -2.64760        10.76067
     2019.89048        -5.92569        10.11420
     2019.89322        -4.19877         9.91976
     2019.89869         5.98006         9.93139
     2019.90143        12.73597        10.03277
     2019.90417        15.91288         9.85993
     2019.90691         7.34280         9.91644
     2019.90965         8.02571         9.81838
     2019.91238         6.01563         9.80841
     2019.91512        13.82154         9.90148
     2019.91786         6.74045        10.03111
     2019.92060         3.08837        10.03277
     2019.92334         2.55128        10.06767
     2019.92607        -1.36280         9.97959
     2019.92881        -0.29489        10.20228
     2019.93155        -3.89197         9.96629
     2019.93429        -8.31806        10.14411
     2019.93702       -20.08715        10.18898
     2019.93976        -9.10423        10.01449
     2019.94250         5.76568        10.04440
     2019.94524         8.71460        10.08761
     2019.94798         7.04351        10.04274
     2019.95071         9.05942        10.39506
     2019.95345         8.21934        10.13414
     2019.95619         5.00325         9.94801
     2019.95893        -2.56483         9.97793
     2019.96167         0.52308        10.05936
     2019.96440        -1.85200        10.12916
     2019.96714         8.14091        10.31529
     2019.96988        11.41382        10.11586
     2019.97262        11.94874        10.58617
     2019.97535        15.92865        10.00618
     2019.97809         9.00757        10.33191
     2019.98083         6.25948        10.05105
     2019.98357        -4.06461        10.31362
     2019.98631        11.43331        10.02612
     2019.98904        10.47322        10.15907
     2019.99178         1.68214        10.26377
     2019.99452        -3.97595        10.06434
     2019.99726         4.36797        10.03775
     2020.00000        30.23388        10.40337
     2020.00273        42.80479         9.96629
     2020.04928        52.85233        10.55127
     2020.05201        -2.91675         9.73529
     2020.05475         0.11016         9.78182
     2020.05749         4.54308         9.98457
     2020.06023         9.76499         9.93472
     2020.06297         4.99990         9.87489
     2020.06570        22.18182         9.96962
     2020.06844        22.41173         9.96131
     2020.07118        16.82965         9.79678
     2020.07392        15.90256         9.84664
     2020.11074        14.88394        37.93739
     2020.11225        -0.52364        10.10090
     2020.11498        -5.70973         9.97460
     2020.11772        -4.04081        10.64766
     2020.12046         7.86210        10.17403
     2020.12320        14.65502        10.11254
     2020.12594        17.91093         9.94635
     2020.12867        14.22984        10.62606
     2020.13141         6.90576        11.09305
     2020.13415        -2.56933        10.25047
     2020.13689        -8.05841        10.43827
     2020.13963        -4.23250        10.30698
     2020.14236         5.08242        10.16738
     2020.14510         2.48233        10.02944
     2020.15605        -5.07401        10.51139
     2020.15879         1.61090        10.12251
     2020.16153         5.29881        10.02944
     2020.16427        -1.87127        10.86371
     2020.16700        16.37564        10.23219
     2020.17522        32.99239        10.49145
     2020.17796         5.64230        10.15741
     2020.18069       -21.70379        10.00452
     2020.18343       -28.35087         9.93305
     2020.18617        -9.64196        10.23718
     2020.18891         3.00896        10.28205
     2020.19164         7.15387        10.30199
     2020.19438        -0.37522        10.39340
     2020.19712        -5.59530        10.35351
     2020.19986         6.03761        10.09426
     2020.20260         2.35853        10.20726
     2020.20533         3.56144        10.65099
     2020.20807         0.52136        10.53964
     2020.21081        -7.20373        10.88199
     2020.21355        -4.02282        12.11676
     2020.21629         5.78410        11.65144
     2020.21902         0.23101        10.91689
     2020.22176         1.73893        10.74405
     2020.22450         1.82184        10.14744
     2020.22724         0.52475         9.97959
     2020.22997         4.01967        10.20726
     2020.23271         9.50058        10.71912
     2020.23545         8.70150        10.31529
     2020.23819        13.84841        10.19563
     2020.24093        15.28932        10.20228
     2020.24366        22.50024        10.07265
     2020.24640        22.15215         9.97460
     2020.24914         1.85807        10.30033
     2020.25188         0.79998        11.27918
     2020.25462         1.38990        10.76233
     2020.25735         0.73181        10.17901
     2020.26009        16.18272        10.27374
     2020.26283         1.70564        10.36514
     2020.26557         2.57255        10.17735
     2020.26830         1.60447        10.62606
     2020.27104         0.03738        11.05316
     2020.27378         8.51329        10.42331
     2020.27652         3.35821        10.76233
     2020.27926         8.99812        11.21769
     2020.28199         8.19004        10.83878
     2020.28473         1.05395        11.08806
     2020.28747         9.13287        10.17070
     2020.29021         4.87978        10.50640
     2020.29295        -5.44131        10.90359
     2020.29568         1.88661        10.58950
     2020.29842         2.76352        10.30698
     2020.30116         6.89244        10.91523
     2020.30390         3.32635        10.16406
     2020.30663        -0.46274        10.16073
     2020.30937         9.71618        10.64268
     2020.31211         6.12209        10.41832
     2020.31485         5.34501        10.34188
     2020.31759         3.12392        10.21225
     2020.32032         7.68784        10.20228
     2020.32306         2.51475         9.92641
     2020.32580        -6.64234        10.23219
     2020.32854         5.68058        10.09924
     2020.33128         2.41449        10.22222
     2020.33401         4.28241        10.34852
     2020.33675         7.13532        11.12961
     2020.33949        -2.71277        10.77064
     2020.34223         6.25415        10.44824
     2020.34496         6.88406        10.23385
     2020.34770         2.24698        10.24881
     2020.35044         1.00789        11.55837
     2020.35318        -0.74019        10.36182
     2020.35592        -2.54328        10.74904
     2020.35865        -3.26037        10.37844
     2020.36139         4.87255        10.90027
     2020.36413         3.98146        10.15907
     2020.36687        -0.09562        10.20893
     2020.36961        -8.65971        10.88864
     2020.37234         3.82420        10.51970
     2020.37508        -1.50988        10.31861
     2020.37782        -0.63297        10.08096
     2020.38056         1.71695        10.20893
     2020.38329         0.26386        10.24050
     2020.38603         8.11977         9.98623
     2020.38877        18.15169        11.39052
     2020.39151        -1.29340        10.14910
     2020.39425        -9.39048        10.86869
     2020.39698       -10.48257        10.21059
     2020.39972        -6.48965        10.03111
     2020.40246        -6.42474        10.22555
     2020.40520       -10.51883        10.52801
     2020.40794       -14.77191        10.82881
     2020.41067        -6.64200        10.60778
     2020.41341       -18.54708        10.49477
     2020.41615       -15.00717        10.01449
     2020.41889       -15.28526        10.50640
     2020.42162       -18.88534        10.21724
     2020.42436       -12.70143        10.38342
     2020.42710       -18.18751        10.61941
     2020.42984       -24.13460        10.09093
     2020.43258       -15.06668        10.05271
     2020.43531        -8.06677         9.96962
     2020.43805        -6.61686        10.09592
     2020.44079        -5.48594        10.02446
     2020.44353       -10.73303        10.32692
     2020.44626       -17.63111        10.33357
     2020.44900        -8.32720        10.14411
     2020.45174        -9.03329        10.25047
     2020.45448       -12.09837        10.24715
     2020.45722       -12.12946        10.10589
     2020.45995        -9.35854        10.43328
     2020.46269       -18.37463        10.84044
     2020.46543       -12.82371        11.12961
     2020.46817       -10.43580        11.19110
     2020.47091        -7.00789        10.15408
     2020.47364       -20.34297        10.90692
     2020.47638       -12.33106        10.37678
     2020.47912        -8.34514        10.52967
     2020.48186       -13.48623        10.10755
     2020.48459       -16.81232        10.35517
     2020.48733       -12.29640        10.95843
     2020.49007        -4.94249        10.40503
     2020.49281         8.17043        10.56291
     2020.49555        -4.07866        10.90525
     2020.49828        -8.41874        10.38509
     2020.50102       -10.99383        10.11752
     2020.50376       -15.77092        10.15076
     2020.50650       -17.78400        10.37179
     2020.50924       -16.17809        10.25380
     2020.51197       -11.90117        11.19276
     2020.51745       -11.02435        10.25380
     2020.52019        -7.40843        11.61654
     2020.52292       -13.33752        10.27540
     2020.52566        -7.88460        10.41168
     2020.52840        -8.60169        10.17070
     2020.53114       -14.50378        10.53964
     2020.53388       -12.58286        10.58285
     2020.53661       -12.02495        10.84210
     2020.53935       -11.96903        10.37678
     2020.54209        -3.18612        10.90525
     2020.54483       -11.04220        10.17070
     2020.54757        -4.80029        10.81884
     2020.55030        -3.96138        10.13414
     2020.55304        -4.25946        10.21890
     2020.55578        -9.28055        10.52801
     2020.55852         2.21637        10.78394
     2020.56125        -4.74572        10.13082
     2020.56399        -7.95781        10.14411
     2020.56673        -6.02689        10.64268
     2020.56947         6.78402        11.38886
     2020.57221        -0.68106        11.10136
     2020.57494        -1.81515        10.47649
     2020.57768         4.16577        10.92187
     2020.58042        -1.78532        11.57998
     2020.58316        -8.54841        10.41168
     2020.58590        -5.72549        10.47981
     2020.58863        -4.20658        10.47649
     2020.59137        -2.21566        10.88531
     2020.59411         3.05625        10.44325
     2020.59685        -8.42984        10.92520
     2020.59958        -4.71192        10.96176
     2020.60232        -3.84901        10.70749
     2020.60506       -11.38809        11.66473
     2020.60780        -1.94918        11.07144
     2020.61054        -7.22926        10.99666
     2020.61327        -9.17635        11.47528
     2020.61878       -12.77491        10.02113
     2020.62149       -11.95461         9.98790
     2020.62423        -9.70469        10.14079
     2020.62696       -15.20278         9.99288
     2020.62970       -16.89287        10.01615
     2020.63244       -10.46795         9.94469
     2020.63518       -12.73604        10.06933
     2020.63791        -5.88512        10.42165
     2020.64065       -13.37521        10.04108
     2020.64339       -17.37529         9.95134
     2020.64613        -9.39938         9.92475
     2020.64887        -7.99747         9.95300
     2020.65160       -13.12455         9.91810
     2020.65434       -12.33464         9.98457
     2020.65708       -10.82472         9.94967
     2020.65982       -13.11781         9.98956
     2020.66256       -10.73590         9.99787
     2020.66529         3.38302        10.03941
     2020.66803        -7.61807         9.95466
     2020.67077        -7.49215         9.92475
     2020.67351        -3.51824         9.91810
     2020.67624       -12.95933        10.02612
     2020.67898       -11.60241        10.02280
     2020.68172        -6.97250         9.99787
     2020.68446        -4.47958        10.00452
     2020.68720       -15.85567        10.02612
     2020.68993       -19.55375        10.09259
     2020.69267        -8.50884        10.24383
     2020.69541        -8.78193        10.42497
     2020.69815       -10.58301        10.11919
     2020.70089        -7.95710         9.95798
     2020.70362       -14.06318        10.12916
     2020.70636       -20.54127        10.60113
     2020.70910        -9.83236        10.41001
     2020.71184        -9.78944        10.23219
     2020.71457        -3.00953        10.28870
     2020.71731       -13.23561        10.14744
     2020.72005       -17.30170        10.30199
     2020.72279       -10.95378        10.03775
     2020.72553        -8.95087        10.18898
     2020.72826        -8.24896        10.35351
     2020.73100         6.19796        10.08927
     2020.73374         4.36387        10.16406
     2020.73648        -2.91121        10.04606
     2020.73921        -4.05430        10.12251
     2020.74195        -8.94839        10.03443
     2020.74469       -15.12547        10.01947
     2020.74743        -9.91856        10.02778
     2020.75017       -12.39164         9.99454
     2020.75290       -17.72473        10.12085
     2020.75564       -14.68081         9.85495
     2020.75838        -5.54590         9.91477
     2020.76112       -10.72199         9.96297
     2020.76386       -10.03707         9.93804
     2020.76659       -11.63616         9.88818
     2020.76933        -4.52624        10.13082
     2020.77207        -7.40933         9.90480
     2020.77481        -0.74142         9.99454
     2020.77754         3.21650        10.01282
     2020.78028        11.12141        10.11752
     2020.78302        -5.21867        10.13082
     2020.78576        10.08024         9.93804
     2020.78850         0.85616         9.93804
     2020.79123        -2.30693         9.95964
     2020.79397        -5.76402        10.07598
     2020.79671        -2.15410        10.03775
     2020.79945       -10.54719         9.95798
     2020.80219        -4.83527        10.28205
     2020.80766         6.68655        10.08262
     2020.81040        -2.49753        10.13913
     2020.81314         3.12738        10.06434
     2020.81587         1.13630        10.01449
     2020.81861        -7.25379        10.04772
     2020.82135        -4.74788        10.02280
     2020.82409        -5.26196        10.01449
     2020.82683       -12.68405        10.03111
     2020.82956        -9.34313        10.13580
     2020.83230         0.22978        10.16406
     2020.83504       -12.34630        10.11586
     2020.83778        -7.84839         9.88486
     2020.84052        -7.29848        10.13580
     2020.84325         1.19844        10.40669
     2020.84599        -8.42065        10.27374
     2020.84873       -24.33273         9.93804
     2020.85420       -31.01391         9.91477
     2020.85694       -34.39499         9.94469
     2020.85968       -18.01708        10.02944
     2020.86242        -9.24116        10.09259
     2020.86516       -10.26425        10.28870
     2020.86789         9.57567        10.29867
     2020.87063        21.69258        10.01615
     2020.87337        20.69349        10.05603
     2020.87611        13.06241        10.27208
     2020.87885        11.65432        10.19896
     2020.88158         8.83124        10.18400
     2020.88432        10.47115        10.15741
     2020.88706         6.61006        10.40170
     2020.88980        -3.99802        10.16904
     2020.89253        -3.21511        10.03111
     2020.89527        11.06681        10.47150
     2020.89801        24.89772        10.58617
     2020.90622        35.33046        10.00784
     2020.90896        24.79638        10.32027
     2020.91170        11.62229        10.49477
     2020.91991         0.52303        10.08927
     2020.92265         0.68195        10.13082
     2020.92539         1.06886        10.08595
     2020.92813        -0.86422        10.13747
     2020.93086         5.54069        10.12749
     2020.93360         7.98361        10.08927
     2020.93634         8.91352        10.05936
     2020.93908        16.92443        10.01615
     2020.94182        10.30535        10.09592
     2020.94455        12.41526        10.01947
     2020.94729         2.76718         9.96463
     2020.95277        10.66900         9.92807
     2020.95551        22.52992        10.03111
     2020.95824        32.11483        10.07431
     2020.96098        41.73375        10.22388
     2020.96372        36.70066        10.09426
     2020.96646        46.57258        10.21890
     2020.96919        49.01949        10.11254
     2020.97193        27.84840        10.03277
     2020.97467        28.71732        10.17569
     2020.97741        19.70123        10.19231
     2020.98015        14.18415        10.44824
     2020.98288        12.21206        10.20228
     2020.98562        25.52497        10.04108
     2020.98836        22.62589         9.97626
     2020.99110        16.62380         9.98623
     2020.99384        14.30372         9.92142
     2020.99657        21.23563         9.88154
     2020.99931        43.97054         9.90646
     2021.00479        30.93537         9.91810
     2021.00752        26.90529         9.90314
     2021.01026        31.23720         9.93804
     2021.01300        46.01312         9.90314
     2021.02395        56.32377         9.99787
     2021.02669        46.07469        10.09259
     2021.03216        51.31951        10.01116
     2021.03490        29.32143        10.07099
     2021.03764        23.31834        10.10423
     2021.04038        18.97426        10.11088
     2021.04312        16.24817         9.99787
     2021.04585        22.71609        10.08429
     2021.04859        24.88900        10.00119
     2021.05133        12.63591        10.07930
     2021.05407        14.27883        10.58119
     2021.05681        31.37674        10.24050
     2021.05954        20.69566         9.98125
     2021.06228        11.56057        10.07598
     2021.06502        17.10148        10.10090
     2021.06776        29.64940         9.95134
     2021.07049        28.20431        10.00950
     2021.07323        33.93423         9.90646
     2021.07597        26.94414        10.00452
     2021.07871        12.56206        10.01116
     2021.08145        15.41897        10.04274
     2021.08418        20.77988         9.97294
     2021.08692        23.47580        10.01282
     2021.08966        23.58171        10.01615
     2021.09240        12.35363        10.04274
     2021.09514        19.59354        10.28703
     2021.10061        34.07637        10.09924
     2021.10335        36.10328         9.98623
     2021.10609        32.29020        10.04606
     2021.10882        25.17511        10.08096
     2021.11156        13.84103        10.07930
     2021.11430        16.75894        10.01116
     2021.11704        21.15985         9.98457
     2021.11978        25.87577        10.00119
     2021.12251        31.22668        10.04274
     2021.13347        53.28034        10.18400
     2021.13620        56.95125        10.25380
     2021.15811        32.69957        10.41832
     2021.16084        31.13348        10.19397
     2021.16358        14.74139        10.19896
     2021.16632        11.95831        10.29867
     2021.16906        18.84422         9.99122
     2021.17180        13.60014         9.93472
     2021.17453         9.00905        10.32193
     2021.17727        30.72596        10.27208
     2021.18001        22.95688        10.14744
     2021.18275        15.98679        10.51804
     2021.18548        15.66071         9.98457
     2021.19096        12.16154         9.90480
     2021.19370        10.98245        10.08761
     2021.19644         6.21536         9.97626
     2021.19917         8.26428        10.03443
     2021.20191        11.06319         9.91976
     2021.20465        10.51011         9.94303
     2021.20739         9.74402         9.97294
     2021.21013        22.87293        10.20228
     2021.21286        16.25685        10.19065
     2021.21560        18.09676        10.02778
     2021.21834         8.33168        10.04606
     2021.22108        18.06959        10.03111
     2021.22381        14.31351         9.94801
     2021.22655        17.76042         9.89151
     2021.22929        27.16633         9.94967
     2021.23203        19.63225         9.96131
     2021.23477         9.68616         9.96795
     2021.23750        12.99308        10.06600
     2021.24024        26.47899         9.91311
     2021.24298        23.38190         9.88320
     2021.24572         5.36982         9.97128
     2021.24846         9.30073        10.23884
     2021.25119        17.97965         9.98790
     2021.25393        16.31156         9.96463
     2021.25667         9.80648         9.88154
     2021.25941        12.33839         9.94801
     2021.26214        11.30930        10.02944
     2021.26488        14.06122        10.04772
     2021.26762        24.96013        10.21391
     2021.27036        12.95205        10.13414
     2021.27310        21.00296         9.96463
     2021.27583        15.24887         9.94635
     2021.27857         9.51679        10.11919
     2021.28131        13.30070        10.16572
     2021.28405        17.41962        10.22555
     2021.28679        10.33253        10.11254
     2021.28952        17.75945        10.20560
     2021.29226         6.59836        10.16406
     2021.29500        17.02927        10.17735
     2021.29774        15.61519        10.54130
     2021.30047        17.00310        10.28371
     2021.30321        15.28902        10.14411
     2021.30595        20.28993        10.51471
     2021.30869        18.96784        10.39672
     2021.31143        11.08876        10.02280
     2021.31416        15.69067        10.03111
     2021.31690        15.51159         9.97793
     2021.31964        15.10150        10.29701
     2021.32238        -1.28359        10.25712
     2021.32512        -1.96767         9.96629
     2021.32785        -3.25576        10.14910
     2021.33059        -2.71784         9.95300
     2021.33333        -0.45093        10.00452
     2021.33607        -7.10001         9.92142
     2021.33880        -6.59610         9.90314
     2021.34154        -7.30819        10.04606
     2021.34428        -7.87727        10.37179
     2021.34702       -13.65636        10.00950
     2021.34976        -8.98344         9.94469
     2021.35249       -11.58553         9.95632
     2021.35523        -8.57662         9.99288
     2021.35797       -15.65670         9.99288
     2021.36071       -13.86379        10.02113
     2021.36344       -15.23987         9.89317
     2021.36618       -20.36396         9.95798
     2021.36892       -22.32704         9.94136
     2021.37166       -15.96513        10.04939
     2021.37440       -21.53822         9.95300
     2021.37713       -10.53830         9.93804
     2021.37987       -19.28639        10.16572
     2021.38261       -14.75947        10.52136
     2021.38535       -13.95856        10.29202
     2021.38809       -23.19665        10.17237
     2021.39082       -16.86073         9.97793
     2021.39356       -16.63582        10.04939
     2021.39630       -13.26090        10.07265
     2021.39904       -21.55099         9.99953
     2021.40177       -13.94307        10.08761
     2021.40451        -9.67716        10.18566
     2021.40725       -16.23825        10.03111
     2021.40999       -16.36533        10.04606
     2021.41273       -15.53342        10.02280
     2021.41546       -13.45250         9.96795
     2021.41820       -23.01459        10.01947
     2021.42094       -11.98368         9.98790
     2021.42368       -15.50176        10.01449
     2021.42642       -11.53485         9.97793
     2021.42915        -8.64793        10.04440
     2021.43189        -5.33202        10.00784
     2021.43463       -21.07210        10.06102
     2021.43737       -21.60819         9.99454
     2021.44010       -20.24128        10.22721
     2021.44284       -21.38536        10.23385
     2021.44558       -12.00345        10.24383
     2021.44832       -14.99053        10.18067
     2021.45106        -9.74162        10.49643
     2021.45379        -8.16171        10.33357
     2021.45653       -16.92779        10.24216
     2021.45927       -12.24288         9.90480
     2021.46201       -19.94096         9.96962
     2021.46475       -14.81005         9.96297
     2021.46748       -16.45413        10.11919
     2021.47022       -16.33722        10.26543
     2021.47296        -8.45631        10.04108
     2021.47570       -18.14839        10.04440
     2021.48117       -17.95356        10.12749
     2021.48391       -16.40565        10.16738
     2021.48665        -4.42874        10.16073
     2021.48939       -16.30382        10.19397
     2021.49212        -7.94391        10.08096
     2021.49486       -10.37599        10.06268
     2021.49760       -11.96908        10.26044
     2021.50034       -11.07517        10.26709
     2021.50308       -11.85225        10.00618
     2021.50581       -18.32534        10.02778
     2021.50855       -12.73542         9.99787
     2021.51129        -6.86151        10.07431
     2021.51403       -10.63959        10.44824
     2021.51676        -4.84868        10.10257
     2021.51950       -13.01077        10.21724
     2021.52224       -13.53885        10.03609
     2021.52498       -14.02694        10.03443
     2021.52772        -8.97802         9.95798
     2021.53045        -3.99811        10.01449
     2021.53319       -11.12820         9.99953
     2021.53593       -10.51328        10.21059
     2021.53867        -4.09537        10.67425
     2021.54141       -11.82945        10.19563
     2021.54414       -14.82454        10.16904
     2021.54688       -16.46362        10.03111
     2021.54962       -16.66671        10.02612
     2021.55236       -14.22580        10.04274
     2021.55509        -9.66988        10.18732
     2021.55783       -12.97997        10.23385
     2021.56057       -11.42705        10.02113
     2021.56331        -7.71414         9.98623
     2021.56605        -4.56723        10.05770
     2021.56878        -9.73031        10.04274
     2021.57152        -4.14040        10.02280
     2021.57426       -14.85848        10.07099
     2021.57700        -8.05257        10.31861
     2021.57974       -13.68265        10.03277
     2021.58247       -17.41574        10.02944
     2021.58521        -9.39283        10.04939
     2021.58795        -4.63291        10.13747
     2021.59069        -3.65700        10.04606
     2021.59342       -14.19408        10.05437
     2021.59616        -1.23117        10.50142
     2021.59890        -5.92226        10.10423
     2021.60164         1.92366        10.12749
     2021.60438       -13.84643         9.95632
     2021.60711        -9.30651         9.97294
     2021.60985        -5.19460        10.05770
     2021.61259        -9.74868        10.00618
     2021.61533       -11.95477         9.98790
     2021.61807        -6.84886         9.97793
     2021.62080       -10.30594         9.97626
     2021.62354        -9.79903         9.99454
     2021.62628        -7.14311        10.14411
     2021.62902        -0.60420        10.01116
     2021.63175       -12.03029        10.16406
     2021.63449       -16.41337        10.03111
     2021.63723       -13.47346        10.49976
     2021.63997        -8.22254        10.29701
     2021.64271        -9.40463        10.19563
     2021.64544       -11.74872        10.05437
     2021.64818        -7.32780        10.10755
     2021.65092        -7.94689        10.06268
     2021.65366        -9.43397        10.02778
     2021.65639       -10.31906        10.07099
     2021.65913        -7.57414         9.97793
     2021.66187        -9.00723         9.99454
     2021.66461        -8.12232        10.00784
     2021.66735        -6.84440        10.05105
     2021.67008        -5.84449        10.25712
     2021.67282        -5.44257        10.42165
     2021.67556        -2.73466        10.51305
     2021.67830        -8.36575        10.31695
     2021.68104        -4.48083         9.98790
     2021.68377        -6.54792        10.02280
     2021.68651        -7.62200        10.24383
     2021.68925        -1.63609        10.03775
     2021.69199        -4.11317        10.06102
     2021.69472        -4.87026        10.04606
     2021.69746        -6.35535        10.04108
     2021.70020        -7.15943        10.07598
     2021.70294        -8.11052        10.17403
     2021.70568        -8.29060        10.08262
     2021.70841        -6.49069         9.97959
     2021.71115        -6.88278        10.03111
     2021.71389         6.30414        10.24549
     2021.71663       -11.03295        10.20228
     2021.71937         0.91597        10.08761
     2021.72210        -8.85612         9.99953
     2021.72484        -9.62820        10.07598
     2021.72758        -7.81929         9.95300
     2021.73032       -12.36338        10.74738
     2021.73305        -5.06746        10.09426
     2021.73579        -1.79255        10.17070
     2021.73853        -1.42863        10.32692
     2021.74127         7.00028        10.02944
     2021.74401         4.84619        10.19065
     2021.74674         0.21211        10.10755
     2021.74948        -2.72698        10.14245
     2021.75222        -9.07006        10.06268
     2021.75496        -0.42815        10.04606
     2021.75770        -8.67123        10.05770
     2021.76043        -6.49432        10.24881
     2021.76317        -5.72141        10.13248
     2021.76591        -4.40549        10.05603
     2021.76865        -8.17758        10.04274
     2021.77138        -8.40066        10.03775
     2021.77412         8.38525        10.12251
     2021.77686        10.70016        10.13082
     2021.77960         2.90008        10.12085
     2021.78234         9.99299        10.09426
     2021.78507        21.13791        10.00950
     2021.78781         2.90582         9.99787
     2021.79055        -0.07327        10.03609
     2021.79329        -7.02235        10.04440
     2021.79603        -3.32244        10.02446
     2021.79876        -3.00152        10.07431
     2021.80150        10.42339        10.20228
     2021.80424         6.12131        10.27374
     2021.80698         3.65722        10.10423
     2021.80971        -5.69287        10.08927
     2021.81245        22.35805        10.38176
     2021.81519        18.36496        10.04108
     2021.81793        18.33588        10.04939
     2021.82067         4.87479        10.27042
     2021.82340         3.24670        10.26543
     2021.82614         4.01262        10.23385
     2021.82888        -1.90447        10.15242
     2021.83162         0.97545        10.15575
     2021.83436        -6.47764        10.37511
     2021.83709         0.70928        10.34354
     2021.83983         4.03819        10.43827
     2021.84257       -11.23190        10.25214
     2021.84531        -3.02098        10.12417
     2021.84804         0.72993        10.12251
     2021.85078         6.05085        10.24715
     2021.85352         4.43476        10.19065
     2021.85626        12.57267        10.17403
     2021.85900         8.00159        10.14910
     2021.86173        -0.95750        10.28703
     2021.86447        -7.29158        10.36514
     2021.86721        -3.80667        10.42497
     2021.86995         2.36525        10.54296
     2021.87269         4.13116        10.40337
     2021.87542         8.45607        10.28703
     2021.87816         1.69799        10.13082
     2021.88090        -3.62010        10.16073
     2021.88364        -3.89718        10.07265
     2021.88637        -4.17427        10.17735
     2021.88911        -9.33636        10.04108
     2021.89185        -2.93944        10.14411
     2021.89459        25.71447        10.14744
     2021.89733        33.69239        10.09924
     2021.90006         9.73930        10.08595
     2021.90280         3.57822        10.15575
     2021.90554         0.92213        10.04108
     2021.90828        17.92904        10.16738
     2021.91102         7.82796        10.10755
     2021.91375         1.67587        10.09592
     2021.91649         3.43179        10.06600
     2021.91923        -4.42230        10.24050
     2021.92197       -17.96839        10.60445
     2021.92470        -5.61747        10.27374
     2021.92744        10.58544        10.32526
     2021.93018        -1.68264        10.32027
     2021.93292        18.06327        10.44325
     2021.93566        24.13218        10.50806
     2021.93839        21.51810        10.38342
     2021.94113        29.50101        10.63603
     2021.94387        41.17593        10.36514
     2021.94661        28.23284        10.28703
     2021.94935        29.85876        10.26709
     2021.95208        29.59767        10.19896
     2021.95482        42.73558        10.52801
     2021.96303        56.91533        10.60944
     2021.97399        12.29498        10.59781
     2021.97672        15.76490        10.45322
     2021.97946        13.51881        10.49311
     2021.98220        15.01473        10.43162
     2021.98494        14.30564        10.51305
     2021.98767        11.83655        10.51804
     2021.99041        13.98647        10.28870
     2021.99315        18.11038        10.24216
     2021.99589        19.20130        10.25878
     2021.99863        18.79021        10.26709
     2022.00136        17.14312        10.38841
     2022.00410        18.23504        10.38176
     2022.00684        16.68695        10.23219
     2022.00958        17.06687        10.28039
     2022.01232        12.29478        10.32692
     2022.01505        31.16070        10.50474
     2022.01779        27.26161        10.44990
     2022.02053        33.48252        10.58119
     2022.02327        20.60444        10.98336
     2022.02600         8.01535        10.43494
     2022.02874        41.77127        10.48480
     2022.03148        -0.91382        10.60445
     2022.03422        -7.94191        10.33357
     2022.03696       -14.79399        10.23884
     2022.03969       -13.92308        10.26377
     2022.04243        -3.61516        10.34686
     2022.04517        -9.22025        10.25047
     2022.04791        15.41167        10.38176
     2022.05065        18.41058        10.32027
     2022.05338        -4.34851        10.25047
     2022.05612        -0.03759        10.25712
     2022.05886       -16.85568        10.33357
     2022.06160       -16.65176        10.40669
     2022.06433       -11.13885        10.41500
     2022.06707       -17.37294        10.33689
     2022.06981        -5.80302        10.26709
     2022.07255       -15.57711        10.08927
     2022.07529       -10.31519        10.23219
     2022.07802       -10.06228        10.16073
     2022.08076         0.11164        10.16239
     2022.08350        23.36155        10.15907
     2022.08624        20.00846        10.17403
     2022.08898        21.38338        10.14744
     2022.09171        15.77329        10.15242
     2022.09445       -15.93879        10.17237
     2022.09719        -2.88788        10.08761
     2022.09993        -9.46797        10.27042
     2022.10266        -4.24905        10.40669
     2022.10540       -10.58414        10.41500
     2022.10814         8.16678        10.35185
     2022.11088        -5.29331        10.03609
     2022.11362        -2.40740        10.05936
     2022.11635        -4.61748        10.15408
     2022.11909        -5.43057        10.17735
     2022.12183        -3.08865        10.12583
     2022.12457         3.78726        10.40669
     2022.12731         2.45318        10.09924
     2022.13004        -7.02491        10.16406
     2022.13278        -5.58800        10.07598
     2022.13552         1.71992        10.12085
     2022.13826        16.97383        10.12085
     2022.14099        16.37875         9.98457
     2022.14373         3.98466        10.02944
     2022.14647         7.88157        10.09093
     2022.14921         8.28249        10.60612
     2022.15195         1.59940        10.52136
     2022.15468         0.83032        10.11420
     2022.15742         0.79323        10.09592
     2022.16016         2.60215        10.20062
     2022.16290        -3.02194        10.21724
     2022.16564        -4.02003        10.16406
     2022.16837        -4.51511        10.13248
     2022.17111        -2.89120        10.10755
     2022.17385         1.57472        10.17403
     2022.17659        -3.27537        10.19563
     2022.17932        -7.71146        10.10755
     2022.18206        -2.51054        10.13913
     2022.18480         3.87737        10.17569
     2022.18754        -0.33371        10.24216
     2022.19028        -1.03080        10.36514
     2022.19301        -4.50388        10.26543
     2022.19575         9.65803        10.15408
     2022.19849        10.17894        10.20228
     2022.20123        20.74686        10.19397
     2022.20397        21.89177        10.21225
     2022.20944         3.38660        10.38675
     2022.21218         1.30751        10.23053
     2022.21492        -0.54657        10.19729
     2022.21765        -0.24166        10.18400
     2022.22039        -2.63374        10.18067
     2022.22313        -6.32283        10.31695
     2022.22587        -8.99591        10.36182
     2022.22861        -0.48800        10.30365
     2022.23134        -5.86909        10.18566
     2022.23408        -4.48617        10.12417
     2022.23682         1.55174        10.52468
     2022.23956        -1.67034        10.20893
     2022.24230        -1.41643        10.19896
     2022.24503         8.53148        10.18067
     2022.24777         2.76540        10.21724
     2022.25051        -1.60369        10.22056
     2022.25325        -1.47177        10.26211
     2022.25598         7.36314        10.24715
     2022.25872         9.05106        10.35517
     2022.26146         1.32097        10.37179
     2022.26420        -2.28712        10.23884
     2022.26694       -10.77020        10.52302
     2022.26967        10.30871        10.26044
     2022.27241        16.50563        10.22222
     2022.27515         9.95654        10.45821
     2022.27789         8.69045        10.29534
     2022.28062         4.49437        10.18898
     2022.28336         5.19328        10.22721
     2022.28610         3.53120        10.44824
     2022.28884        -5.26589        10.47981
     2022.29158        -3.58598        10.19231
     2022.29431        -3.17406        10.22721
     2022.29979         2.18577        10.28039
     2022.30253         1.24768        10.53133
     2022.30527         3.74060        10.47150
     2022.30800        -0.97449        10.19563
     2022.31074        -4.32058        10.25380
     2022.31348         7.68534        10.36514
     2022.31622        -3.61275        10.28205
     2022.31895       -23.28883        10.45987
     2022.32169        -2.61592        10.43827
     2022.32443        -1.38001        10.22222
     2022.32717        -3.48209        10.31030
     2022.32991        -1.73318        10.41334
     2022.33264        -2.48626        10.48147
     2022.33538         4.64065        10.63935
     2022.33812         0.01057        10.59448
     2022.34086         3.10848        10.34520
     2022.34360        11.60139        10.35517
     2022.34633         5.60731        10.27208
     2022.34907         2.96222        10.21890
     2022.35181        -0.38986        10.27873
     2022.35455        -4.43295        10.12749
     2022.35728        -8.47404        10.24216
     2022.36002         0.30288        10.28537
     2022.36276         1.27879        10.19397
     2022.36550         2.66271        10.32526
     2022.36824         9.35862        10.43827
     2022.37097         1.69854        10.38176
     2022.37371        -5.80055        10.34852
     2022.37645         0.21736        10.35351
     2022.37919         5.95828        10.57620
     2022.38193        -0.46681        10.64434
     2022.38466        -9.38089        10.29701
     2022.38740       -14.97098        10.35850
     2022.39014        -5.18507        10.36016
     2022.39288        -1.71215        10.47981
     2022.39561        -8.67424        10.23552
     2022.39835        -9.69332        10.41832
     2022.40109        -0.01841        10.49145
     2022.40383         5.32851        10.23053
     2022.40657         4.57142        10.20893
     2022.40930        -1.18367        10.32692
     2022.41204        -8.71375        10.53465
     2022.41478       -10.70784        10.32193
     2022.41752       -10.03192        10.57288
     2022.42026        -2.98101        10.49643
     2022.42299        -2.78410        10.30698
     2022.42573       -15.36418        10.34852
     2022.42847        -7.02127        10.23053
     2022.43121       -12.06135        10.46153
     2022.43394        -6.86144        10.54795
     2022.43668       -16.90953        10.22721
     2022.43942       -11.11061        10.15907
     2022.44216        -8.09770        10.22555
     2022.44490        -4.89978        10.62606
     2022.44763         0.15513        10.13082
     2022.45037        -6.51095        10.08262
     2022.45311       -25.87904        10.10257
     2022.45585       -17.65413        10.07265
     2022.45859       -32.45321        10.18732
     2022.46132       -15.69830        10.16738
     2022.46406       -21.71638        10.14744
     2022.46680       -19.02147        10.11088
     2022.46954       -21.43556        10.11088
     2022.47227       -35.58064        10.18566
     2022.47501       -11.84073        10.18400
     2022.47775       -21.73081        10.37013
     2022.48049       -27.76690        10.15575
     2022.48323       -12.20898        10.04939
     2022.48596        -7.07807        10.07265
     2022.48870       -23.58816        10.16073
     2022.49144       -27.24524        10.05936
     2022.49418       -21.46633        10.44990
     2022.49692       -22.72541        10.06767
     2022.49965       -28.08050        10.01947
     2022.50239       -35.55159        10.07598
     2022.50513       -21.69467        10.67924
     2022.50787       -13.03976        10.73242
     2022.51060       -22.62784        10.31196
     2022.51334       -24.02693        10.03775
     2022.51608       -26.50601        10.11254
     2022.51882       -26.90510        10.10423
     2022.52156       -24.76719        10.06767
     2022.52429       -17.17027        10.11254
     2022.52703       -18.26436        10.03277
     2022.52977       -11.48044         9.98623
     2022.53251       -22.16653        10.06933
     2022.53525       -23.43162        10.24383
     2022.53798       -19.21370        10.06102
     2022.54072       -26.97979         9.98790
     2022.54346       -17.67587        10.03443
     2022.54620       -22.01796        10.19397
     2022.54893       -17.54204        10.03277
     2022.55167       -16.58113        10.00119
     2022.55441       -16.41622         9.97128
     2022.55715       -13.22830         9.93139
     2022.55989       -20.18339         9.95632
     2022.56262       -21.22147         9.96131
     2022.56536       -39.36756        10.01116
     2022.56810       -21.43165         9.97128
     2022.57084       -13.55573         9.97793
     2022.57357       -13.11682        10.37678
     2022.57631       -25.14990         9.94967
     2022.57905       -24.99299         9.97793
     2022.58179       -13.58107         9.92973
     2022.58453       -10.23616        10.30365
     2022.58726       -24.52425        10.10423
     2022.59000       -13.84633        10.20560
     2022.59274       -22.39142         9.90813
     2022.59548       -15.92550         9.85162
     2022.59822       -27.16959         9.86492
     2022.60095       -23.98568         9.92641
     2022.60369       -16.95876         9.90148
     2022.60643        -7.03685         9.98125
     2022.60917       -11.82393        10.07598
     2022.61190        -9.91902        10.07598
     2022.61464        -8.54211         9.87655
     2022.61738       -10.42219         9.85328
     2022.62012       -18.37728         9.82005
     2022.62286       -15.32336         9.85162
     2022.62559       -13.88745         9.82005
     2022.62833       -12.99653         9.86990
     2022.63107       -11.04962         9.88154
     2022.63381        -2.78571         9.82171
     2022.63655       -11.16979         9.80841
     2022.63928        -8.82388         9.87156
     2022.64202       -14.52996        10.69586
     2022.64476        -7.13105        10.63935
     2022.64750        -3.48214        10.27540
     2022.65023       -10.03322        10.12417
     2022.65297         5.29769        10.13082
     2022.65571        -9.02939        10.19397
     2022.65845        -2.57848         9.88818
     2022.66119        -6.71256         9.84331
     2022.66392        -0.29965         9.87156
     2022.66666        -2.39974         9.81672
     2022.66940        -5.63982         9.82836
     2022.67214        -7.41291         9.87156
     2022.67488        -2.75699         9.95300
     2022.67761         0.42992         9.80675
     2022.68035         0.35483         9.76354
     2022.68309        -3.12125         9.86492
     2022.68583        -6.60034        10.19729
     2022.68856        -4.52342        10.01282
     2022.69130        -6.69951        10.02778
     2022.69404         0.95641        10.12417
     2022.69678        -3.93568        10.17070
     2022.69952       -10.12277         9.99122
     2022.70225        -2.74185        10.28537
     2022.70499        -4.21994        10.28205
     2022.70773        -3.88602        10.01282
     2022.71047        -6.36411         9.78182
     2022.71321         6.81580         9.82337
     2022.71594         0.52472         9.80675
     2022.71868        -0.63837         9.80675
     2022.72142         0.76455         9.87987
     2022.72416        -7.77954        10.04772
     2022.72689        -1.37162        10.04939
     2022.72963         0.06929         9.74194
     2022.73237        -1.15080         9.75357
     2022.73511        -4.93488         9.83168
     2022.73785         0.03903         9.88818
     2022.74058        -3.16305        10.42331
     2022.74332         4.05786        10.29701
     2022.74606         0.30377         9.86824
     2022.74880        -8.49131         9.77019
