# ================= DQRFIT RESULTS ================
# INPUT FILE: series/SHPB.rad
# OUTPUT: LDETRENDED
# FILTER FUNCTION: f(t)
# f(t)=+line(t)+annual(t)
# line(t)=+P 1+P 2*t
# annual(t)=+P 3*sin(2*pi*t+P 4)
# heav(t)=(t<0?0:1)
# TOTAL OBSERVATIONS MTOT=  940
# INITIAL TIME INTERVAL= 2022.7488 - 2019.5537 =  3.1951
# TOTAL OBSERVATIONS AFTER PREFILTER M=  940
# TIME-SPAN= 2022.7488 - 2019.5537 =  3.1951
# OBSERVATIONS: USED M=   940 REJECTED MTOT-M=     0 %USED=  100.0000
# N=  4 PARAMETERS
# MAXSIG= 175.00000
# MAXRES=  18.01893
# SCALE FACTOR FOR LENGTHS: SCL=  10.00000
# SCALE FACTOR FOR SIGMAS: SCLSIG=   1.00000
# CHI^2=    850.062 DOF=   936 CHI^2/DOF=   0.90819
# RMS=      5.175 SDEV=      5.178 MEAN=    0.00087
#  P #       PARAMETER +-    SIGMA %error PARAMETER NAME
# P 1 =     -7219.70241 +-  399.978   5.54 YZERO                              
# P 2 =         3.58220 +-    0.198   5.52 SLOPE                              
# P 3 =         3.40820 +-    0.254   7.45 ANNUAL AMPLITUDE                   
# P 4 =         2.71757 +-    0.096   3.53 ANNUAL PHASE                       
#       T            LDETRENDED       SIG_OBS
     2019.55373         7.90547         5.30243
     2019.55646         2.17766         5.19950
     2019.55920        -1.98115         5.31481
     2019.56194         1.00305         5.35770
     2019.56468        -3.14376         5.25382
     2019.56741         2.05643         5.16329
     2019.57015         0.34162         5.06608
     2019.57289        -0.47418         5.23667
     2019.57563        -6.19299         5.20999
     2019.57837         6.48820         5.19283
     2019.58110         4.97739         5.08419
     2019.58384         0.48559         5.61882
     2019.58658         3.06778         5.08324
     2019.58932         8.25097         5.06037
     2019.59206        10.79716         5.22905
     2019.59479         3.33736         5.13375
     2019.59753         6.50355         5.27479
     2019.60027         3.14474         5.29861
     2019.60301         1.63193         5.08514
     2019.60574         2.26113         5.30910
     2019.60848         0.33732         5.36532
     2019.61122         1.53151         5.15185
     2019.61396         1.11870         5.30433
     2019.61670         5.74890         5.08228
     2019.61943        10.68109         5.11278
     2019.62217         5.99828         5.41964
     2019.62491         2.60147         5.09944
     2019.62765         6.41567         5.11373
     2019.63039        12.48186         5.09658
     2019.63312         1.95305         5.16519
     2019.63586         5.38924         5.54163
     2019.63860         4.75344         5.14042
     2019.64134        -0.49637         5.42917
     2019.64407         2.70282         5.20236
     2019.64681        -0.29799         5.11755
     2019.64955         2.18521         5.15090
     2019.65229         6.84940         5.15662
     2019.65503        -1.60941         5.17472
     2019.65776        -1.63222         5.16901
     2019.66050         2.01398         5.19283
     2019.66324         7.62117         5.28527
     2019.66598         0.67436         5.25954
     2019.66872         4.86755         5.16138
     2019.67145         2.77175         5.09753
     2019.67419        -0.10206         5.17663
     2019.67693         3.87513         5.23667
     2019.67967         1.97132         5.33387
     2019.68240        -1.91748         5.17377
     2019.68514         4.31571         5.21380
     2019.68788        -0.12810         5.18140
     2019.69062         1.80109         5.17949
     2019.69336         1.11929         5.09372
     2019.69609         0.72848         5.29766
     2019.69883        -1.19533         5.22714
     2019.70157        -2.76514         5.48730
     2019.70431        -1.87694         5.09181
     2019.70705        -2.99975         5.07657
     2019.70978        -5.32756         5.24048
     2019.71252        -2.03437         5.06513
     2019.71526         3.84483         5.18997
     2019.71800         1.27602         5.32530
     2019.72073         0.73121         5.32244
     2019.72347        -3.61160         5.25382
     2019.72621        -5.18940         5.22619
     2019.72895         7.60279         5.17377
     2019.73169         4.82398         5.19855
     2019.73442         7.31617         5.24715
     2019.73716         8.25937         5.06894
     2019.73990         4.83656         5.25382
     2019.74264         0.98575         5.15566
     2019.74538        -1.93806         5.04417
     2019.74811         1.43413         5.22905
     2019.75085         1.00433         5.22047
     2019.75359         7.47652         5.34245
     2019.75633         4.05071         5.26526
     2019.75906         0.03490         5.09753
     2019.76180        -0.55890         5.12231
     2019.76454         1.09829         5.12993
     2019.76728         5.66448         5.16805
     2019.77002        -1.87233         5.14232
     2019.77275         2.56787         5.30052
     2019.77549         3.12906         5.17949
     2019.77823        -2.55875         5.12993
     2019.78097         1.61444         5.09467
     2019.78371        -1.72536         5.14804
     2019.78644         0.46683         5.27955
     2019.78918         1.20402         5.21475
     2019.79192        -2.47479         5.16901
     2019.79466         9.74341         5.16710
     2019.79739         5.17560         5.10039
     2019.80013         7.74779         5.20331
     2019.80287        10.12098         5.10611
     2019.80561         4.86218         5.20999
     2019.80835         6.02937         5.07847
     2019.81108         6.21556         5.19378
     2019.81382        12.26675         5.36532
     2019.81656         3.71895         5.08800
     2019.81930        -0.35486         5.11373
     2019.82203         2.38133         5.11183
     2019.82477        -2.80448         5.10325
     2019.82751        -0.38628         5.09753
     2019.83025         3.77591         5.22428
     2019.83299         4.96010         5.26431
     2019.83572         2.31029         5.22809
     2019.83846        17.33449         5.15662
     2019.84120        11.80268         5.11373
     2019.84394         7.45487         5.24429
     2019.84668        -2.40594         5.08705
     2019.84941        -0.24974         5.08991
     2019.85215         0.50645         5.14995
     2019.85489         3.69764         5.12326
     2019.85763         6.63583         5.07657
     2019.86036         1.20703         5.12993
     2019.86310        -2.70578         5.25382
     2019.86584        10.83441         5.21284
     2019.86858         4.24260         5.16424
     2019.87132         6.51380         5.23095
     2019.87405         9.69699         5.08610
     2019.87679         4.77218         5.30814
     2019.87953        12.11237         5.14328
     2019.88227        15.86257         5.09849
     2019.88501         7.97776         5.13089
     2019.88774         9.26195         5.29004
     2019.89048         5.55914         5.14899
     2019.89322        11.85234         5.12612
     2019.89596         3.93653         5.23857
     2019.89869        12.60772         5.05941
     2019.90143        11.09791         5.07847
     2019.90417         2.45611         5.16138
     2019.90691         2.35430         5.14995
     2019.90965         2.31449         5.08038
     2019.91238         4.49868         5.04988
     2019.91512         7.36588         5.08133
     2019.91786        13.01207         5.23286
     2019.92060        14.22826         5.12136
     2019.92334         8.45045         5.17091
     2019.92607         5.25565         5.13565
     2019.92881         3.14984         5.11183
     2019.93155         2.89703         5.20999
     2019.93429         5.56322         5.16329
     2019.93702        -1.21858         5.14709
     2019.93976         6.72361         5.21189
     2019.94250         1.11180         5.16710
     2019.94524        -4.90401         5.15376
     2019.94798         0.06218         5.25954
     2019.95071         5.40138         5.39772
     2019.95345         8.49557         5.06513
     2019.95619        10.01376         5.15471
     2019.95893        -0.60605         5.15852
     2019.96167         0.24515         5.18807
     2019.96440        -1.49666         5.34245
     2019.96714         3.26853         5.27193
     2019.96988        -3.13228         5.13661
     2019.97262        -1.13208         5.14899
     2019.97535        -0.66389         5.10897
     2019.97809         3.61730         5.15948
     2019.98083        -1.52751         5.12708
     2019.98357        -4.58131         5.11183
     2019.98631         5.10488         5.07561
     2019.98904         4.93707         5.09372
     2019.99178        13.81026         5.21189
     2019.99452         0.86146         5.14804
     2020.00000        12.80184         5.16138
     2020.00273         7.68303         5.09944
     2020.00547         5.09523         5.21856
     2020.00821         2.25142         5.24906
     2020.01095        -1.45539         5.41488
     2020.01368        -2.27220         5.17663
     2020.01642         1.06600         5.22142
     2020.01916         0.04919         5.10897
     2020.57882         1.35237        11.54068
     2020.58042         1.75764         5.27574
     2020.58316        -8.57116         5.22619
     2020.58590         5.32003         5.15471
     2020.58863         3.55722         5.23476
     2020.59137         1.05441         5.18044
     2020.59411         5.18961         5.25096
     2020.59685        -3.33520         5.47492
     2020.59958        -5.35201         5.38819
     2020.60232         0.57418         5.23000
     2020.60506         0.36238         5.25573
     2020.60780        11.45657         5.45967
     2020.61054         7.25876         5.19950
     2020.61327         4.30495         5.18807
     2020.61601         3.78015         5.18616
     2020.61875        -0.29666         5.22714
     2020.62149        -1.32647         5.24525
     2020.62423         0.97672         5.26526
     2020.62696        -0.05408         5.35770
     2020.62970         0.12511         5.21475
     2020.63244         6.37630         5.19474
     2020.63518         6.95949         5.35103
     2020.63791        -0.54531         5.41107
     2020.64065        -1.65712         5.25763
     2020.64339         1.19707         5.15090
     2020.64613         3.71626         5.18711
     2020.64887         4.43146         5.16519
     2020.65160         3.93765         5.20046
     2020.65434        -3.29816         5.22714
     2020.65708         4.72103         5.18997
     2020.65982        13.56723         5.36056
     2020.66256         2.48342         5.16424
     2020.66529         5.83661         5.23286
     2020.66803         2.74080         5.21189
     2020.67077         4.72400         5.80751
     2020.67351         4.06119         5.18425
     2020.67624         5.64738         5.14232
     2020.67898        -3.81343         5.19378
     2020.68172         1.20477         5.30910
     2020.68446         3.22996         5.27098
     2020.68720         2.23215         5.23000
     2020.68993         4.88934         5.15281
     2020.69267         2.88954         5.29957
     2020.69541         3.65973         5.45204
     2020.69815         1.67492         5.27098
     2020.70089         2.46011         5.20713
     2020.70362         0.49631         5.24429
     2020.70636         7.59250         5.49302
     2020.70910        -2.48931         5.48254
     2020.71184        10.21788         5.48159
     2020.71457         1.33508         5.39296
     2020.71731        -2.07973         5.30052
     2020.72005       -10.63154         5.46539
     2020.72279        -1.52835         5.35770
     2020.72553         5.93585         5.33387
     2020.72826        -5.23696         5.61119
     2020.73100         5.72923         5.39201
     2020.73374         2.81142         5.50732
     2020.73648         6.30362         5.35103
     2020.73921         3.34181         5.25001
     2020.74195         3.91200         5.17663
     2020.74469         4.99719         5.18140
     2020.74743         3.78139         5.21761
     2020.75017         7.35358         5.20903
     2020.75290         3.88377         5.13661
     2020.75564         2.73196         5.10325
     2020.75838         4.04215         5.22428
     2020.76112         4.16035         5.26621
     2020.76386         0.94454         5.21475
     2020.76659         9.95073         5.17187
     2020.76933         7.87792         5.27860
     2020.77207         0.22912         5.17187
     2020.77481         5.05631         5.24429
     2020.77754        11.05550         5.24334
     2020.78028         8.42369         5.19569
     2020.78302         9.23789         5.30528
     2020.78576         4.53408         5.24525
     2020.78850         1.67727         5.17949
     2020.79123         3.23446         5.44823
     2020.79397         3.43466         5.18997
     2020.79671         5.39285         5.28813
     2020.79945        -5.19296         5.21856
     2020.80219         0.15123         5.28337
     2020.80492         9.56443         5.18235
     2020.80766         1.72662         5.19855
     2020.81040         2.40581         5.25573
     2020.81314         1.28300         5.16615
     2020.81587        -1.43780         5.17282
     2020.81861         2.83439         5.19474
     2020.82135         2.43858         5.13756
     2020.82409         6.84477         5.14328
     2020.82683         0.66997         5.24715
     2020.82956        -1.66584         5.45204
     2020.83230         3.25135         5.23667
     2020.83504         3.71554         5.32434
     2020.83778         5.02974         5.23000
     2020.84052         9.71093         5.25954
     2020.84325         6.16512         5.42917
     2020.84599        -3.84669         5.48826
     2020.84873         8.20551         5.15757
     2020.85147         5.64870         5.16805
     2020.85420        13.06889         5.17282
     2020.85694        10.60708         5.29099
     2020.85968        14.15628         5.20999
     2020.86242         9.00047         5.17091
     2020.86516         9.71266         5.41774
     2020.86789         7.91085         5.36723
     2020.87063        13.02205         5.18997
     2020.87337        15.04424         5.21475
     2020.87611        10.60543         5.26621
     2020.87885         5.73562         5.28051
     2020.88158         9.75782         5.21189
     2020.88432        11.34901         5.27384
     2020.88706         2.19420         5.37485
     2020.88980         7.29939         5.21856
     2020.89253         9.39859         5.19474
     2020.89527        -7.77222         5.39105
     2020.89801         8.81297         5.41297
     2020.90075         6.58916         5.18044
     2020.90349         6.03836         5.22619
     2020.90622         2.59355         5.19569
     2020.90896         4.89574         5.32434
     2020.91170         7.62493         5.32911
     2020.91444         0.38513         5.33483
     2020.91718         6.34632         5.16805
     2020.91991         0.97551         5.14423
     2020.92265         2.42970         5.25573
     2020.92539         2.67390         5.17949
     2020.92813        -4.53091         5.21189
     2020.93086        -3.07972         5.33578
     2020.93360         3.91247         5.20331
     2020.93634         5.33267         5.21189
     2020.93908        -1.73514         5.16043
     2020.94182         0.26305         5.15852
     2020.94455        -3.67576         5.11755
     2020.94729        -4.01456         5.10706
     2020.95003        -1.95437         5.13756
     2020.95277       -11.61018         5.18235
     2020.95551        -4.83199         5.18425
     2020.95824        -1.55080         5.15852
     2020.96098         1.86940         5.22333
     2020.96372        -0.87041         5.14042
     2020.96527        -6.03198        14.66363
     2021.00860         6.14982        11.27289
     2021.00895         9.99856        63.38895
     2021.02234        -6.51240        12.61470
     2021.02270         3.39830        19.11217
     2021.04691        -3.59642        11.51019
     2021.04954        -3.78885        12.53751
     2021.05237         4.78602        11.06324
     2021.05407         2.38994         5.32339
     2021.05681        -3.10087         5.19188
     2021.05954        -8.11167         5.04702
     2021.06228        -6.11248         5.06418
     2021.06502         1.70771         5.05941
     2021.06776         1.91890         5.03273
     2021.07049        -0.64690         5.08896
     2021.07323        -3.15871         5.04798
     2021.07597        -3.82852         5.14614
     2021.07871        -7.09733         5.16138
     2021.08145        -2.88413         5.08896
     2021.08418        -6.91594         5.08324
     2021.08692        -6.58775         5.02511
     2021.08966        -7.03856         5.03559
     2021.09240        -8.96036         5.02415
     2021.09514        -3.59017         5.23190
     2021.09787        -4.52698         5.15852
     2021.10061        -5.97379         5.04226
     2021.10335        -2.90759         5.02034
     2021.10609        -6.56440         5.02034
     2021.10882        -5.53121         5.01843
     2021.11156        -7.78502         5.02701
     2021.11430        -8.74082         5.04226
     2021.11704        -6.54663         4.99747
     2021.11978        -7.17544         5.02034
     2021.12251        -5.71525         5.03845
     2021.12525        -5.05205         5.06418
     2021.12799        -5.39286         5.06227
     2021.13073        -9.84367         5.03559
     2021.13347        -3.53548         5.12993
     2021.13620        -5.98228         5.12993
     2021.13894        -4.67309         5.03940
     2021.14168        -5.54190         4.98889
     2021.14442        -2.10071         5.01081
     2021.14715        -3.80451         5.01558
     2021.14989        -6.72032         5.00795
     2021.15263        -4.48613         5.12422
     2021.15537        -1.99994         5.13279
     2021.15811        -0.18075         5.25382
     2021.16084         0.76345         5.14804
     2021.16358        -4.46736         5.14232
     2021.16632         1.34283         5.18616
     2021.16906        -0.42398         4.97650
     2021.17180        -5.07078         5.05179
     2021.17453        -3.79459         5.20331
     2021.17727        -6.71640         5.24715
     2021.18001        -6.69121         5.19378
     2021.18275        -9.75001         5.25096
     2021.18548        -5.36882         4.99652
     2021.18822        -9.81063         4.98032
     2021.19096        -4.20144         4.94887
     2021.19370        -3.27524         5.03940
     2021.19644       -15.79305         5.05084
     2021.19917       -11.94086         5.00605
     2021.20191       -10.46867         4.97079
     2021.20465        -1.11447         4.96793
     2021.20739        -2.61628         5.00414
     2021.21013        -4.95709         5.12040
     2021.21286       -17.96390         5.22905
     2021.21560        -3.77970         4.97746
     2021.21834        -3.60451         4.97936
     2021.22108        -3.95232         5.00986
     2021.22381        -8.56513         4.98889
     2021.22655        -4.73093         4.99937
     2021.22929         2.87526         5.01367
     2021.23203        -0.04555         4.98413
     2021.23477       -10.98636         5.00414
     2021.23750        -6.17216         5.04417
     2021.24024        -2.59597         5.00223
     2021.24298        -6.82478         5.01843
     2021.24572        -9.73559         4.96030
     2021.24846        -6.02739         5.12898
     2021.25119        -0.99720         4.98317
     2021.25393        -5.69701         4.97555
     2021.25667        -8.07182         5.00700
     2021.25941        -3.16062         4.96411
     2021.26214        -2.98243         4.98413
     2021.26488        -5.37024         5.02034
     2021.26762        -3.37905         5.13565
     2021.27036        -7.70685         5.16805
     2021.27310        -4.07966         5.12708
     2021.27583        -5.67547         5.03845
     2021.27857        -8.75828         5.21189
     2021.28131        -5.84008         5.10992
     2021.28405        -3.23989         5.09753
     2021.28679        -5.38970         5.10134
     2021.28952        -0.88551         5.09086
     2021.29226        -3.83831         5.07466
     2021.29500        -0.73812         5.09753
     2021.29774        -2.65593         5.21380
     2021.30047        -2.53774         5.10516
     2021.30321         0.91146         5.10516
     2021.30595        -2.45235         5.31386
     2021.30869         9.81284         5.33197
     2021.31143        -0.72697         5.06513
     2021.31416         0.93423         5.08991
     2021.31690        -1.72558         5.10706
     2021.31964        -2.05439         5.22523
     2021.32238        -3.34320         5.22523
     2021.32512        -2.96400         5.15471
     2021.32785        -3.43581         5.14614
     2021.33059        -1.84462         5.12422
     2021.33333         3.10657         5.12231
     2021.33607         2.99277         5.09658
     2021.33880        -6.49104         5.15185
     2021.34154        -7.56085         5.18235
     2021.34428        -1.18766         5.36437
     2021.34702        -7.86646         5.15185
     2021.34976        -5.90527         5.11564
     2021.35249        -6.94508         5.12708
     2021.35523        -2.77189         5.09658
     2021.35797        -5.75870         5.14232
     2021.36071        -7.60350         5.09467
     2021.36344        -3.99731         5.09277
     2021.36618        -9.36912         5.06799
     2021.36892        -8.23993         5.16805
     2021.37166        -6.47373         5.12136
     2021.37440       -10.04354         5.17758
     2021.37713        -1.47335         5.10134
     2021.37987        -2.69616         5.23190
     2021.38261        -4.34296         5.41964
     2021.38535        -8.76577         5.29957
     2021.38809        -9.60058         5.25859
     2021.39082        -4.19939         5.14518
     2021.39356        -4.78219         5.12803
     2021.39630        -5.06400         5.11373
     2021.39904         1.09019         5.14328
     2021.40177        -3.93562         5.21952
     2021.40451        -8.71642         5.24715
     2021.40725        -3.16623         5.13756
     2021.40999         0.96896         5.14804
     2021.41273         1.32815         5.13661
     2021.41546        -0.75265         5.15376
     2021.41820       -10.49146         5.23095
     2021.42094        -5.29327         5.16043
     2021.42368         1.96492         5.34150
     2021.42642        -2.62588         5.15090
     2021.42915         1.11631         5.13756
     2021.43189         0.09450         5.14995
     2021.43463        -7.31231         5.19664
     2021.43737        -5.96211         5.21284
     2021.44010        -3.25492         5.24715
     2021.44284       -10.42873         5.29861
     2021.44558        -6.04954         5.31195
     2021.44832        -9.92334         5.39582
     2021.45106        -3.61715         5.29290
     2021.45379        -1.14496         5.24239
     2021.45653        -3.48377         5.21856
     2021.45927        -2.05757         5.10992
     2021.46201        -4.47138         5.16615
     2021.46475        -4.57519         5.17472
     2021.46748        -1.57700         5.12708
     2021.47022         5.08320         5.35103
     2021.47296        -0.25461         5.15090
     2021.47570        -7.83642         5.15852
     2021.47843        -1.13723         5.12136
     2021.48117        -7.06103         5.10516
     2021.48391        -3.02084         5.11373
     2021.48665        -5.98165         5.09372
     2021.48939        -7.20046         5.08800
     2021.49212        -7.42826         5.11755
     2021.49486        -5.85707         5.17854
     2021.49760         2.27912         5.28622
     2021.50034        -3.92569         5.23857
     2021.50308        -5.74249         5.14709
     2021.50581       -13.83930         5.04321
     2021.50855        -4.50811         5.13184
     2021.51129        -1.31192         5.10420
     2021.51403        -3.05572         5.05274
     2021.51676        -1.79753         5.03845
     2021.51950        -4.41434         5.19855
     2021.52224        -6.59115         5.14899
     2021.52498        -1.93295         5.07847
     2021.52772        -1.46076         5.08991
     2021.53045        -3.86557         5.08705
     2021.53319        -5.31838         5.12612
     2021.53593        -4.90818         5.21094
     2021.53867         0.72801         5.39105
     2021.54141        -3.17880         5.19283
     2021.54414        -9.38461         5.15471
     2021.54688        -5.14941         5.11945
     2021.54962        -3.08022         5.12612
     2021.55236        -2.56703         5.10134
     2021.55509        -0.17284         5.18330
     2021.55783        -7.38164         5.20046
     2021.56057        -1.00345         5.09086
     2021.56331        -3.81826         5.09563
     2021.56605        -5.41007         5.10611
     2021.56878        -2.90288         5.04131
     2021.57152        -4.53268         5.08610
     2021.57426        -6.19249         5.14709
     2021.57700        -4.45930         5.22428
     2021.57974        -4.17511         5.35484
     2021.58247        -8.98191         5.14423
     2021.58521        -5.30772         5.10611
     2021.58795        -3.02753         5.20808
     2021.59069         0.98666         5.13375
     2021.59342         0.85086         5.39105
     2021.59616        -1.83495         5.29385
     2021.59890        -1.03376         5.15757
     2021.60164        -1.10657         5.13184
     2021.60438        -0.51737         5.11659
     2021.60711        -1.88518         5.20522
     2021.60985         2.88901         5.12136
     2021.61259        -7.76680         5.05751
     2021.61533        -5.82960         5.09849
     2021.61807        -7.40541         5.09277
     2021.62080        -0.40422         5.15281
     2021.62354        -5.85503         5.21952
     2021.62628        -3.97283         5.16519
     2021.62902         5.21336         5.21952
     2021.63175        -1.25145         5.32720
     2021.63449        -3.54526         5.14804
     2021.63723         7.07094         5.29480
     2021.63997         6.76113         5.20617
     2021.64271        -1.70868         5.20427
     2021.64544        -3.94549         5.08705
     2021.64818         1.25671         5.12803
     2021.65092        -7.66610         5.16996
     2021.65366         0.26909         5.06037
     2021.65639        -2.40372         5.17758
     2021.65913        -1.35552         5.03464
     2021.66187         1.13567         5.14899
     2021.66461         2.09086         5.05846
     2021.66735         1.67305         5.08800
     2021.67008        -4.71275         5.15948
     2021.67282         1.56044         5.31672
     2021.67556         8.43263         5.42345
     2021.67830         1.76482         5.18902
     2021.68104         0.23702         5.09849
     2021.68377        -1.61879         5.10516
     2021.68651         0.03140         5.11087
     2021.68925         6.02959         5.26621
     2021.69199        -1.12121         5.11755
     2021.69472         5.38698         5.34436
     2021.69746         1.92017         5.10516
     2021.70020         0.71936         5.11755
     2021.70294        -3.35644         5.31958
     2021.70568         6.58075         5.08514
     2021.70841         5.72094         5.06704
     2021.71115         4.65513         5.10706
     2021.71389         6.12833         5.22047
     2021.71663        -5.97148         5.11087
     2021.71937        -2.55929         5.13851
     2021.72210        -2.29310         5.09849
     2021.72484        -1.52590         5.19378
     2021.72758         1.83829         5.09849
     2021.73032        -4.11852         5.34245
     2021.73305        -2.51333         5.31863
     2021.73579         9.12387         5.28527
     2021.73853        -3.54794         5.44347
     2021.74127         2.98325         5.17568
     2021.74401         2.22744         5.16901
     2021.74674       -11.13836         5.47396
     2021.74948        -0.72517         5.11373
     2021.75222         0.82602         5.10516
     2021.75496         2.65921         5.16424
     2021.75770        -0.26259         5.09277
     2021.76043         2.77560         5.07847
     2021.76317        -3.24221         5.12708
     2021.76591        -2.42502         5.14995
     2021.76865         2.10817         5.13375
     2021.77138         2.27437         5.13375
     2021.77412         5.40556         5.28337
     2021.77686         8.06975         5.18330
     2021.77960         5.27194         5.29099
     2021.78234         4.52314         5.10802
     2021.78507         9.80233         5.10706
     2021.78781         6.37452         5.08419
     2021.79055         7.43571         5.26907
     2021.79329         8.01991         5.10992
     2021.79603         6.29210         5.10420
     2021.79876         3.93929         5.12993
     2021.80150        -2.62852         5.26812
     2021.80424        -5.16032         5.19283
     2021.80698        -0.54613         5.26716
     2021.80971        -1.61094         5.23381
     2021.81245         4.74625         5.30910
     2021.81519         1.94845         5.20713
     2021.81793         7.12564         5.20808
     2021.82067         1.75583         5.21380
     2021.82340        10.51502         5.11850
     2021.82614        10.19222         5.08514
     2021.82888         7.75141         5.08991
     2021.83162         8.98860         5.07180
     2021.83436        14.79279         5.19188
     2021.83709         1.72299         5.13470
     2021.83983        -5.06382         5.17187
     2021.84257        -4.13363         5.31672
     2021.84531        -1.99844         5.13946
     2021.84804         5.85176         5.09849
     2021.85078         6.21595         5.13279
     2021.85352         3.62314         5.11373
     2021.85626         0.99433         5.33387
     2021.85900         3.10753         5.17663
     2021.86173        -1.39128         5.20331
     2021.86447        -1.60709         5.35007
     2021.86721        -1.36990         5.30052
     2021.86995         6.03730         5.37866
     2021.87269         4.14349         5.28241
     2021.87542         8.94868         5.24620
     2021.87816        -1.12913         5.05084
     2021.88090         0.25307         5.08514
     2021.88364        -3.25674         5.07466
     2021.88637        -0.92555         5.12517
     2021.88911         2.42264         5.18711
     2021.89185        -4.50616         5.25287
     2021.89459         0.94703         5.08610
     2021.89733         1.12922         5.10325
     2021.90006        -3.43059         5.23857
     2021.90280        -2.88239         5.12708
     2021.90554         1.08480         5.14995
     2021.90828         5.49199         5.10897
     2021.91102         7.14918         5.15948
     2021.91375         1.92538         5.18902
     2021.91649        -1.37043         5.19855
     2021.91923         3.24576         5.16043
     2021.92197        -7.39205         5.28527
     2021.92470        -6.06685         5.04512
     2021.92744        -1.94166         5.17472
     2021.93018        -5.11547         5.20808
     2021.93292         5.75872         5.22809
     2021.93566         8.49692         5.37771
     2021.93839         5.28511         5.18425
     2021.94113         6.53630         5.29575
     2021.94387         9.92949         5.15948
     2021.94661        -5.29431         5.19950
     2021.94935         4.55988         5.15281
     2021.95208         3.50807         5.06132
     2021.95482         2.72426         5.19474
     2021.95756         4.52346         5.17187
     2021.96030         1.02665         5.13279
     2021.96303        -4.95216         5.18044
     2021.96577         1.11803         5.06894
     2021.96851         3.86622         5.04321
     2021.97125        -0.93758         5.14328
     2021.97399         4.82061         5.10325
     2021.97672         7.39880         5.10039
     2021.97946         6.36199         5.05370
     2021.98220         6.09819         5.09086
     2021.98494         8.10138         5.07371
     2021.98767         6.24357         5.07752
     2021.99041         4.97876         5.06037
     2021.99315         3.42696         5.08038
     2021.99589         8.67715         5.09372
     2021.99863         2.14134         5.05941
     2022.00136         3.10653         5.07657
     2022.00410         1.45973         5.18044
     2022.00684        -9.56608         5.08610
     2022.00958        -4.61689         5.09467
     2022.01232       -15.37970         5.08419
     2022.01505         4.28750         5.14995
     2022.01779         2.17869         5.11850
     2022.02053        -1.31212         5.09849
     2022.02327        -9.58693         5.47110
     2022.02600       -10.16473         5.20808
     2022.02874        -5.67154         5.21761
     2022.03148        -5.46135         5.21475
     2022.03422        -4.53116         5.19950
     2022.03696        -8.92396         5.22905
     2022.03969        -9.62177         5.22428
     2022.04243        -2.98358         5.33292
     2022.04517         2.33761         5.21761
     2022.04791        -0.69819         5.16615
     2022.05065        -0.72100         5.16615
     2022.05338        -3.05681         5.23286
     2022.05612       -10.11762         5.23667
     2022.05886       -11.46242         5.19474
     2022.06160        -5.13923         5.18902
     2022.06433        -3.27704         5.18235
     2022.06707        -1.42385         5.18044
     2022.06981         1.98335         5.11373
     2022.07255        -6.58146         5.11278
     2022.07529        -4.09927         5.12898
     2022.07802         3.80892         5.12517
     2022.08076         3.56912         5.12136
     2022.08350        -1.27469         5.11755
     2022.08624         1.76950         5.17472
     2022.08898        -0.36431         5.18425
     2022.09171        -4.07911         5.15566
     2022.09445        -4.87392         5.18044
     2022.09719        -3.15873         5.10230
     2022.09993        -6.14154         5.22523
     2022.10266        -2.29934         5.33197
     2022.10540        -0.41715         5.20903
     2022.10814         5.23604         5.25859
     2022.11088         4.73723         5.12803
     2022.11362         0.95043         5.07180
     2022.11635         2.67862         5.10039
     2022.11909         2.33181         5.11564
     2022.12183         3.35600         5.12803
     2022.12457        -3.79880         5.24525
     2022.12731        -2.16361         5.07561
     2022.13004        -4.12042         5.08896
     2022.13278        -4.82123         5.10802
     2022.13552         1.45697         5.10802
     2022.13826         8.66716         5.16805
     2022.14099         2.55135         5.18711
     2022.14373       -14.26946         5.07657
     2022.14647         0.76074         5.08705
     2022.14921         2.40093         5.31672
     2022.15195        -3.54088         5.28622
     2022.15468         2.62031         5.12231
     2022.15742        -6.05149         5.09563
     2022.16016         1.88670         5.20522
     2022.16290         0.05689         5.26621
     2022.16564        -1.12192         5.29290
     2022.16837         2.02627         5.12231
     2022.17111        -0.22553         5.07180
     2022.17385         2.00866         5.09563
     2022.17659         4.30085         5.11755
     2022.17932         0.13204         5.11373
     2022.18206         0.68524         5.17568
     2022.18480         1.18143         5.12422
     2022.18754         2.04462         5.14328
     2022.19028        -1.88919         5.13756
     2022.19301        10.33701         5.11564
     2022.19575        11.86520         5.13279
     2022.19849         3.47839         5.16901
     2022.20123         5.81258         5.14328
     2022.20397         7.71678         5.12898
     2022.20670         3.39197         5.29480
     2022.20944         7.81716         5.27193
     2022.21218         4.27935         5.13279
     2022.21492        -0.35945         5.11755
     2022.21765         3.28074         5.10516
     2022.22039         0.08293         5.15757
     2022.22313        -2.16088         5.16996
     2022.22587        -3.49468         5.21475
     2022.22861         1.80751         5.23572
     2022.23134         5.16470         5.12326
     2022.23408         6.86189         5.11087
     2022.23682         4.94809         5.27765
     2022.23956         0.42728         5.14995
     2022.24230        -2.58753         5.15566
     2022.24503         1.87766         5.12136
     2022.24777         5.97786         5.10706
     2022.25051        -4.52795         5.14899
     2022.25325         4.21424         5.14042
     2022.25598         6.20443         5.14518
     2022.25872         6.86663         5.20713
     2022.26146        -1.31718         5.18044
     2022.26420         6.50301         5.10516
     2022.26694       -14.11480         5.27479
     2022.26967        -1.37060         5.12612
     2022.27241        10.43859         5.09277
     2022.27515         3.74278         5.20046
     2022.27789         3.55997         5.07466
     2022.28062         0.25217         5.07847
     2022.28336         4.78136         5.09086
     2022.28610        -0.16645         5.29099
     2022.28884        -0.83926         5.18140
     2022.29158         0.09294         5.08038
     2022.29431        -0.13887         5.06323
     2022.29705         1.00232         5.14423
     2022.29979         6.23751         5.10897
     2022.30253         6.94571         5.18616
     2022.30527         3.55990         5.13661
     2022.30800         1.45209         5.08514
     2022.31074         5.37328         5.06608
     2022.31348        -0.02452         5.07085
     2022.31622        -2.11633         5.06799
     2022.31895       -17.61814         5.22237
     2022.32169         1.78705         5.20713
     2022.32443         0.96925         5.04417
     2022.32717         0.15244         5.04226
     2022.32991        -3.94437         5.04035
     2022.33264        -6.72018         5.18235
     2022.33538        -3.37398         5.30528
     2022.33812         1.61321         5.25478
     2022.34086         4.50040         5.06037
     2022.34360        -3.89341         5.03845
     2022.34633        -0.11921         5.06513
     2022.34907         0.32998         5.11469
     2022.35181         2.59317         5.07180
     2022.35455         1.65236         5.02892
     2022.35728        -1.31044         5.05941
     2022.36002         0.60875         5.08610
     2022.36276         1.07594         5.07943
     2022.36550         0.97913         5.03559
     2022.36824         4.55332         5.06990
     2022.37097        -6.01048         5.05846
     2022.37371        -4.83929         5.05465
     2022.37645        -3.15310         5.06132
     2022.37919         2.71509         5.21666
     2022.38193        -6.18371         5.19855
     2022.38466        -0.93352         5.05179
     2022.38740       -14.17333         5.02415
     2022.39014        -4.78314         5.05655
     2022.39288        -4.32594         5.13184
     2022.39561        -2.95875         5.06799
     2022.39835        -2.86456         5.18521
     2022.40109        -0.82537         5.18330
     2022.40383         3.47483         5.05846
     2022.40657         4.16602         5.05274
     2022.40930        -5.73979         5.20141
     2022.41204         1.72240         5.16519
     2022.41478         4.88160         5.07752
     2022.41752         3.70279         5.15662
     2022.42026        -2.32602         5.21475
     2022.42299         0.32117         5.10802
     2022.42573        -9.03463         5.33101
     2022.42847        -1.45044         5.15566
     2022.43121         1.15575         5.22047
     2022.43394         3.24794         5.30528
     2022.43668        -8.55086         5.16138
     2022.43942        -4.40067         5.23762
     2022.44216        -1.01448         5.15090
     2022.44490         9.73071         5.17758
     2022.44763         7.79491         5.02225
     2022.45037         1.68810         5.03845
     2022.45311        -4.88771         5.12136
     2022.45585        -1.38552         5.04035
     2022.45859       -17.29132         5.03273
     2022.46132        -4.43313         5.06799
     2022.46406        -4.63894         5.05655
     2022.46680        -1.56675         5.12708
     2022.46954        -6.58355         5.13089
     2022.47227       -10.68836         5.05846
     2022.47501         7.82383         5.04417
     2022.47775        -4.23098         5.13851
     2022.48049         0.28622         5.06704
     2022.48323        10.71541         5.04798
     2022.48596        16.34960         5.07180
     2022.48870         5.82079         5.10802
     2022.49144        -3.12101         5.06037
     2022.49418         5.40818         5.20999
     2022.49692         2.82237         5.05941
     2022.49965        -2.55644         5.15852
     2022.50239       -16.46624         5.09372
     2022.50513         2.17195         5.28146
     2022.50787        15.73214         5.32053
     2022.51060        -0.88267         5.14614
     2022.51334        -6.67447         5.10039
     2022.51608        -6.72828         5.05846
     2022.51882        -8.09209         5.06513
     2022.52156        -7.33890         5.08705
     2022.52429         1.56130         5.06037
     2022.52703        -7.98251         5.12993
     2022.52977         7.89168         5.07180
     2022.53251        -3.00713         5.14518
     2022.53525        -7.14593         5.28432
     2022.53798        -3.99174         5.05179
     2022.54072        -9.86855         5.03559
     2022.54346        -4.53036         5.11087
     2022.54620        -8.45916         5.15757
     2022.54893         2.10003         5.07657
     2022.55167         2.04022         5.08228
     2022.55441         1.70941         5.07752
     2022.55715         8.89161         5.03654
     2022.55989        -1.11320         5.11945
     2022.56262        -4.14301         5.08514
     2022.56536       -17.79182         5.05941
     2022.56810         0.00737         5.07085
     2022.57084         0.18457         5.01558
     2022.57357         8.52376         5.15948
     2022.57631        -5.65605         5.13565
     2022.57905        -9.12386         5.16043
     2022.58179         3.86134         5.13851
     2022.58453         5.49353         5.25954
     2022.58726       -12.57428         5.14995
     2022.59000        -6.36809         5.14042
     2022.59274        -4.96789         5.00223
     2022.59548        -4.97670         5.04512
     2022.59822        -8.97651         5.01748
     2022.60095       -11.11932         5.00414
     2022.60369        -5.31812         5.04607
     2022.60643         4.81507         5.32339
     2022.60917         8.05426         5.16996
     2022.61190         7.70745         5.14042
     2022.61464         1.87065         5.02987
     2022.61738         2.87384         4.99652
     2022.62012        -7.41697         5.06608
     2022.62286         3.58622         5.01176
     2022.62559         0.82942         4.97841
     2022.62833        -1.55439         5.04893
     2022.63107        -4.08120         5.15281
     2022.63381         7.91699         5.00986
     2022.63655         2.00019         4.98603
     2022.63928         0.18238         5.08514
     2022.64202         2.45357         5.39105
     2022.64476         7.40376         5.19950
     2022.64750         8.78396         5.00890
     2022.65023         3.83115         5.06799
     2022.65297         6.38234         5.01653
     2022.65571         3.41853         4.97936
     2022.65845         0.32273         5.22809
     2022.66119         7.24592         4.99080
     2022.66392         8.17811         4.97746
     2022.66666         5.18930         4.96411
     2022.66940         4.97050         4.97079
     2022.67214         2.45369         5.04417
     2022.67488         4.01588         5.15662
     2022.67761        10.85207         5.03368
     2022.68035         3.87627         4.98127
     2022.68309         6.69246         5.06513
     2022.68583        13.92765         5.17568
     2022.68856         4.06984         5.07847
     2022.69130         4.76204         5.07371
     2022.69404         1.15723         5.26431
     2022.69678         0.21142         5.09277
     2022.69952        -1.50539         5.06513
     2022.70225         5.07681         5.20046
     2022.70499         0.04400         5.24715
     2022.70773        -3.53481         5.18616
     2022.71047         4.19438         4.99747
     2022.71321        12.48558         4.98222
     2022.71594        11.68177         4.97841
     2022.71868         6.29196         5.00605
     2022.72142         7.00715         4.96507
     2022.72416        -0.43065         5.06608
     2022.72689         6.53654         5.06799
     2022.72963         6.36073         4.96793
     2022.73237         7.92692         4.99461
     2022.73511         2.07112         5.04321
     2022.73785         7.63331         5.01558
     2022.74058         8.31150         5.28908
     2022.74332        14.17469         5.18616
     2022.74606        10.95789         5.01939
     2022.74880         7.07508         4.98794
