# ================= DQRFIT RESULTS ================
# INPUT FILE: series/SKGT.rad
# OUTPUT: LDETRENDED
# FILTER FUNCTION: f(t)
# f(t)=+line(t)+annual(t)
# line(t)=+P 1+P 2*t
# annual(t)=+P 3*sin(2*pi*t+P 4)
# heav(t)=(t<0?0:1)
# TOTAL OBSERVATIONS MTOT= 1625
# INITIAL TIME INTERVAL= 2022.7488 - 2018.2916 =  4.4572
# TOTAL OBSERVATIONS AFTER PREFILTER M= 1607
# TIME-SPAN= 2022.7488 - 2018.2916 =  4.4572
# OBSERVATIONS: USED M=  1607 REJECTED MTOT-M=    18 %USED=   98.8923
# N=  4 PARAMETERS
# MAXSIG= 175.00000
# MAXRES=  21.92506
# SCALE FACTOR FOR LENGTHS: SCL=  10.00000
# SCALE FACTOR FOR SIGMAS: SCLSIG=   1.00000
# CHI^2=   1247.789 DOF=  1603 CHI^2/DOF=   0.77841
# RMS=      5.035 SDEV=      5.036 MEAN=    0.04508
#  P #       PARAMETER +-    SIGMA %error PARAMETER NAME
# P 1 =      6100.49564 +-  194.393   3.19 YZERO                              
# P 2 =        -3.03084 +-    0.096   3.17 SLOPE                              
# P 3 =         4.33419 +-    0.175   4.03 ANNUAL AMPLITUDE                   
# P 4 =         3.04702 +-    0.057   1.86 ANNUAL PHASE                       
#       T            LDETRENDED       SIG_OBS
     2018.29158        -7.53779         4.93368
     2018.29431        -8.20250         4.83398
     2018.29705        -8.77520         4.70517
     2018.29979        -8.42090         4.78899
     2018.30253        -7.95160         4.84545
     2018.30527       -10.85330         4.77222
     2018.30800       -12.52801         4.74752
     2018.31074       -10.67971         4.69282
     2018.31348       -11.40741         4.70782
     2018.31622        -9.79611         4.74223
     2018.31895        -0.21781         4.86398
     2018.32169        -4.92452         4.76340
     2018.32443        -7.43022         4.76252
     2018.32717        -9.82292         4.74487
     2018.32991        -3.14262         4.85692
     2018.33264        -2.33932         4.72723
     2018.33538       -13.42303         5.14013
     2018.33812        -5.99073         4.96632
     2018.34086        -2.51743         4.78105
     2018.34360        -6.65113         4.72370
     2018.34633        -4.88383         4.71841
     2018.34907        -6.23554         4.73782
     2018.35181        -1.78724         5.01926
     2018.35455        -6.86294         4.74840
     2018.35728        -0.61964         4.68576
     2018.36002        -4.78834         4.81546
     2018.36276         3.16795         4.81898
     2018.36550        -4.30675         4.75193
     2018.36824        -1.06145         4.76870
     2018.37097        -1.89815         4.88427
     2018.37371        -1.19285         4.71135
     2018.37645        -3.66956         4.79693
     2018.37919        -4.13426         4.74487
     2018.38193        -0.92296         4.82075
     2018.38466        -1.05366         4.77487
     2018.38740        -0.11836         4.73164
     2018.39014         3.68093         4.77134
     2018.39288        -0.09377         4.82869
     2018.39561        -0.45247         4.79781
     2018.39835         1.74783         4.86927
     2018.40109         1.95613         4.73517
     2018.40383         0.05242         4.84898
     2018.40657         0.29072         4.73605
     2018.40930        10.94302         4.88251
     2018.41204         7.20632         4.76870
     2018.41478         0.31462         4.76340
     2018.42299        -0.49749         4.74487
     2018.42573         9.30081         4.79516
     2018.42847         3.65711         4.77222
     2018.43121         5.67240         4.81634
     2018.43394         1.67070         4.72723
     2018.43668         0.65100         4.70958
     2018.43942         4.33330         4.74311
     2018.44216        -1.06640         4.80840
     2018.44490         2.65989         4.79957
     2018.44763         2.35019         4.84722
     2018.45037        -2.68951         4.70605
     2018.45311        -0.51821         4.72458
     2018.45585         4.14409         4.77487
     2018.45859        -2.53062         4.81016
     2018.46132        -5.08732         4.94691
     2018.46406        -2.36802         4.76428
     2018.46680         4.74528         4.78193
     2018.46954        -1.78642         4.76164
     2018.47227         1.32687         4.91868
     2018.47501         5.41417         4.80310
     2018.47775         3.53147         4.79163
     2018.48049         1.52577         4.85339
     2018.48323         1.06607         4.69458
     2018.48596        -3.54964         4.82163
     2018.48870         2.90966         4.79340
     2018.49144         2.41396         4.76164
     2018.49418         5.45226         4.87898
     2018.49692         2.88856         4.93544
     2018.49965         3.30985         4.80222
     2018.50239         0.27015         4.73340
     2018.50513        -2.87655         4.80840
     2018.50787         4.03675         4.78016
     2018.51060         2.17205         5.01132
     2018.51334         1.21134         4.75987
     2018.51608        -1.94936         4.79163
     2018.51882        -0.38606         4.79075
     2018.52156         3.70824         4.80310
     2018.52429         1.61154         4.72458
     2018.52703         1.27783         4.77222
     2018.52977         1.77713         4.84016
     2018.53251         0.76443         4.80399
     2018.53525         3.53573         4.71576
     2018.53798        -0.37597         4.76870
     2018.54072         4.71832         4.75281
     2018.54346         5.50362         4.79163
     2018.54620         2.81492         4.77928
     2018.54893         0.69922         4.75811
     2018.55167         3.62452         4.88339
     2018.55441        -0.58019         4.76605
     2018.55715        -1.60789         4.90457
     2018.55989        -0.53959         4.94250
     2018.56262        -1.48329         4.74664
     2018.56536         0.72401         4.81281
     2018.56810         4.56130         4.76781
     2018.57084         0.17460         4.74487
     2018.57357        -0.45010         4.82693
     2018.57631        -2.28680         5.06073
     2018.57905        -1.85151         5.01661
     2018.58179         4.71079         4.91162
     2018.58453        -0.07891         4.95927
     2018.58726         2.71339         4.71929
     2018.59000         3.52869         4.69458
     2018.59274         0.86398         4.75370
     2018.59548         1.45728         4.97427
     2018.59822         3.34458         4.79781
     2018.60095         0.20588         4.74929
     2018.60369         1.66618         4.65929
     2018.60643         3.48847         4.79516
     2018.60917        -2.35323         4.84192
     2018.61190         7.71307         4.79163
     2018.61464         1.47537         4.70958
     2018.61738         5.75867         4.71929
     2018.62012         0.75396         4.63724
     2018.62286         2.57426         4.83398
     2018.62559        10.51456         4.89574
     2018.62833         1.14186         4.76164
     2018.63107         5.05616         4.72899
     2018.63381         4.36445         4.94956
     2018.63655         3.42575         4.72017
     2018.63928         6.77005         4.96280
     2018.64202         3.57835         5.14807
     2018.64476         7.50465         4.71929
     2018.64750         2.94494         4.74576
     2018.65023        10.42624         4.90898
     2018.65297         8.02954         4.76164
     2018.65571        11.59284         4.77752
     2018.65845         4.15014         4.84545
     2018.66119         7.51043         4.77222
     2018.66392         6.02673         4.73782
     2018.66666         5.06003         4.78016
     2018.66940         3.37633         4.80222
     2018.67214         9.00963         4.84457
     2018.67488         3.38292         4.77928
     2018.67761         4.26322         4.76870
     2018.68035        -0.07148         4.81634
     2018.68309        -1.41818         4.91251
     2018.68583         8.79812         4.77487
     2018.68856         0.99441         4.83310
     2018.69130         2.79771         4.91780
     2018.69404         5.52201         4.93103
     2018.69678         0.06931         4.81987
     2018.69952         2.80861         4.76428
     2018.70225         2.55690         4.88780
     2018.70499        -0.88680         4.75370
     2018.70773         2.55050         4.79957
     2018.71047         1.61580         4.76428
     2018.71321         4.72710         4.74752
     2018.71594         3.05739         4.69811
     2018.71868        -7.56531         4.76252
     2018.72142        -1.82601         4.83575
     2018.72416        -5.53771         4.86398
     2018.72689         1.32859         4.84545
     2018.72963         0.30188         4.80046
     2018.73237        -1.25682         4.75370
     2018.73511        -2.29352         4.80222
     2018.73785         1.35578         4.82075
     2018.74058         0.03708         4.77664
     2018.74332         7.78837         4.75723
     2018.74606         2.50067         4.79340
     2018.74880         4.36697         4.86222
     2018.75154         0.52327         4.98397
     2018.75427         3.76957         4.74487
     2018.75701         5.94086         4.87104
     2018.75975         1.42016         4.73693
     2018.76249         4.27946         4.73252
     2018.76522         0.18276         4.80840
     2018.76796         3.30106         4.73693
     2018.77070         3.95935         4.81722
     2018.77344         6.68865         4.75458
     2018.77618         2.47695         4.77134
     2018.77891         3.17225         4.84986
     2018.78165         1.22955         4.78369
     2018.78439         3.56084         4.75105
     2018.78713         1.03214         4.73164
     2018.78987        -8.90956         4.77575
     2018.79260        -3.50126         4.74752
     2018.79534         4.31904         4.71488
     2018.79808         0.88933         4.73782
     2018.80082        -0.06637         5.52304
     2018.80355         4.92893         4.74399
     2018.80629         3.62023         4.91515
     2018.80903         1.40253         4.78546
     2018.81177         2.70182         4.99191
     2018.81451         3.48612         4.88074
     2018.81724         4.87642         5.00338
     2018.81998         4.30672         4.90192
     2018.82272        13.00002         4.84457
     2018.82546        10.26731         4.79516
     2018.82820         1.95861         4.70252
     2018.83093         3.31191         4.79605
     2018.83367        -1.31479         4.74311
     2018.83641        13.55551         4.96721
     2018.83915         2.85780         4.77752
     2018.84188         6.65210         4.75370
     2018.84462        -0.56260         4.75105
     2018.84736         0.32970         4.75193
     2018.85010         5.86000         4.72811
     2018.85284        -1.29471         4.72899
     2018.85557        -3.90141         4.84634
     2018.85831         0.03289         4.74046
     2018.86105        -2.57581         4.79693
     2018.86379         0.60349         4.84722
     2018.86653        -2.84522         4.81987
     2018.86926        -0.65692         4.83310
     2018.87200        -0.31262         4.83928
     2018.87474        -2.00232         4.80487
     2018.87748         0.61798         4.86575
     2018.88021         4.88827         4.97956
     2018.88295         5.27257         4.87986
     2018.88569         8.14387         4.85516
     2018.88843         8.69317         4.88868
     2018.89117         4.03146         4.92309
     2018.89390         4.96976         4.91251
     2018.89664        -0.88794         4.95662
     2018.89938         4.72636         4.83487
     2018.90212         0.99566         4.85869
     2018.90485         8.56095         5.04573
     2018.90759         2.90825         4.83045
     2018.91033         4.49855         4.88604
     2018.91307         8.79385         4.89486
     2018.91581        12.07115         4.84104
     2018.91854        10.20044         4.78369
     2018.92128         4.10774         4.83398
     2018.92402         6.81604         4.82428
     2018.92676         8.89834         4.82869
     2018.92950        12.86764         4.83045
     2018.93223         5.20493         4.93544
     2018.93497         4.61023         4.92221
     2018.93771         2.83453         4.83487
     2018.94045         2.33283         4.82781
     2018.94318         5.21513         4.74576
     2018.94592        11.67042         4.83575
     2018.94866         3.08572         4.74399
     2018.95140        15.59702         4.98309
     2018.95414        13.56432         4.84192
     2018.95687        10.85362         4.77046
     2018.95961        12.55591         4.85339
     2018.96235        11.77121         4.79163
     2018.96509         8.62551         4.79075
     2018.96783         3.21481         4.93280
     2018.97056         9.07911         4.78546
     2018.97330         2.91140         4.83663
     2018.97604         3.28770         4.87810
     2018.97878         5.03100         4.74134
     2018.98151        -5.67570         4.75017
     2018.98425         1.60960         4.88427
     2018.98699        -2.47211         4.88692
     2018.98973        -3.40681         4.77840
     2018.99247         0.97749         4.79428
     2018.99520        -0.59021         4.82957
     2018.99794        -4.88691         4.88516
     2019.00068        -6.31562         4.91162
     2019.00342        -2.74832         4.88604
     2019.00616        -8.11102         4.80663
     2019.00889        -1.11872         4.85339
     2019.01163        -0.95042         4.75193
     2019.01437         5.27387         4.81457
     2019.01711         5.58017         4.94250
     2019.01984        -1.49553         4.81281
     2019.02258        -2.69923         4.76164
     2019.02532        -3.37093         4.81898
     2019.02806        -5.09564         4.85516
     2019.03080        -4.03534         4.84722
     2019.03353        -7.97904         4.72635
     2019.03627        -8.60774         4.75987
     2019.03901        -2.82844         4.73252
     2019.04175        -3.70015         4.73605
     2019.04449         0.79615         4.75370
     2019.04722        -5.19555         4.88251
     2019.04996        -5.91325         4.97074
     2019.05270        -5.56195         4.87721
     2019.05544        -9.06266         4.85163
     2019.05817         0.04164         5.00603
     2019.06091        -0.10706         4.84810
     2019.06365        -3.17576         4.78546
     2019.06639        -0.30946         4.81457
     2019.06913        -2.80817         4.83663
     2019.07186        -8.43087         4.88780
     2019.07460         0.94643         4.75634
     2019.07734         0.68873         4.71752
     2019.08008         1.19903         4.66018
     2019.08282        -2.83168         4.91780
     2019.08555         2.72762         4.79516
     2019.08829        -2.28908         4.72635
     2019.09103         1.55222         4.82604
     2019.09377         1.22052         4.74223
     2019.09650         9.90981         4.75193
     2019.09924         0.22711         4.76164
     2019.10198        -2.27859         4.72635
     2019.10472         0.20671         4.77752
     2019.10746         6.92401         4.67694
     2019.11019         1.80730         4.74223
     2019.11293         6.58360         4.81369
     2019.12115        16.83250         4.85516
     2019.12388         9.13579         4.78193
     2019.12662         6.80109         4.89486
     2019.12936         2.55139         4.76605
     2019.13210        -1.75131         4.75105
     2019.13483        -3.54201         4.84457
     2019.13757         0.03028         4.76164
     2019.14031         4.76358         4.76605
     2019.14305         2.54488         4.78105
     2019.14579        -5.59282         4.73693
     2019.14852        -0.64952         4.81457
     2019.15126         4.92477         4.74576
     2019.15400        -0.18793         4.73076
     2019.15674        -3.36463         4.68841
     2019.15948        -1.27833         4.71135
     2019.16221        -6.75103         4.77752
     2019.16495        -3.02274         4.74046
     2019.16769        -7.20244         4.69811
     2019.17043        -7.14914         4.69105
     2019.17316        -3.63884         4.71399
     2019.17590        -1.69254         4.70870
     2019.18412       -11.24465         4.72282
     2019.18685        -7.72935         4.72017
     2019.18959        -3.52605         4.72811
     2019.19233        -6.18976         4.70782
     2019.19507        -2.27746         4.73252
     2019.19780        -4.79716         4.74311
     2019.20054        -7.61986         4.84634
     2019.20328       -10.24857         4.73782
     2019.20602       -13.95927         4.91603
     2019.20876       -11.61197         4.70958
     2019.21149        -7.93667         4.74576
     2019.21423        -6.11837         4.72282
     2019.21697        -6.86408         4.75281
     2019.21971        -6.68078         4.91780
     2019.22245        -6.29248         4.72193
     2019.22518        -4.84018         4.72193
     2019.22792        -7.07188         4.79781
     2019.23066       -15.70559         4.73340
     2019.23340        -5.58929         4.72105
     2019.23613        -5.78399         4.68841
     2019.23887        -5.24269         4.71488
     2019.24161       -10.91539         5.02279
     2019.24435       -10.34210         4.82869
     2019.24709        -8.73080         4.83398
     2019.24982        -1.93050         4.82075
     2019.25256         0.01680         4.83928
     2019.25530        -6.60390         4.72282
     2019.25804        -8.78361         4.85604
     2019.26078        -7.88031         4.75899
     2019.26351        -2.45601         4.82428
     2019.26625        -6.02071         4.69458
     2019.26899        -7.33541         4.81634
     2019.27173        -5.05212         4.98132
     2019.27446       -11.44482         4.74134
     2019.27720        -7.40052         4.85692
     2019.27994        -6.56422         4.79693
     2019.28268        -8.87492         4.81898
     2019.28542         1.91537         4.71752
     2019.28815        -1.42833         4.73870
     2019.29089        -4.41603         4.76517
     2019.29363        -5.76473         4.76781
     2019.29637        -5.22743         4.86751
     2019.29911         1.97686         4.76605
     2019.30184        -5.67384         4.75723
     2019.30458        -5.66854         4.76781
     2019.30732        -9.18924         4.76340
     2019.31006        -1.71894         4.78546
     2019.31279        -6.34065         4.78811
     2019.31553         4.26265         4.79252
     2019.31827        -4.39005         4.91427
     2019.32101        -5.27575         4.74752
     2019.32375       -12.51645         4.69282
     2019.32648        -4.79916         4.69282
     2019.32922        -3.55286         4.74929
     2019.33196        -6.32456         4.82251
     2019.33470        -9.82526         4.82781
     2019.33744        -8.96696         4.79428
     2019.34017       -11.59067         4.77134
     2019.34291        -2.05837         4.74576
     2019.34565        -3.44207         4.83310
     2019.34839        -3.05577         4.83487
     2019.35112        -8.14647         4.79516
     2019.35386        -9.94218         4.74223
     2019.35660        -4.32888         4.82163
     2019.35934         5.77142         4.78987
     2019.36208        -0.61428         4.75281
     2019.36481        -2.46998         4.84545
     2019.36755        -2.47669         4.78281
     2019.37029        -7.37739         4.78811
     2019.37303        -2.64809         4.77311
     2019.37577         4.06021         4.85692
     2019.37850        -3.87849         4.83928
     2019.38124        -1.32820         4.81810
     2019.38398        -1.76290         4.78193
     2019.38672        -3.99260         4.81898
     2019.38945        -8.46630         4.72811
     2019.39219        -0.55000         4.82516
     2019.39493        -4.23871         4.75546
     2019.39767        -1.82741         4.76164
     2019.40041         1.24989         4.79340
     2019.40314         3.47019         4.81987
     2019.40588         0.52349         4.74046
     2019.40862        -2.73522         4.73958
     2019.41136        -1.40492         4.77311
     2019.41410         2.53738         4.80399
     2019.41683         0.35868         4.92486
     2019.41957         4.56398         4.86133
     2019.42231        -1.19173         4.79693
     2019.42505         3.30957         4.90015
     2019.42778         2.52087         4.93721
     2019.43052         4.39417         5.03161
     2019.43326        -5.28453         4.79340
     2019.43600        -3.73524         4.79163
     2019.43874        -4.53594         4.87192
     2019.44147        -6.27364         4.86133
     2019.44421        -0.12834         4.89045
     2019.44695        -0.86704         4.93192
     2019.44969         1.09025         5.58215
     2019.45243         0.92857         5.17013
     2019.45517         3.80886         5.47275
     2019.45790         1.57915         5.46834
     2019.46338         0.97476         5.56804
     2019.46612         4.40206         5.80625
     2019.46885         2.31134         5.52745
     2019.47159         9.88364         5.58921
     2019.47336         2.14601        11.22253
     2019.47706        -0.22678         5.23365
     2019.47981         1.61555         5.29453
     2019.48232         2.82815         6.01711
     2019.48528         8.19914         5.64215
     2019.48802        -1.51256         5.38099
     2019.49076        -3.32926         5.31747
     2019.49350        -1.68196         5.05102
     2019.49623        -4.90868         5.22395
     2019.49897         2.06862         4.79516
     2019.50171         3.28091         4.75634
     2019.50444         1.21221         5.01926
     2019.50718        -5.17249         4.81722
     2019.50992        -5.34519         4.78016
     2019.51266         1.09411         4.80928
     2019.51540        -0.17860         4.76252
     2019.51813         1.71470         4.75370
     2019.52087        -8.05300         4.85604
     2019.52361        -2.14370         4.78193
     2019.52635        -6.63540         4.78899
     2019.52908         3.68389         5.02014
     2019.53182        -4.30681         4.91251
     2019.53456        -0.04551         4.97338
     2019.53730         0.00879         4.89133
     2019.54004         2.89009         4.91251
     2019.54277        -7.87262         5.07308
     2019.54551         1.46768         5.08808
     2019.54825         2.17198         4.77928
     2019.55099        -4.15772         5.01485
     2019.55373        -0.42142         4.90192
     2019.55646         2.59087         4.97515
     2019.55920         0.95017         5.03867
     2019.56194        -3.76953         4.83398
     2019.56468        -5.43223         4.86398
     2019.56741        -4.00293         4.81193
     2019.57015         1.24736         4.75899
     2019.57289        -3.15834         4.88074
     2019.57563         1.96596         4.91339
     2019.57837        -4.26774         4.84281
     2019.58110         0.06056         4.78546
     2019.58384        -3.13715         5.13043
     2019.58658        -0.13385         4.73693
     2019.58932         2.31345         4.72635
     2019.59206         1.22375         4.82516
     2019.59479         0.04005         4.78369
     2019.59753         4.30234         4.96809
     2019.60027         2.66864         4.96985
     2019.60301         5.18294         4.81546
     2019.60574         3.24524         5.11719
     2019.60848         4.27654         4.91868
     2019.61122        -1.92817         4.82251
     2019.61396         5.93413         4.89574
     2019.61670         2.76343         4.87457
     2019.61943         4.86073         4.75370
     2019.62217         8.43803         4.94515
     2019.62491         9.59532         4.82075
     2019.62765         2.62562         4.84898
     2019.63039         7.58592         4.88604
     2019.63312         2.38222         4.82075
     2019.63586         5.85052         4.97603
     2019.63860         5.49281         4.73517
     2019.64134         1.07111         4.92221
     2019.64407         7.86541         5.09867
     2019.64681         0.13171         4.86486
     2019.64955        -1.36599         4.84898
     2019.65229         2.38030         4.76075
     2019.65503        -0.56640         4.85428
     2019.65776        -6.15710         4.98485
     2019.66050         7.47920         5.06514
     2019.66324         2.84950         4.81634
     2019.66598         1.34579         4.89839
     2019.66872         1.94809         4.73517
     2019.67145         2.11139         4.89398
     2019.67419         4.88869        20.07704
     2019.67693         0.83599         4.92927
     2019.67967        -3.09372         4.88251
     2019.68240        -5.01742         4.82604
     2019.68514        -0.35112         4.85516
     2019.68788         3.38218         4.89574
     2019.69062         3.32248         4.87369
     2019.69336        -1.43423         4.78899
     2019.69609        -0.11593         4.87369
     2019.69883        -4.24163         5.12160
     2019.70157        -2.22633         4.83928
     2019.70431         2.50397         4.88692
     2019.70705         1.90626         4.84898
     2019.70978        -4.27944         4.87810
     2019.71252        -1.70214         4.72370
     2019.71526         2.68816         4.74134
     2019.71800         9.38346         5.05191
     2019.72073         8.00575         5.07132
     2019.72347         1.95005         4.82428
     2019.72621        -0.07265         4.86310
     2019.72895         2.09665         4.83398
     2019.73169         7.74495         4.87369
     2019.73442         5.91324         4.94603
     2019.73716        11.12854         4.85516
     2019.73990         5.38184         4.96544
     2019.74264         6.68014         4.84810
     2019.74538         2.89944         4.77134
     2019.74811         5.83973         4.89133
     2019.75085         5.46103         4.89310
     2019.75359         9.54333         5.05279
     2019.75633         6.99663         4.84016
     2019.75906        -1.77207         4.75017
     2019.76180        -0.79278         4.75017
     2019.76454         0.22252         4.92133
     2019.76728         8.24982         4.98662
     2019.77002         2.07912         4.85075
     2019.77275         4.23742         5.01485
     2019.77549         3.36071         4.82075
     2019.77823         5.16001         4.89662
     2019.78097         8.23431         4.92574
     2019.78371         5.53661         4.87898
     2019.78644        -0.09509         4.88074
     2019.78918         3.69620         5.24865
     2019.79192         7.47850         4.88427
     2019.79466         6.24580         5.14190
     2019.79739         5.44410         4.86222
     2019.80013         7.53340         4.82340
     2019.80287         0.87769         4.83751
     2019.80561        -4.93501         4.91251
     2019.80835         1.78529         4.85957
     2019.81108         2.33959         4.92309
     2019.81382         4.46288         5.00956
     2019.81656         6.63218         4.90986
     2019.81930         3.21948         4.81193
     2019.82203         3.85278         4.90015
     2019.82477         1.86208         4.89574
     2019.82751         0.47837         4.92662
     2019.83025         3.05067         4.92839
     2019.83299        -3.42203         4.97956
     2019.83572        -2.44973         4.86839
     2019.83846        10.43857         4.95133
     2019.84120         3.66186         4.94074
     2019.84394         5.41716         5.03514
     2019.84668        -2.21054         4.84545
     2019.84941         0.90276         4.91339
     2019.85215         5.29906         4.96015
     2019.85489         9.77335         5.11719
     2019.85763         3.89365         4.88339
     2019.86036         0.67895         4.92662
     2019.86310        -0.18775         4.86133
     2019.86584         8.65155         4.97956
     2019.86858         4.78084         4.90633
     2019.87132         4.46214         5.17631
     2019.87405         1.84144         4.88604
     2019.87679        -5.79626         5.00514
     2019.87953        -1.93296         4.86927
     2019.88227         9.38433         4.95574
     2019.88501        10.59863         4.85163
     2019.88774         9.10093         4.95574
     2019.89048        13.06723         4.80928
     2019.89322         4.92353         5.07132
     2019.89596         1.86082         4.98573
     2019.89869        10.36812         4.85869
     2019.90143         7.61442         4.82693
     2019.90417         9.48472         4.97162
     2019.90691         4.68602         4.82340
     2019.90965         2.03931         4.87104
     2019.91238         9.92361         4.81016
     2019.91512        12.05691         4.89927
     2019.91786        14.35621         4.79516
     2019.92060         8.45951         4.92309
     2019.92334         2.95380         4.84810
     2019.92607         9.16310         4.85428
     2019.92881         8.30340         4.80752
     2019.93155         3.90270         4.86927
     2019.93429         4.39200         4.88339
     2019.93702         3.06729         4.89839
     2019.93976         0.79159         4.94339
     2019.94250        -1.59011         4.86486
     2019.94524         4.55819         4.78722
     2019.94798        -3.78751         4.91603
     2019.95071         5.94278         5.07573
     2019.95345         0.49208         4.88427
     2019.95619         4.24738         4.88427
     2019.95893         2.91168         4.89486
     2019.96167         7.52898         4.89133
     2019.96440         6.71227         4.99191
     2019.96714         0.55757         4.95574
     2019.96988        -7.08213         4.84281
     2019.97262        -2.95783         4.95044
     2019.97535         3.87547         4.87457
     2019.97809        -0.41524         4.85339
     2019.98083         0.27906         4.84634
     2019.98357        -1.73664         4.77134
     2019.98631        -4.05134         4.81810
     2019.98904        -2.32404         4.87810
     2019.99178         1.56225         4.87369
     2019.99452         1.49955         4.87810
     2019.99726         9.65885         4.82957
     2020.00000        10.66015         4.85692
     2020.00273         0.18845         4.87810
     2020.00547         6.44374         5.03426
     2020.00821         2.49204         5.02367
     2020.01095         5.75534         4.94162
     2020.01368        -2.20436         4.92927
     2020.01642        -6.59406         4.96897
     2020.01916        -0.86477         4.94074
     2020.02190        -3.04847         4.96985
     2020.02464        -3.58417         4.96368
     2020.02737        -2.86287         4.80752
     2020.03011        -3.31657         4.80134
     2020.03285        13.36572         4.99368
     2020.03559         3.84202         4.71576
     2020.03833        11.43632         4.72193
     2020.04106        13.11662         4.99720
     2020.04654         3.43621         4.70870
     2020.04928        -7.72449         4.77840
     2020.05201        -1.92519         4.78634
     2020.05475        -0.79789         4.80046
     2020.05749        -4.24459         4.77928
     2020.06023        -4.54430         4.72370
     2020.06297        -1.99100         4.85604
     2020.06570        -1.59970         4.84192
     2020.06844        -0.13640         4.84281
     2020.07118         4.42090         4.79163
     2020.07392        -4.63381         4.80487
     2020.07666        -2.41551         4.79428
     2020.07939        -4.21721         4.81546
     2020.08213         0.39409         4.78634
     2020.08487         2.87139         4.81369
     2020.08761         2.80368         4.75546
     2020.09034        -1.81502         4.73340
     2020.09308        -5.06772         4.80928
     2020.09582        -9.22542         4.78281
     2020.09856       -10.93612         4.80840
     2020.10130       -13.16483         4.79781
     2020.10403        -6.09953         4.76517
     2020.10677        -7.78323         4.83045
     2020.10951        -9.95493         4.79075
     2020.11225        -2.09163         4.77399
     2020.11498        -2.33034         4.70605
     2020.11772        -3.53404         4.93721
     2020.12046        -9.33874         4.91251
     2020.12320        -8.69744         4.86045
     2020.12594        -5.72215         4.78722
     2020.12867        -5.58185         4.78193
     2020.13141        -7.28455         4.78634
     2020.13415        -6.65125         4.77046
     2020.13689        -2.16695         4.81369
     2020.13963        -2.07866         4.89751
     2020.14236         1.49564         4.78722
     2020.14510         0.46094         4.87721
     2020.14784        -2.41676         4.78546
     2020.15058        -3.71446         4.81810
     2020.15331        -9.66517         4.82163
     2020.15605        -8.82587         4.80487
     2020.15879        -2.67857         4.80840
     2020.16153        -0.31627         4.82781
     2020.16427        -0.07197         4.77134
     2020.16700        -5.97368         4.83487
     2020.16974        -9.80838         4.87369
     2020.17248       -12.80308         5.22042
     2020.17522        -0.09278         4.89574
     2020.17796        -2.63048         4.82781
     2020.18069        -1.68819         4.75105
     2020.18343        -9.62089         4.78193
     2020.18617        -6.04459         4.77046
     2020.18891        -6.39229         4.87986
     2020.19164        -0.77499         4.91956
     2020.19438        -5.34170         4.82604
     2020.19712        -3.44540         4.80310
     2020.19986        -3.90310         4.84192
     2020.20260        -2.96580         5.14719
     2020.20534        -5.36849         5.21689
     2020.20808        -3.60619         4.93897
     2020.21081        -9.36791         5.20013
     2020.21355        -2.71761         5.27512
     2020.21629        -2.09231         5.12602
     2020.21901        -1.52106         4.94339
     2020.22179        -3.75363         5.03073
     2020.22450        -0.67342         4.82340
     2020.22724        -3.56612         4.79957
     2020.22997        -1.17682         4.81546
     2020.23271        -0.13252         4.88957
     2020.23545        -1.39123         4.83310
     2020.23819         0.01307         4.78634
     2020.24093        -4.01563         4.82428
     2020.24366        -9.71933         4.90368
     2020.24640        -1.68403         4.87457
     2020.24914       -13.61974         4.91868
     2020.25188        -3.98844         4.86927
     2020.25462        -6.01814         4.77928
     2020.25735        -4.81584         4.88868
     2020.26009         7.40646         4.78811
     2020.26283        -2.30325         4.81898
     2020.26557        -2.44895         4.80663
     2020.26830        -3.99765         4.81546
     2020.27104        -3.54035         4.80222
     2020.27378        -1.03305         4.82340
     2020.27652        -1.38376         4.87810
     2020.27929        -1.77436         4.96721
     2020.28199         2.61684         4.90721
     2020.28473        -4.24186         5.06955
     2020.28747        -6.54056         4.87633
     2020.29021         2.99473         4.82163
     2020.29295        -3.02997         4.85780
     2020.29568         4.60633         4.81281
     2020.29842         2.39563         4.76164
     2020.30116        -1.33607         4.76075
     2020.30390        -1.07278         4.82957
     2020.30663        -3.97848         4.84810
     2020.30937        -1.73318         4.96280
     2020.31211        -4.20188         5.03338
     2020.31485        -5.85858         4.89574
     2020.31759        -3.64829         4.75017
     2020.32032         0.29701         5.08896
     2020.32306        -5.05569         4.83134
     2020.32580        -4.80739         4.84898
     2020.32854        -3.09509         4.88427
     2020.33128        -1.27780         4.81634
     2020.33401        -3.80150         4.80487
     2020.33675        -2.79820         4.91162
     2020.33949        -5.75590         4.83222
     2020.34223        -1.64260         4.96456
     2020.34496        -9.27331         4.99544
     2020.34770        -5.02401         4.81898
     2020.35044        -5.14571         4.88957
     2020.35322        -6.53730         4.94339
     2020.35592        -9.24411         4.88339
     2020.35865         3.05118         4.75811
     2020.36139         0.42048         4.79163
     2020.36413        -2.26522         4.85692
     2020.36687        -4.56492         4.86663
     2020.36961        -3.18962         4.87016
     2020.37243         4.81595         4.97779
     2020.37508         3.72097         4.82957
     2020.37782        -0.06573         4.87986
     2020.38056        -5.38443         4.72635
     2020.38334        -4.84501         4.84104
     2020.38603        -1.05584         4.74134
     2020.38877         5.71246         4.87721
     2020.39151        -0.95024         4.79605
     2020.39425        -4.99594         4.80663
     2020.39698        -6.25564         4.87898
     2020.39972        -9.52235         4.81722
     2020.40246        -5.10605         4.78899
     2020.40520       -11.48375        10.04823
     2020.40794        -2.15145         4.80487
     2020.41067        -3.37415         4.90809
     2020.41341        -7.64086         4.96456
     2020.41615        -4.10756         4.78193
     2020.41889        -1.78826         4.78458
     2020.42162        -3.11796         4.93192
     2020.42436         0.25634         5.08631
     2020.42710        -2.10437         5.06514
     2020.42984        -7.05707         5.19307
     2020.43258         3.56523         4.85869
     2020.43531        -0.29547         4.87280
     2020.43805         2.22482         4.96456
     2020.44079        -5.02688         4.94427
     2020.44353        -1.61458         4.99897
     2020.44626        -5.63128         4.80222
     2020.44900        -2.89798         4.81369
     2020.45174         1.61631         4.81281
     2020.45448        -1.60239         4.79605
     2020.45722        -6.66509         4.86663
     2020.45995        -2.90879         4.79516
     2020.46269        -5.63149         4.74134
     2020.46543        -2.65220         4.79693
     2020.46817        -1.18790         4.88868
     2020.47091        -0.99360         4.82957
     2020.47364        -3.40130         4.84898
     2020.47638         0.68900         4.78193
     2020.47912        -0.10671         4.96985
     2020.48186        -1.48741         4.83310
     2020.48459         0.82589         5.07043
     2020.48733        -5.00081         5.20807
     2020.49007         3.56749         4.94780
     2020.49281         3.03178         4.82428
     2020.49555         4.39308         4.92309
     2020.49828         2.79638         4.85957
     2020.50102        -3.20432         4.80928
     2020.50376        -4.01602         4.88780
     2020.50650        -2.88773         4.75546
     2020.50924        -7.41143         4.72193
     2020.51197         2.06487         4.73693
     2020.51471        -0.14683         4.75105
     2020.51745         2.68247         4.85604
     2020.52019         0.47776         4.94780
     2020.52292         3.86406         4.84722
     2020.52566         3.65136         4.83134
     2020.52840         2.16266         4.86222
     2020.53114         1.52396         4.90280
     2020.53388        -2.20275         4.90545
     2020.53661         0.23655         4.92839
     2020.53935         4.11485         4.82957
     2020.54209         1.35815         4.87810
     2020.54483        -0.45555         4.87633
     2020.54757        -0.14526         4.84634
     2020.55030         6.15304         4.88868
     2020.55304         1.96734         5.04485
     2020.55578         9.29064         4.88780
     2020.55852         7.60694         4.96632
     2020.56125         5.95623         4.91427
     2020.56399         2.49053         4.87280
     2020.56673        -0.52817         4.81193
     2020.56947         7.94413         4.87721
     2020.57221         0.27243         5.11631
     2020.57494         5.39572         5.07661
     2020.57768         2.09002         4.99279
     2020.58042        -6.08768         4.95133
     2020.58316        -3.09238         4.92486
     2020.58590         0.72092         4.99632
     2020.58863         0.58921         4.91074
     2020.59137        -1.08349         4.84810
     2020.59411         9.24681         4.91162
     2020.59685        13.59711         5.30071
     2020.59958        -3.26759         5.01132
     2020.60232         3.61970         4.89398
     2020.60506         0.34400         4.90368
     2020.60780         2.09130         4.94515
     2020.61054         7.23060         5.00691
     2020.61327         7.11290         5.00073
     2020.61601         4.33019         4.90457
     2020.61875        -1.91451         4.88251
     2020.62149        -1.67821         4.87721
     2020.62423         0.69009         4.89310
     2020.62696         0.95439         5.00956
     2020.62970        -3.29932         4.93809
     2020.63244         7.29398         4.97338
     2020.63518         5.38528         4.97868
     2020.63791        -8.58942         5.29188
     2020.64065        -1.29212         5.02455
     2020.64339        -0.56283         4.97338
     2020.64613         4.75647         5.10572
     2020.64887         3.96777         4.87986
     2020.65160         4.12007         4.85075
     2020.65434         0.84037         4.85163
     2020.65708         0.88766         5.03602
     2020.65982         1.68896         4.96985
     2020.66256         6.89826         4.85780
     2020.66529         5.74556         4.85604
     2020.66803         1.84886         4.94162
     2020.67077         9.78715         5.03338
     2020.67351        11.14045         4.90545
     2020.67624         3.50175         4.93103
     2020.67898        -2.17895         4.94162
     2020.68172        -1.97165         4.92839
     2020.68446         7.78464         5.08984
     2020.68720         8.32794         4.94780
     2020.68993         5.10524         4.94515
     2020.69267         5.86554         5.00338
     2020.69541         3.16984         5.07749
     2020.69815         1.01813         4.99015
     2020.70089         8.13543         4.89221
     2020.70362        -0.51827         4.99985
     2020.70636         0.50703         5.43040
     2020.70910         2.56633         5.28218
     2020.71184         3.58062         5.10661
     2020.71457         4.26192         5.00867
     2020.71731         6.09822         4.99279
     2020.72008         1.59162         5.15513
     2020.72279         2.00882         4.88427
     2020.72553         7.63311         5.00603
     2020.72826         6.23241         5.26806
     2020.73100         5.89271         5.07837
     2020.73374         6.21301         4.99632
     2020.73648        -0.27069         4.95309
     2020.73921        -6.28240         4.96809
     2020.74195        -1.53010         4.96456
     2020.74469         3.43520         4.93986
     2020.74743         0.78650         4.91251
     2020.75017         1.81979         4.93897
     2020.75290        -0.56891         4.96103
     2020.75564        -0.05361         4.93103
     2020.75838         5.78369         4.92750
     2020.76112         6.35699         4.87545
     2020.76386         2.44928         4.82075
     2020.76659         4.05058         4.85075
     2020.76933         5.46588         5.04396
     2020.77207         7.23218         4.90457
     2020.77481         1.69748         5.03779
     2020.77754         9.82377         4.88868
     2020.78028         0.07607         5.02103
     2020.78302         4.54537         5.10749
     2020.78576         2.52667         4.91339
     2020.78850        -4.04803         4.91074
     2020.79123         0.43426         5.00073
     2020.79397        -2.17144         4.96103
     2020.79671       -11.81214         5.09161
     2020.79945        -0.85184         5.06514
     2020.80219         4.44046         5.01838
     2020.80492         2.12375         4.96721
     2020.80766        -1.58595         4.99191
     2020.81040        -1.38965         5.04749
     2020.81314         1.75965         4.95662
     2020.81587        -1.66705         4.93633
     2020.81861         4.57224         4.87898
     2020.82135        -1.37446         4.99103
     2020.82409         5.50784         4.92750
     2020.82683         2.63814         4.94691
     2020.82956        -0.73056         5.19836
     2020.83230         3.57273         4.99985
     2020.83504        -4.20797         5.01750
     2020.83778        -0.87867         4.90104
     2020.84052         4.13563         5.02103
     2020.84325         2.53493         5.12690
     2020.84599         4.04822         5.10308
     2020.84873         4.61952         4.83487
     2020.85147        -6.11618         4.86486
     2020.85420         3.53812         4.78546
     2020.85694         7.85742         4.87457
     2020.85968         5.60771         4.87986
     2020.86242        10.62001         4.96632
     2020.86516         6.07831         5.08984
     2020.86789         9.98661         5.09337
     2020.87063        15.54191         4.89486
     2020.87337         9.15520         4.97956
     2020.87611         7.00750         5.03073
     2020.87885         8.13680         5.14013
     2020.88158         5.58310         5.12690
     2020.88432         1.04840         4.87545
     2020.88706         2.42169         5.17366
     2020.88980         1.46499         4.95927
     2020.89253         6.99629         5.03250
     2020.89527         5.99159         5.06602
     2020.89801         8.97489         5.03602
     2020.90075         7.05718         4.89398
     2020.90349         1.91648         4.88780
     2020.90622         6.75578         4.88692
     2020.90896        -0.45192         5.12866
     2020.91170        -1.18062         5.19130
     2020.91444         8.35767         5.02367
     2020.91718        -2.15103         4.90368
     2020.91991        -5.90073         4.87545
     2020.92265        -7.68043         4.92927
     2020.92539        -7.06213         4.95574
     2020.92813        -5.52184         4.85692
     2020.93086        -2.26754         4.92927
     2020.93360        -3.05224         4.96721
     2020.93634        -3.81894         4.92221
     2020.93908        -9.01364         4.90192
     2020.94182        -6.82735         4.87457
     2020.94455        -5.65605         4.87369
     2020.94729        -9.65675         4.86663
     2020.95003        -8.35345         4.94691
     2020.95277       -13.66615         4.86310
     2020.95551        -3.72186         4.88074
     2020.95819        -9.52773         5.17807
     2020.96098        -2.44126         5.10219
     2020.96372        -4.14196         4.84722
     2020.96646        -4.47966         5.03161
     2020.96919        -6.73437         4.99985
     2020.97193        -8.05607         4.87898
     2020.97467        -3.30777         5.15954
     2020.97741       -11.73147         4.95309
     2020.98015        -7.15217         5.04749
     2020.98288        -4.63788         5.00956
     2020.98562        -1.63958         4.82604
     2020.98836         1.02972         4.89839
     2020.99110        -1.08398         4.86222
     2020.99384        -3.23568         4.86486
     2020.99657        -3.01339         4.80575
     2020.99931        -0.40509         4.79693
     2021.00205        -7.04779         4.85075
     2021.00479         4.96951         4.83134
     2021.00752         0.26981         4.83751
     2021.01026         8.85410         4.91780
     2021.01300         2.84940         4.82869
     2021.01574        -4.82030         5.03691
     2021.01848        -7.97800         4.81987
     2021.02121        -6.76170         4.87016
     2021.02395        -8.16641         4.87192
     2021.02669        -0.70211         4.91868
     2021.02943        -8.60281         4.92839
     2021.03216        -0.10351         4.82428
     2021.03490         9.46079         6.44413
     2021.03764        -4.48192         4.86133
     2021.04038        -0.12162         4.86751
     2021.04312        -5.90632         4.84457
     2021.04585         1.57098         4.81722
     2021.04859        -3.96373         4.86486
     2021.05133        -3.47943         4.85428
     2021.05407        -2.09113         5.07749
     2021.05681         1.84717         4.98750
     2021.05954        -5.41153         4.83663
     2021.06228        -3.65224         4.85428
     2021.06502        -2.27894         4.87192
     2021.06776         0.22336         4.84810
     2021.07049        -2.55234         4.82251
     2021.07323         0.68496         4.87633
     2021.07597        -6.23375         4.84722
     2021.07871         0.55055         4.78811
     2021.08145         2.05685         4.79075
     2021.08418       -10.91385         4.87457
     2021.08692       -11.63855         4.84634
     2021.08966       -10.68226         4.79340
     2021.09240        -7.48396         4.84104
     2021.09514        -8.71466         4.90809
     2021.09787       -11.67436         4.98132
     2021.10061       -12.21606         4.90898
     2021.10335        -6.31677         4.92221
     2021.10609        -6.06147         4.78722
     2021.10882        -1.40017         4.84104
     2021.11156        -6.74487         4.80046
     2021.11430        -7.82657         4.89927
     2021.11704        -0.26828         4.81457
     2021.11969       -12.26725         4.98221
     2021.12252       -10.50665         4.96103
     2021.12799        -4.64808         4.84016
     2021.13073        -4.69179         4.80222
     2021.13347        -8.33049         4.89398
     2021.13620        -1.27419         4.89927
     2021.13894        -2.88589         4.79605
     2021.14168        -6.28559         4.88163
     2021.14442        -9.15830         4.83222
     2021.14715        -4.39600         4.90368
     2021.14989        -6.82070         4.80575
     2021.15263        -4.35840         4.93192
     2021.15537        -2.47510         4.96809
     2021.15811        -5.36981         5.00338
     2021.16084        -7.35651         4.91780
     2021.16358         0.57979         4.89574
     2021.16632         5.16009         4.98573
     2021.16906         3.01339         4.80399
     2021.17180        -3.33732         4.82251
     2021.17453        -4.83002         4.98044
     2021.17727        -3.43172         4.92221
     2021.18001        -9.76142         4.93544
     2021.18275        -9.10312         5.06955
     2021.18548        -5.69583         4.77575
     2021.18822        -7.57553         4.70958
     2021.19096        -3.40823         4.74752
     2021.19370        -5.62993         4.86310
     2021.19644        -9.78263         4.80222
     2021.19917        -7.37934         4.86045
     2021.20191        -7.95204         4.87457
     2021.20465        -0.41074         4.79516
     2021.20739        -6.77344         4.83045
     2021.21013        -4.53514         4.99191
     2021.21286        -0.43185         4.96191
     2021.21560        -6.23755         4.83928
     2021.21834        -7.86225         4.91339
     2021.22108        -8.32895         4.80310
     2021.22381        -9.21365         4.79693
     2021.22655        -5.20636         4.82781
     2021.22929        -2.38506         4.78722
     2021.23203        -0.25876         4.84457
     2021.23477       -10.08446         4.83751
     2021.23750        -5.22716         4.81281
     2021.24024        -6.44787         4.88516
     2021.24298        -4.72857         4.80928
     2021.24572        -7.09427         4.74046
     2021.24846        -5.38497         4.95486
     2021.25119        -2.71267         4.78722
     2021.25393        -6.74938         4.96015
     2021.25667        -6.51108         4.84457
     2021.25941        -3.40978         4.74929
     2021.26214        -3.33348         4.87898
     2021.26488        -1.44618         4.83839
     2021.26762        -0.79589         4.99191
     2021.27036        -3.54559         5.23983
     2021.27310         1.35971         4.80840
     2021.27583        -3.94099         4.83134
     2021.27857        -7.08169         4.91074
     2021.28131        -5.62140         4.88780
     2021.28405        -4.09010         4.85869
     2021.28679        -2.30780         4.88339
     2021.28952        -2.64950         4.93986
     2021.29226        -6.24820         4.89133
     2021.29500        -2.15291         4.95133
     2021.29774        -6.27561         5.09337
     2021.30047        -0.79231         5.05455
     2021.30321         0.09899         4.92221
     2021.30595         1.37729         5.09778
     2021.30869         4.61558         5.07132
     2021.31143         0.03688         4.86398
     2021.31416         1.30118         4.90015
     2021.31690         0.19448         4.83575
     2021.32021         5.18950         6.84557
     2021.32295         0.54580         6.77058
     2021.32569        -5.08990         6.50589
     2021.32842        -4.50460         6.44237
     2021.33116        12.23470         6.39032
     2021.33390         3.81999         6.36032
     2021.33664         5.42529         6.40443
     2021.33937         1.94959         6.40090
     2021.34211         0.24589         6.41237
     2021.34485        -2.50181         6.92321
     2021.34759        -5.15352         6.34091
     2021.35033         4.99378         6.76440
     2021.35306        -3.06592         6.47590
     2021.35580        -7.33262         6.42472
     2021.35854        -6.76332         6.51119
     2021.36128        -6.13603         6.51295
     2021.36402        -7.55673         6.40090
     2021.36653       -11.13212         5.74714
     2021.36892       -14.39186         4.84634
     2021.37166        -3.98256         4.94250
     2021.37440        -3.49627         4.93280
     2021.37770         2.90776         6.41943
     2021.38044         3.74406         6.59412
     2021.38318        -2.54964         6.96468
     2021.38592        -5.67634         6.80146
     2021.38866        -6.92105         6.61530
     2021.39413        -0.13545         6.46619
     2021.39687        -4.40615         6.53677
     2021.39938        -5.16255         5.80449
     2021.40177        -6.20929         5.09249
     2021.40451        -1.06399         5.03514
     2021.40782        -0.54996         6.45031
     2021.41056         3.92934         6.51031
     2021.41330        -4.64836         6.69823
     2021.41603        -5.62107         6.49707
     2021.41877        -6.10577         6.50501
     2021.42151         3.71553         6.50766
     2021.42425         1.62283         6.76528
     2021.42699         2.29413         6.63206
     2021.42972         6.24642         6.48207
     2021.43246        14.30172         6.40708
     2021.43520        -4.41898         6.48207
     2021.43794         1.75332         6.64970
     2021.44068        -0.38538         6.62500
     2021.44341        -8.43909         6.69647
     2021.44615         0.00621         6.41767
     2021.44889        -7.04249         6.42825
     2021.45163        -2.34319         6.94262
     2021.45436        -1.47989         6.68058
     2021.45710         2.07640         6.53501
     2021.45984         0.21670         6.40973
     2021.46258        -2.37800         6.43796
     2021.46527         1.47917         6.54471
     2021.46805        -0.64641         6.38326
     2021.47079        -0.06711         6.34973
     2021.47353        -7.47181         6.41061
     2021.47627       -13.43551         6.66911
     2021.47901         1.30079         6.36914
     2021.48174        -1.87392         6.44237
     2021.48448        -5.64962         6.43708
     2021.48722       -13.10532         6.46354
     2021.48996        -8.44502         6.48737
     2021.49269        -1.42172         6.61088
     2021.49520        -1.15212         5.89624
     2021.49817        -6.87013         6.65059
     2021.50091        -6.06083         6.53060
     2021.50365        -2.73853         6.43531
     2021.50638        -8.80823         6.41767
     2021.50912        -4.23194         6.61794
     2021.51186        -1.22264         6.75470
     2021.51458        -0.98138         6.84204
     2021.51733         2.95596         6.50501
     2021.52007         2.43126         6.54295
     2021.52281        -2.90645         6.49619
     2021.52555         5.20885         6.39826
     2021.52829        -3.46685         6.36561
     2021.53102        -0.10055         6.41590
     2021.53376         5.71175         6.46796
     2021.53650        -7.21196         6.86057
     2021.53924         9.14334         6.75028
     2021.54198         5.51664         6.37355
     2021.54471        -6.91606         6.49001
     2021.54745         7.65824         6.51031
     2021.55019         2.54653         6.57648
     2021.55293         5.39483         6.52530
     2021.55566        10.39913         6.60206
     2021.55840         9.66943         6.53148
     2021.56114         6.51673         6.49090
     2021.56388         5.80102         6.53854
     2021.56605        -0.04441         4.91074
     2021.56878         3.23089         4.86486
     2021.57152        -0.88781         4.89751
     2021.57426        -6.93851         4.85604
     2021.57700         5.23679         5.32982
     2021.57974        -0.07392         4.93015
     2021.58247        -2.80262         4.86133
     2021.58521        -3.53332         4.92309
     2021.58795       -10.24102         4.95927
     2021.59069        -4.91172         4.98397
     2021.59342        -3.49743         5.02897
     2021.59616         1.94487         5.07926
     2021.59890         5.24517         4.99985
     2021.60164         3.06747         5.03338
     2021.60438        -0.74023         4.96103
     2021.60711         4.94306         4.99720
     2021.60985         2.41436         4.90368
     2021.61259         3.50066         4.93986
     2021.61533         0.75296         4.93633
     2021.61807        -3.31474         4.99015
     2021.62080         2.08755         5.03338
     2021.62354         9.09885         4.96985
     2021.62628         3.17215         4.96721
     2021.62902         6.14645         4.86927
     2021.63175         5.01075         4.98044
     2021.63449         1.59204         5.08014
     2021.63723         2.92134         5.19925
     2021.63997         6.42764         4.99456
     2021.64271         4.72394         4.93721
     2021.64544         2.55224         4.86927
     2021.64818         2.76253         4.88957
     2021.65092         4.36283         5.03073
     2021.65366         1.12913         4.86575
     2021.65639         2.82843         4.86663
     2021.65913         4.75273         4.87898
     2021.66187         7.70402         4.96368
     2021.66461         2.90832         4.88692
     2021.66735         3.45862         4.86398
     2021.67008        -0.50708         4.93986
     2021.67282         8.52521         5.09425
     2021.67556        10.04751         5.29718
     2021.67830         4.27281         5.10837
     2021.68104         5.41811         4.89486
     2021.68377         7.26841         4.88074
     2021.68651         2.63570         4.89839
     2021.68925         8.86400         4.90633
     2021.69199         6.83430         5.03338
     2021.69472         5.92860         4.90633
     2021.69746        -0.25610         5.09514
     2021.70020         6.15019         4.89486
     2021.70294        -1.69651         5.02103
     2021.70568         7.30679         5.10131
     2021.70841         8.52109         4.99809
     2021.71115         8.26339         5.00426
     2021.71389         5.26268         5.18778
     2021.71663         3.85898         4.95927
     2021.71937         2.89028         5.09690
     2021.72210         2.47558         5.03691
     2021.72484         4.38688         5.05896
     2021.72758         3.24117         4.98838
     2021.73032        -4.49953         5.25571
     2021.73305         6.88777         5.00073
     2021.73579        16.24707         5.26983
     2021.73855         9.18142         5.19925
     2021.74127         8.01466         4.98397
     2021.74401        -0.53704         5.01220
     2021.74674        11.76726         5.13660
     2021.74948         4.26956         6.00829
     2021.75222         5.01286         5.06955
     2021.75496        10.45415         5.01397
     2021.75706         9.57852         6.85527
     2021.76043        19.27075         5.41099
     2021.76317         2.44605         5.05896
     2021.76591         1.93535         5.07396
     2021.76865        -0.68136         5.03514
     2021.77138         1.95994         5.08455
     2021.77412         7.34624         5.10837
     2021.77686         4.71154         5.01044
     2021.77960         5.54784         5.00073
     2021.78234         5.12513         4.96985
     2021.78507        11.26343         4.99015
     2021.78781         5.18373         4.91162
     2021.79055         7.25903         4.97515
     2021.79329         6.97733         5.01661
     2021.79603         2.17462         5.02985
     2021.79876         5.80992         5.01309
     2021.80150        11.96322         5.19748
     2021.80424         4.95052         5.27600
     2021.80698        -3.48518         5.12602
     2021.80971         8.02811         5.08190
     2021.81245        10.49941         5.21689
     2021.81519        15.52971         5.05279
     2021.81793         8.96201         5.00338
     2021.82067         5.13831         5.08543
     2021.82340         6.01660         5.10131
     2021.82614         0.92990         5.07837
     2021.82888         8.35220         5.02632
     2021.83162         9.44150         4.96985
     2021.83436         9.60080         5.08631
     2021.83709         2.98609         5.06602
     2021.83983        -5.60961         5.38452
     2021.84257         3.33569         5.19572
     2021.84531         1.54999         5.23012
     2021.84804         6.43029         5.03779
     2021.85078         9.86258         4.97779
     2021.85352         7.98188         5.06867
     2021.85626         3.68818         5.06514
     2021.85900         2.29648         4.97338
     2021.86447        -3.03593         5.22924
     2021.86721        -8.54663         5.34129
     2021.86995         2.92367         5.34394
     2021.87269         0.82397         5.20366
     2021.87542         4.42627         5.11719
     2021.87816         2.90956         4.90192
     2021.88090         4.81286         4.89486
     2021.88364         7.60816         5.02985
     2021.88637        -2.70054         5.05367
     2021.88911        -0.16724         5.04573
     2021.89185         1.38905         5.10043
     2021.89459         4.64335         4.93897
     2021.89733         1.38165         4.98309
     2021.90006        -3.85405         5.01309
     2021.90280        -7.09275         5.08896
     2021.90554         1.06454         4.99368
     2021.90828         4.76884         5.02014
     2021.91102         0.15014         4.98044
     2021.91375        -0.23056         4.97515
     2021.91649         2.22674         5.06867
     2021.91923         9.61203         5.16395
     2021.92197        -1.32667         5.22836
     2021.92470        -2.44437         5.08278
     2021.92744         6.48793         5.02632
     2021.93018        -0.43777         5.13749
     2021.93292         6.44052         5.18778
     2021.93566        18.80882         5.26277
     2021.93839         5.92412         5.16484
     2021.94113         7.69942         5.25659
     2021.94387        17.10172         5.07926
     2021.94661         4.70701         5.11278
     2021.94935        15.91431         5.09425
     2021.95208        11.63561         5.07573
     2021.95482        13.76691         5.07220
     2021.95756         9.40521         5.05808
     2021.96030         2.15050         5.07661
     2021.96303        -0.31420         5.11102
     2021.96577         6.17410         5.15425
     2021.96851         8.09540         5.08984
     2021.97125         9.08569         5.07926
     2021.97399        10.43899         5.06426
     2021.97672        11.01329         5.19130
     2021.97946        12.73559         5.17984
     2021.98220        22.81189         5.34129
     2022.00684         0.00057         5.10749
     2022.00958         0.06987         5.14013
     2022.01232       -11.33284         5.15690
     2022.01779         6.81476         5.13219
     2022.01990        11.74314         7.38729
     2022.02345        -4.39408         5.88213
     2022.02600        -4.99035         5.19395
     2022.02874        -6.51905         5.18425
     2022.03148        -8.92575         5.04838
     2022.03422         0.91155         5.15513
     2022.03696        -3.69315         5.08014
     2022.03969        -9.91086         5.42246
     2022.04243        -1.25756         5.10484
     2022.04517        -5.60026         5.10925
     2022.04791        -4.90996         5.03426
     2022.05065        -5.14266         5.09161
     2022.05338        -1.88837         5.15072
     2022.05612        -6.12907         5.11896
     2022.05886       -13.17977         5.02367
     2022.06160        -6.55847         5.06073
     2022.06433         6.23283         5.09337
     2022.06707        -3.99388         5.05455
     2022.06981         4.73542         5.10661
     2022.07255       -12.15028         4.94868
     2022.07529        -2.61098         4.97515
     2022.07802         3.73132         4.96191
     2022.08076         5.91361         4.99279
     2022.08350         1.91391         5.08896
     2022.08624        -4.99779         5.42687
     2022.08898        -3.29349         5.31747
     2022.09171        -8.18019         5.06690
     2022.09445        -3.90290         5.02014
     2022.09719        -2.06560         4.96456
     2022.09993        -8.21330         5.13484
     2022.10266        -4.88400         5.15425
     2022.10540        -2.23670         4.96809
     2022.10814         6.27659         4.92486
     2022.11088         3.95789         5.05985
     2022.11362         0.90019         4.94956
     2022.11635         0.07249         4.92309
     2022.11909         0.62179         4.95838
     2022.12183         4.19008         4.99103
     2022.12457         5.18038         5.10308
     2022.12731         3.28868         4.90721
     2022.13004        -3.98002         4.94427
     2022.13278        -7.01072         4.96544
     2022.13552        -0.73943         5.00867
     2022.13826         7.77087         4.95133
     2022.14373        -9.91153         4.92839
     2022.14647         0.36477         4.91603
     2022.14921        -0.41294         5.11366
     2022.15195         0.48736         5.11808
     2022.15468         3.30966         4.95044
     2022.15742         1.88796         4.98221
     2022.16016        -2.85474         4.97250
     2022.16290        -3.08345         4.96103
     2022.16564        -5.94715         5.01397
     2022.16837        -5.96485         5.14984
     2022.17111        -0.84555         4.94691
     2022.17385         1.87775         4.97515
     2022.17659        -2.53596         4.97427
     2022.17932        -9.23366         5.00250
     2022.18206        -5.40236         4.96280
     2022.18480        -2.08806         4.94956
     2022.18754         2.10624         5.02279
     2022.19028        -3.20847         4.97868
     2022.19301         5.38583         5.02897
     2022.19575         9.12813         5.03161
     2022.19849         0.31443         5.03691
     2022.20123        -1.76427         5.02632
     2022.20397         5.67502         4.97691
     2022.20670        -0.79568         5.07749
     2022.20944        -0.84238         5.12249
     2022.21218        -1.24408         4.99368
     2022.21492        -1.02678         5.02808
     2022.21765       -10.37349         4.99191
     2022.22039        -6.10619         4.96544
     2022.22313       -10.47389         5.02720
     2022.22587       -10.07059         5.11631
     2022.22861         2.43071         5.00779
     2022.23134        -1.46100         4.98132
     2022.23408         2.05630         5.01044
     2022.23682        -0.28440         5.24953
     2022.23956         0.64990         5.00338
     2022.24230        -2.74180         5.48334
     2022.24504         6.44151         7.04320
     2022.24777         9.21678         5.61833
     2022.25051        -4.79791         5.61303
     2022.25325         2.80339         5.17366
     2022.25598         4.50369         5.05808
     2022.25872         3.02698         4.98926
     2022.26146        -1.58272         5.00162
     2022.26420        -1.35642         5.01044
     2022.26694       -10.59512         5.33512
     2022.26967        -5.59182         5.06955
     2022.27241         7.96247         4.98132
     2022.27515         3.09777         5.47981
     2022.27789         3.01207         5.03073
     2022.28062        -2.35263         5.04396
     2022.28336         2.95466         5.09337
     2022.28610         1.53996         5.09778
     2022.28884        -0.22274         5.11102
     2022.29158        -5.73344         5.01132
     2022.29431        -3.66114         5.00338
     2022.29705        -7.15785         4.99544
     2022.29979         5.41545         4.95927
     2022.30253        -1.43425         5.13925
     2022.30527         0.89605         5.07220
     2022.30800        -6.13265         4.95838
     2022.31074        -5.40636         4.95486
     2022.31348        -5.95706         5.02544
     2022.31622        -6.13676         4.99279
     2022.31895       -15.23546         5.13572
     2022.32169        -1.10716         5.14719
     2022.32443        -0.29787         5.06514
     2022.32717        -9.70357         5.02367
     2022.32991        -6.11327         5.00338
     2022.33264       -14.16597         5.16131
     2022.33538        -9.14467         5.14102
     2022.33812        -9.83438         5.18248
     2022.34086        -6.85308         5.03779
     2022.34360        -1.28378         4.96191
     2022.34633        -0.21148         5.00250
     2022.34907        -3.29818         4.98573
     2022.35181         0.82311         4.98926
     2022.35455         0.17641         4.98750
     2022.35728        -4.08429         4.97956
     2022.36002        -3.06899         4.97250
     2022.36276        -5.04469         5.02191
     2022.36550        -3.67840         5.02455
     2022.36824        -3.61010         5.09161
     2022.37097       -12.58380         5.03602
     2022.37371       -12.16950         5.00250
     2022.37645        -2.14320         5.01485
     2022.37919         1.93109         5.20013
     2022.38193       -10.32761         5.10572
     2022.38466        -9.93331         4.94250
     2022.38740       -21.07301         5.11808
     2022.39014        -5.63771         4.99368
     2022.39288        -5.75942         5.00603
     2022.39561        -4.95512         4.95486
     2022.39835        -3.76382         5.05720
     2022.40109        -6.33852         5.08720
     2022.40383        -0.76622         4.91339
     2022.40657        -9.17393         5.04044
     2022.40930       -10.98563         5.02808
     2022.41204        -1.57433         5.02544
     2022.41478        -4.67303         4.95574
     2022.41752        -7.44273         5.03955
     2022.42026       -12.77644         5.11366
     2022.42299         3.27586         4.98044
     2022.42573       -11.34184         5.17366
     2022.42847       -10.62954         4.90368
     2022.43121        -5.77024         5.06426
     2022.43394        -0.11595         5.12160
     2022.43668        -8.94765         4.92133
     2022.43942        -0.84435         4.98662
     2022.44216        -2.89705         5.04308
     2022.44490         4.34125         5.05014
     2022.44763         6.54554         4.95044
     2022.45037        -4.23116         4.91074
     2022.45311        -7.19386         4.92750
     2022.45585        -2.81356         4.99897
     2022.45859       -18.07026         4.97250
     2022.46132        -7.71697         4.89574
     2022.46406        -9.31467         4.93368
     2022.46680        -4.99637         4.91339
     2022.46954        -4.33507         4.97074
     2022.47227       -16.36677         4.96456
     2022.47501         6.58952         5.04044
     2022.47775        -5.76618         5.04573
     2022.48049        -4.71188         4.97074
     2022.48323         4.86542         4.97956
     2022.48596        10.13372         4.92398
     2022.48870        -6.50599         5.01573
     2022.49144        -7.34169         4.87721
     2022.49418        -0.36039         5.03338
     2022.49692        -4.40909         4.92927
     2022.49965        -9.88379         5.05896
     2022.50239       -14.24250         5.04044
     2022.50513        -4.29720         5.17278
     2022.50787         8.61610         5.21424
     2022.51060        -4.55760         5.08984
     2022.51334        -5.95130         5.00691
     2022.51608        -9.70501         4.94250
     2022.51882       -10.78771         4.98221
     2022.52156        -5.44741         5.00338
     2022.52429        -4.18211         4.96544
     2022.52703        -5.41881         5.01044
     2022.52977         4.52048         5.06426
     2022.53251        -2.94322         5.01573
     2022.53525         3.85308         5.22307
     2022.53798        -3.69962         4.93809
     2022.54072        -5.86932         4.88957
     2022.54347        -0.37000         4.93809
     2022.54620        -4.56973         5.14631
     2022.54893         2.18257         4.97427
     2022.55167         5.42287         4.98221
     2022.55441         2.79317         5.07396
     2022.55715         9.39646         4.94956
     2022.55989        -0.32824         4.89398
     2022.56262        -2.55194         5.06602
     2022.56536       -18.52664         5.00691
     2022.56810         0.60266         4.96721
     2022.57084        -3.29705         4.97338
     2022.57357         5.36025         5.02103
     2022.57631       -10.21545         4.92750
     2022.57905       -12.44015         5.05455
     2022.58179        11.26615         4.99279
     2022.58453         3.18444         5.20719
     2022.58726        -4.07626         4.93897
     2022.59000         8.38004         4.93456
     2022.59274        -6.86266         4.90192
     2022.59551         0.27972         4.97691
     2022.59822        -8.86607         4.97779
     2022.60095       -14.10177         5.01573
     2022.60369        -0.06447         4.97162
     2022.60643         6.26183         5.01926
     2022.60917        -0.44288         5.10396
     2022.61190         7.10542         5.07749
     2022.61464         5.90972         5.05720
     2022.61738         4.48302         4.86751
     2022.62012         1.87732         4.87192
     2022.62286         1.22261         5.03338
     2022.62559        -2.08609         4.88427
     2022.62833         0.10521         4.98132
     2022.63107        -2.39849         4.95927
     2022.63381         8.83581         4.88692
     2022.63655         5.77510         4.98309
     2022.63928         5.89040         4.92574
     2022.64202         0.23970         5.27600
     2022.64476         5.33900         5.22042
     2022.64750         2.38030         5.03602
     2022.65023         9.33259         5.13749
     2022.65297        13.50289         5.08984
     2022.65571        13.05319         5.03161
     2022.65845         7.96049         5.08102
     2022.66119         6.82379         4.91603
     2022.66392         8.77108         4.95927
     2022.66666         9.86138         4.96456
     2022.66940         6.59368         4.93192
     2022.67214         9.60598         4.89398
     2022.67488        12.09028         4.91780
     2022.67761        11.48657         4.89133
     2022.68035         8.15487         4.86133
     2022.68309        12.29417         4.94780
     2022.68583        11.12747         5.13572
     2022.68856         5.91277         5.04573
     2022.69130        10.58406         4.95044
     2022.69404         8.34036         5.25924
     2022.69678        17.65366         5.04838
     2022.69952         3.53996         4.97162
     2022.70225        13.46626         5.05896
     2022.70499         7.89455         5.00073
     2022.70773         9.12785         4.88780
     2022.71047        11.71215         4.80752
     2022.71321        12.75945         4.85251
     2022.71868         6.86004         4.80575
     2022.72142         9.81234         4.82340
     2022.72416         6.40964         4.95838
     2022.72689        13.28294         4.95309
     2022.72963        12.10022         4.99279
     2022.73238         4.34758         4.92045
     2022.73511         5.61783         4.83310
     2022.73785         4.69113         4.93368
     2022.74058        12.90243         5.26983
     2022.74332        12.68173         5.32541
     2022.74606        10.22902         4.95486
     2022.74880         7.97132         4.83398
