# ================= DQRFIT RESULTS ================
# INPUT FILE: series/SMTH.rad
# OUTPUT: LDETRENDED
# FILTER FUNCTION: f(t)
# f(t)=+line(t)+annual(t)
# line(t)=+P 1+P 2*t
# annual(t)=+P 3*sin(2*pi*t+P 4)
# heav(t)=(t<0?0:1)
# TOTAL OBSERVATIONS MTOT= 2137
# INITIAL TIME INTERVAL= 2022.7488 - 2016.7721 =  5.9767
# TOTAL OBSERVATIONS AFTER PREFILTER M= 2132
# TIME-SPAN= 2022.7488 - 2016.7721 =  5.9767
# OBSERVATIONS: USED M=  2132 REJECTED MTOT-M=     5 %USED=   99.7660
# N=  4 PARAMETERS
# MAXSIG= 175.00000
# MAXRES=  26.51622
# SCALE FACTOR FOR LENGTHS: SCL=  10.00000
# SCALE FACTOR FOR SIGMAS: SCLSIG=   1.00000
# CHI^2=   3000.386 DOF=  2128 CHI^2/DOF=   1.40996
# RMS=      6.441 SDEV=      6.442 MEAN=    0.00694
#  P #       PARAMETER +-    SIGMA %error PARAMETER NAME
# P 1 =     -5457.85837 +-  164.122   3.01 YZERO                              
# P 2 =         2.71093 +-    0.081   3.00 SLOPE                              
# P 3 =         7.56418 +-    0.198   2.62 ANNUAL AMPLITUDE                   
# P 4 =        -2.97720 +-    0.036   1.23 ANNUAL PHASE                       
#       T            LDETRENDED       SIG_OBS
     2016.77207         6.81588         6.49160
     2016.77481         4.92646         6.52960
     2016.77754         4.12504         6.41798
     2016.78028         8.54961         6.37286
     2016.78302         3.80419         6.57709
     2016.78576        10.41477         6.49635
     2016.78850        12.39035         6.46548
     2016.79123        11.71993         6.38711
     2016.79397        14.37950         6.32774
     2016.79671        10.14508         6.29686
     2016.79945         7.00966         6.34199
     2016.80219         6.11424         6.45123
     2016.80492        -4.11118         6.46192
     2016.80766        10.80439         6.37405
     2016.81040         2.75997         6.33130
     2016.81314         5.13355         6.32655
     2016.81587         3.71413         6.40848
     2016.81861         3.30670         6.38117
     2016.82135         9.35728         6.38592
     2016.82409         7.09486         6.36455
     2016.82683         4.56844         6.36930
     2016.82956         4.14502         6.28855
     2016.83230         4.22959         6.34317
     2016.83504         3.99717         6.32655
     2016.83778         8.53075         6.46548
     2016.84052        -2.00167         6.55453
     2016.84325         6.51691         6.40373
     2016.84599         2.16848         6.41798
     2016.84873        12.48006         6.37048
     2016.85147         7.52164         6.39423
     2016.85420         6.03422         6.44529
     2016.85694         7.44280         6.47379
     2016.85968        -6.26263         6.57591
     2016.86242        -0.37405         6.40729
     2016.86516         8.81453         6.43104
     2016.86789         0.65211         6.45717
     2016.87063        -1.02532         6.46429
     2016.87337         6.91526         6.40373
     2016.87611         4.59784         6.39305
     2016.87885         3.93542         6.34555
     2016.88158        -0.80000         6.39542
     2016.88432         0.45757         6.63765
     2016.88706         7.44515         6.48210
     2016.88980         7.78473         6.46310
     2016.89253         8.68431         6.41917
     2016.89527         8.10989         6.32180
     2016.89801         3.77846         6.40611
     2016.90075        -0.31096         6.44054
     2016.90349         2.18762         6.72315
     2016.90622         4.86420         6.49635
     2016.90896         7.30178         6.28855
     2016.91170         6.48635         6.39305
     2016.91444         7.46693         6.41442
     2016.91718         4.09151         6.69702
     2016.91991        -7.90291         6.74215
     2016.92265       -12.53234         6.43935
     2016.92539         2.43524         6.33011
     2016.92813        -5.51718         6.45360
     2016.93086        -5.06260         6.40254
     2016.93360        -6.14402         6.41323
     2016.93634        -5.07845         6.43817
     2016.93908        -7.03187         6.40729
     2016.94182        -1.78729         6.32655
     2016.94455        -5.44071         6.29330
     2016.94729        -4.69413         6.34317
     2016.95003        -7.02756         6.33130
     2016.95277        -6.38898         6.27905
     2016.95551        -6.92240         6.41679
     2016.95824        -4.08582         6.32774
     2016.96098         1.27375         6.30518
     2016.96372        -9.39767         6.40848
     2016.96646        -0.09309         6.32774
     2016.96919         6.61549         6.33011
     2016.97193        -6.08393         6.28262
     2016.97467         6.19164         6.45835
     2016.97741         5.58122         6.30636
     2016.98015        -0.08420         6.31468
     2016.98288        -3.04662         6.21731
     2016.98562        -1.19004         6.19712
     2016.98836        -0.24247         6.42748
     2016.99110        17.39111         6.30755
     2016.99384         4.60969         6.27787
     2016.99657        -0.58973         6.28618
     2016.99931        -2.78715         6.28855
     2017.00205        -5.33358         6.22443
     2017.00479        -8.78400         6.27668
     2017.00752       -11.79442         6.37998
     2017.01026       -11.80284         6.28737
     2017.01300        -3.62327         6.31111
     2017.01574        -3.69869         6.30043
     2017.01848        -7.08211         6.19356
     2017.02121        -9.47453         6.19237
     2017.02395        -8.82195         6.26124
     2017.02669        -9.40338         6.33367
     2017.02943        -6.71480         6.37761
     2017.03216        -3.96722         6.29924
     2017.03490        -7.37664         6.33605
     2017.03764       -17.06506         6.28855
     2017.04038        -3.36049         6.22206
     2017.04312        -5.75291         6.33011
     2017.04585        11.08767         6.48566
     2017.04859        15.05825         6.54266
     2017.05133        21.96783         6.37998
     2017.05407        17.15040         6.53910
     2017.05681        10.92898         6.30874
     2017.05954         1.14556         6.22324
     2017.06228         1.18314         6.32536
     2017.06502        -1.05929         6.23037
     2017.06776        -3.26471         6.22324
     2017.07049         0.83887         6.23631
     2017.07323        -9.39655         6.38592
     2017.07597        -8.42697         6.26599
     2017.07871         0.06860         6.33249
     2017.08145        -0.62782         6.37523
     2017.08418       -13.05024         6.21612
     2017.08692       -11.70666         6.40729
     2017.08966       -12.46608         6.21731
     2017.09240        -8.88451         6.42392
     2017.09514        -3.07493         6.22206
     2017.09787       -11.49735         6.18643
     2017.10061        -3.62177         6.26718
     2017.10335       -10.93319         6.37998
     2017.10609        -9.24562         6.21731
     2017.10882         0.72296         6.30518
     2017.11156         0.08654         6.23749
     2017.11430       -21.92388         6.26480
     2017.11704        -8.20031         6.52247
     2017.11978       -19.14573         6.23037
     2017.12251        -5.15515         6.30518
     2017.12525         3.02143         6.28499
     2017.12799         8.74001         6.24343
     2017.13073        12.91458         6.43698
     2017.13347         3.00916         6.28974
     2017.13620         3.44974         6.27312
     2017.13894         0.76932         6.30161
     2017.14168        -3.43810         6.30636
     2017.14442        -5.91453         6.34436
     2017.14715       -10.09695         6.43460
     2017.14989        -7.23737         6.31111
     2017.15263        -0.53779         6.34436
     2017.15537        -0.60721         6.33842
     2017.15811        -0.45664         6.41442
     2017.16084        -2.15806         6.23156
     2017.16358       -17.98148         6.29568
     2017.16632        -9.70090         6.34911
     2017.16906        -8.58633         6.51179
     2017.17180        -2.29275         6.37523
     2017.17453        -2.57517         6.19712
     2017.17727        -1.03059         6.34199
     2017.18001        -1.78201         6.28262
     2017.18275        -1.62344         6.30399
     2017.18548        -8.63186         6.23393
     2017.18822        -9.44728         6.34317
     2017.19096        -9.69770         6.25174
     2017.19370        -9.49412         6.21850
     2017.19644       -12.92955         6.38948
     2017.19917        -4.22197         6.28024
     2017.20191        -6.94539         6.32418
     2017.20465        -6.55581         6.36811
     2017.20739        -0.83923         6.31824
     2017.21013         3.64034         6.32655
     2017.21286        -1.11608         6.26243
     2017.21560        -8.46650         6.24937
     2017.21834        -3.41092         6.37286
     2017.22108        -0.02935         6.24581
     2017.22381        -0.56177         6.41798
     2017.22655         0.43781         6.52366
     2017.22929        -3.71661         6.36930
     2017.23203        -4.84303         6.40492
     2017.23477        -3.88846         6.71483
     2017.23750        -4.98788         6.37523
     2017.24024        -4.67630         6.24462
     2017.24298        -7.42172         6.35267
     2017.24572        -8.76914         6.53554
     2017.24846       -28.75657         6.34436
     2017.25119        -4.83199         6.35624
     2017.25393       -12.11741         6.26480
     2017.25667        -8.33283         6.41086
     2017.25941       -11.94626         6.29686
     2017.26214        -6.58568         6.35386
     2017.26488        -1.09510         6.37048
     2017.26762         2.54048         6.37167
     2017.27036        -1.62394         6.33605
     2017.27310        -7.59537         6.29924
     2017.27583       -11.83979         6.27430
     2017.27857        -7.67421         6.27312
     2017.28131        -9.83563         6.27312
     2017.28405        -9.78205         6.29330
     2017.28679       -10.57648         6.21612
     2017.28952       -10.31790         6.26599
     2017.29226        -7.77932         6.27549
     2017.29500        -7.16674         6.31349
     2017.29774        -5.90616         6.26718
     2017.30047        -9.19259         6.40492
     2017.30321        -7.40501         6.23987
     2017.30595        -8.69043         6.33724
     2017.30869        -9.58085         6.27312
     2017.31143        -5.20228         6.23749
     2017.31416        -8.15470         6.22918
     2017.31690         0.77688         6.23156
     2017.31964        -4.17354         6.35980
     2017.32238        -9.68496         6.36217
     2017.32512       -11.18339         6.37523
     2017.32785        -4.65381         6.31111
     2017.33059        -9.51223         6.32892
     2017.33333        -9.46665         6.22799
     2017.33607       -21.52307         6.40848
     2017.33880       -13.32450         6.36930
     2017.34154        -2.37092         6.43579
     2017.34428        -2.51334         6.48566
     2017.34702       -10.45276         6.26005
     2017.34976        -1.74118         6.30874
     2017.35249        -9.45861         6.49279
     2017.35523        -8.48803         6.23987
     2017.35797        -6.99945         6.22324
     2017.36071        -4.30587         6.22799
     2017.36344        -4.41530         6.25530
     2017.36618        -6.17672         6.23393
     2017.36892        -0.78514         6.34911
     2017.37166        -3.26856         6.26955
     2017.37440        -4.69498         6.30161
     2017.37713         0.07759         6.33605
     2017.37987       -10.07983         6.40017
     2017.38261        -6.06925         6.28143
     2017.38535         2.95833         6.31943
     2017.38809        -6.83609         6.32892
     2017.39082       -10.04152         6.36336
     2017.39356         2.11106         6.30636
     2017.39630        -1.92536         6.31349
     2017.39904        -6.35078         6.24462
     2017.40177        -5.16320         6.30755
     2017.40451        -1.78363         7.15062
     2017.40725         1.49695         6.49279
     2017.40999         3.33653         6.24224
     2017.41273         1.61011         6.27668
     2017.41546        -6.09332         6.29568
     2017.41820        -1.34074         6.40492
     2017.42094         0.80684         6.35030
     2017.42368        -3.42558         6.22443
     2017.42642        -1.60400         6.19593
     2017.42915        -1.37743         6.29449
     2017.43189        -1.57985         6.41561
     2017.43463         4.01373         6.28499
     2017.43737         4.66831         6.33011
     2017.44010        -2.27511         6.20068
     2017.44284         2.17046         6.35386
     2017.44558         5.03504         6.47498
     2017.44832        -1.08838         6.30518
     2017.45106         3.15420         6.29449
     2017.45379         5.06478         6.36098
     2017.45653         8.27435         6.61628
     2017.45927        -2.23807         6.28262
     2017.46201         1.99351         6.34792
     2017.46475        -0.85791         6.34436
     2017.46748        12.59766         6.47141
     2017.47022         4.09324         6.38236
     2017.47296        -5.45218         6.32655
     2017.47570        -4.38660         6.39661
     2017.47843        -3.94202         6.42273
     2017.48117        -4.19845         6.42036
     2017.48391         5.62313         6.32299
     2017.48665         3.65771         6.28737
     2017.48939         1.91729         6.27905
     2017.49212         6.98787         6.40848
     2017.49486         0.73044         6.52960
     2017.49760         3.33502         6.51772
     2017.50034         7.19160         6.48091
     2017.50308         5.54918         6.30993
     2017.50581        -3.26425         6.26480
     2017.50855        -0.48667         6.28024
     2017.51129        -3.44809         6.33605
     2017.51403         1.79449         6.35386
     2017.51676        -0.77393         6.38117
     2017.51950         4.59264         6.52960
     2017.52224         6.97622         6.25887
     2017.52498        -0.62020         6.27905
     2017.52772        -1.16662         6.54503
     2017.53045         5.67296         6.33842
     2017.53319         0.06653         6.29568
     2017.53593         2.29611         6.28499
     2017.53867         9.96469         6.68040
     2017.54141         5.38727         6.28380
     2017.54414         4.22285         6.23987
     2017.54688         1.80642         6.38711
     2017.54962         0.98700         6.36573
     2017.55236         3.66858         6.62697
     2017.55509        11.79916         6.46904
     2017.55783         4.64373         6.38355
     2017.56057        -2.94369         6.32536
     2017.56331        -0.33011         6.40017
     2017.56605         8.69047         6.59016
     2017.56878         5.37705         6.35505
     2017.57152         4.61262         6.34317
     2017.57426        -2.37280         6.91907
     2017.57700        -4.78822         6.51891
     2017.57974        -1.28664         6.33724
     2017.58247        -1.54306         6.36811
     2017.58521        -3.08149         6.53672
     2017.58795        -2.82591         6.56403
     2017.59069        -3.29733         6.52247
     2017.59342        -3.23875         6.23987
     2017.59616         0.44283         6.34792
     2017.59890         0.64940         6.26718
     2017.60164         0.05198         6.38117
     2017.60438         0.39156         6.32061
     2017.60711         0.17014         6.34555
     2017.60985        -1.48729         6.54385
     2017.61259         3.22629         6.39186
     2017.61533         1.09287         6.38830
     2017.61807         6.22145         6.41086
     2017.62080         3.63503         6.39423
     2017.62354        -3.80640         6.51179
     2017.62628         7.26918         6.47260
     2017.62902        -4.29624         6.64715
     2017.63175         6.95834         6.41679
     2017.63449         2.12892         6.24106
     2017.63723        -1.10951         6.47854
     2017.63997         0.09307         6.54385
     2017.64271         2.99765         6.40017
     2017.64544         6.75523         6.41561
     2017.64818         2.32881         6.47023
     2017.65092        -8.69962         6.48210
     2017.65366        -1.39804         6.37167
     2017.65639         5.38954         6.37286
     2017.65913         6.99612         6.30636
     2017.66187         6.22169         6.51297
     2017.66461        18.71627         6.60915
     2017.66735        -7.63515         6.57116
     2017.67008         4.77143         6.32061
     2017.67282         5.16201         6.55097
     2017.67556         4.22258         6.38830
     2017.67830         4.35516         6.40848
     2017.68104         6.34274         6.28974
     2017.68377        11.51232         6.72315
     2017.68651        14.27590         6.97132
     2017.68925         5.83247         6.50466
     2017.69199         3.82305         6.40492
     2017.69472         5.93063         6.38117
     2017.69746         6.05821         6.58303
     2017.70020         3.02779         6.35742
     2017.70294         3.67336         6.39661
     2017.70568         3.84094         6.30161
     2017.70841         6.44752         6.40254
     2017.71115         8.45610         6.41323
     2017.71389        10.38967         6.30755
     2017.71663         9.61025         6.30874
     2017.71937        11.55083         6.29924
     2017.72210         5.69441         6.39423
     2017.72484         4.73899         6.47141
     2017.72758         8.74956         6.33724
     2017.73032        14.96214         6.37880
     2017.73305         5.04772         6.33842
     2017.73579         6.80530         6.66971
     2017.73853         8.58088         6.37405
     2017.74127         4.75645         6.67684
     2017.74401         8.19903         6.48091
     2017.74674         6.65961         6.48210
     2017.74948         2.04719         6.45004
     2017.75222        -2.20723         6.42154
     2017.75496        -0.44866         6.41561
     2017.75770        -1.38708         6.48566
     2017.76043         1.75750         6.31824
     2017.76317         7.22308         6.62103
     2017.76591        13.08865         6.54622
     2017.76865         3.07523         6.36217
     2017.77138         0.41981         6.39542
     2017.77412         2.82639         6.29093
     2017.77686         2.81997         6.33486
     2017.77960         2.58254         6.35505
     2017.78234         0.94312         6.28855
     2017.78507         2.59970         6.47141
     2017.78781        -7.11272         6.45954
     2017.79055         3.60686         6.65546
     2017.79329        11.98243         6.58541
     2017.79603        13.10101         6.59253
     2017.79876        12.94859         6.71721
     2017.80150        12.08717         6.65428
     2017.80424        13.00174         6.52366
     2017.80698         2.79032         6.42036
     2017.80971        -5.28110         6.44885
     2017.81245         0.01048         6.63172
     2017.81519        11.44206         6.52485
     2017.81793        -1.96837         6.39661
     2017.82067        -8.09179         6.57947
     2017.82340        -1.68721         6.37998
     2017.82614        -2.61363         6.33724
     2017.82888        -1.91005         6.39898
     2017.83162         4.50452         6.49635
     2017.83436         0.99810         6.45954
     2017.83709        -0.62332         6.61034
     2017.83983        -7.61174         6.39898
     2017.84257        -1.22216         6.29805
     2017.84531        -2.95759         6.35030
     2017.84804        -6.70301         6.37998
     2017.85078        -7.29943         6.50466
     2017.85352         3.84015         6.43698
     2017.85626         3.26172         6.56166
     2017.85900         4.82430         6.47498
     2017.86173         3.77388         6.43342
     2017.86447        -0.34254         6.35386
     2017.86721         7.23304         6.31349
     2017.86995         3.36861         6.26837
     2017.87269         4.20519         6.38355
     2017.87542         5.37077         6.30874
     2017.87816        10.84435         6.33724
     2017.88090         3.17493         6.37523
     2017.88364         4.42050         6.34792
     2017.88637        14.25708         6.41442
     2017.88911        13.10666         6.46310
     2017.89185        -5.74376         6.41679
     2017.89459        -4.61518         6.41798
     2017.89733         7.91739         6.41086
     2017.90006         2.70097         6.32418
     2017.90280        -4.94345         6.27430
     2017.90554         4.38013         6.38236
     2017.90828        10.40770         6.34199
     2017.91102         3.14328         6.73383
     2017.91375        -6.11114         6.51297
     2017.91649         1.86644         6.32774
     2017.91923         7.32902         6.32536
     2017.92197         0.32459         6.34555
     2017.92470        -1.53083         6.41798
     2017.92744         4.56775         6.44410
     2017.93018         0.02033         6.34199
     2017.93292        -0.10809         6.46310
     2017.93566         2.84948         6.38711
     2017.93839        -5.12594         6.47379
     2017.94113        -8.97636         6.43342
     2017.94387        -4.48878         6.37286
     2017.94661         2.91580         6.36692
     2017.94935         0.81137         6.38592
     2017.95208        -3.34505         6.53672
     2017.95482         1.43753         6.45479
     2017.95756         0.74111         6.34911
     2017.96030        -1.50032         6.39779
     2017.96303         1.64526         6.40492
     2017.96577         0.53284         6.50229
     2017.96851        -4.40358         6.71246
     2017.97125       -10.05700         6.37523
     2017.97399        -5.68543         6.36455
     2017.97672        -3.13985         6.36811
     2017.97946        -6.75627         6.27905
     2017.98220        -2.06169         6.34674
     2017.98494        -4.03611         6.28143
     2017.98767        -7.74754         6.33605
     2017.99041        -3.78296         6.27668
     2017.99315        -5.78038         6.31111
     2017.99589        -1.08980         6.26955
     2017.99863        -1.05822         6.27074
     2018.00136       -17.00665         6.30161
     2018.00410        -4.81007         6.32892
     2018.00684        -6.05549         6.30280
     2018.00958        -1.07191         6.35267
     2018.01232        -4.87334         6.32061
     2018.01505         1.68424         6.38830
     2018.01779        -0.70518         6.42986
     2018.02053        -3.32860         6.29568
     2018.02327        10.23998         6.30399
     2018.02600        -2.32045         6.30280
     2018.02874        -2.28487         6.27074
     2018.03148        -8.61029         6.46548
     2018.03422       -13.29671         6.34555
     2018.03696       -19.00813         6.33486
     2018.03969       -11.41556         6.34436
     2018.04243        -5.37398         6.43698
     2018.04517        -7.43140         6.35861
     2018.04791        -5.21882         6.51060
     2018.05065         3.16875         6.43104
     2018.05338        -1.15167         6.29093
     2018.05612         0.50991         6.32536
     2018.05886        -6.93851         6.34317
     2018.06160        -3.40993         6.27430
     2018.06433        -5.78336         6.31824
     2018.06707        -3.36478         6.50110
     2018.06981        -3.82720         6.64596
     2018.07255        -6.21662         6.42986
     2018.07529       -11.70404         6.40492
     2018.07802       -12.82847         6.39661
     2018.08076        -2.08889         6.35267
     2018.08350        -6.00431         6.42748
     2018.08624        -7.04673         6.42392
     2018.08898       -16.92915         6.68277
     2018.09171       -13.52958         6.51535
     2018.09445        -8.95600         6.38473
     2018.09719        -2.48542         6.61509
     2018.09993        -9.86384         6.50704
     2018.10266       -18.27827         6.48210
     2018.11088        -4.11253         6.38355
     2018.11362        -0.29595         6.44410
     2018.11635         1.00162         6.50941
     2018.11909        -8.06080         6.87157
     2018.12183        -0.48822         6.84783
     2018.12457        -8.51964         6.38355
     2018.12731       -17.39906         6.44648
     2018.13004        -3.77649         6.40967
     2018.13278       -10.62891         6.41561
     2018.13552        -7.08833         6.46429
     2018.13826       -10.76275         6.45954
     2018.14099        -8.34817         6.62222
     2018.14373       -15.02460         6.53910
     2018.14647       -16.61902         6.85495
     2018.14921        -0.08644         6.50466
     2018.15195         4.93314         6.54147
     2018.15468         3.32471         6.44292
     2018.15742       -12.38571         6.61747
     2018.16016        -3.18813         6.62578
     2018.16290        -5.24755         6.52722
     2018.16564       -10.89997         6.66378
     2018.16837       -14.89840         6.37880
     2018.17111       -11.44882         6.47023
     2018.17385       -11.37324         6.41917
     2018.17659       -12.98266         6.43104
     2018.17932       -10.51808         6.43342
     2018.18206        -1.20551         6.49635
     2018.18480        -4.67293         6.47260
     2018.18754        -9.57835         6.42154
     2018.19028       -11.88177         6.53197
     2018.19301        -4.58219         6.34199
     2018.19575        -4.88362         6.36336
     2018.19849        -0.30604         6.41798
     2018.20123         3.53254         6.53197
     2018.20397        -1.63088         6.45479
     2018.20670        -1.48631         6.44767
     2018.20944        -3.17473         6.38948
     2018.21218        -9.43015         6.41086
     2018.21492       -10.51657         6.32299
     2018.21765        -4.81099         6.36336
     2018.22039        -3.79142         6.35149
     2018.22313        -6.31484         6.40136
     2018.22587        -4.64026         6.32418
     2018.22861       -16.34768         6.29924
     2018.23134       -15.59310         6.39779
     2018.23408       -19.33453         6.50585
     2018.23682        -9.82595         6.37523
     2018.23956        -7.25737         6.42154
     2018.24230        -5.80679         6.45598
     2018.24503       -12.22921         6.31705
     2018.24777       -11.18864         6.31230
     2018.25051        -8.62206         6.34080
     2018.25325        -9.46148         6.36098
     2018.25598        -8.43490         6.34199
     2018.25872       -12.80733         6.47735
     2018.26146        -8.15275         6.61390
     2018.26420       -10.27517         6.36692
     2018.26694       -10.85559         6.61865
     2018.26967       -12.10601         6.49516
     2018.27241       -12.14844         6.40017
     2018.27515        -3.20486         6.47141
     2018.27789        -2.15728         6.48804
     2018.28062        -8.08470         6.85495
     2018.28336       -15.25912         6.42392
     2018.28610       -11.65155         6.36336
     2018.28884        -8.50297         6.31705
     2018.29158        -4.28539         6.52604
     2018.29431         1.59419         6.47973
     2018.29705       -14.38023         6.34911
     2018.29979       -23.70666         6.56166
     2018.30253        -4.83608         6.35030
     2018.30527       -14.84650         6.34555
     2018.30800        -8.17792         6.46548
     2018.31074       -14.48335         6.46073
     2018.31348        -9.06377         6.33961
     2018.31622       -10.62419         6.27074
     2018.31895        -8.02061         6.51891
     2018.32169        -4.73903         6.51416
     2018.32443        -6.00846         6.61390
     2018.32717        -7.88788         6.35624
     2018.32991        -9.45330         6.49516
     2018.33264         1.04128         6.36811
     2018.33538       -13.47414         6.56997
     2018.33812        -6.74457         6.49160
     2018.34086        -5.91599         6.25174
     2018.34360       -11.41441         6.27430
     2018.34633        -8.06183         6.28143
     2018.34907        -8.04826         6.25530
     2018.35181         3.19732         6.29686
     2018.35455        -1.13410         6.29093
     2018.35728        -0.67552         6.29330
     2018.36002         2.65506         6.30161
     2018.36276        -4.91437         6.42748
     2018.36550        -1.96779         6.30874
     2018.36824         0.26179         6.41204
     2018.37097         1.26237         6.40254
     2018.37371        -3.00505         6.34317
     2018.37645        -7.98848         6.40967
     2018.37919        -5.17290         6.26005
     2018.38193        -0.91132         6.33367
     2018.38466         2.35326         6.36217
     2018.38740        -2.11216         6.49041
     2018.39014         1.79441         6.44529
     2018.39288        -1.65001         6.31943
     2018.39561         0.05257         6.28499
     2018.39835        -2.73885         6.24581
     2018.40109        -5.17128         6.22087
     2018.40383        -1.68370         6.37523
     2018.40657        -2.90612         6.36098
     2018.40930         6.49646         6.32299
     2018.41204         3.55904         6.24106
     2018.41478         0.08161         6.34199
     2018.41752         0.42919         6.29568
     2018.42026         0.09377         6.22562
     2018.42299         2.17335         6.24106
     2018.42573         4.14293         6.18169
     2018.42847         6.70150         6.30636
     2018.43121         4.75708         6.22087
     2018.43394         2.28766         6.23631
     2018.43668        -0.42376         6.20187
     2018.43942        -0.31218         6.21612
     2018.44216        -0.25561         6.29211
     2018.44490        -0.04903         6.33249
     2018.44763         2.82755         6.31943
     2018.45037        -1.56987         6.27668
     2018.45311         2.81270         6.32180
     2018.45585        -3.01972         6.25768
     2018.45859         1.53686         6.32892
     2018.46132        -0.91156         6.41204
     2018.46406        -1.29698         6.38355
     2018.46680         0.76459         6.39542
     2018.46954         6.52317         6.35386
     2018.47227         3.73175         6.47141
     2018.47501         5.62033         6.30161
     2018.47775         7.50191         6.26955
     2018.48049         0.38448         6.26837
     2018.48323        10.68706         6.53791
     2018.48596        -4.04336         6.28143
     2018.48870         6.61022         6.39779
     2018.49144         3.13780         6.27549
     2018.49418         5.33837         6.40729
     2018.49692        -1.38105         6.34911
     2018.49965         2.75753         6.24818
     2018.50239         0.96711         6.36692
     2018.50513        -6.73832         6.19356
     2018.50787         3.89726         6.32536
     2018.51060         2.43784         6.52722
     2018.51334         4.82742         6.24699
     2018.51608         1.02700         6.24937
     2018.51882        -2.30143         6.26837
     2018.52156         1.52615         6.32655
     2018.52429         2.65073         6.26718
     2018.52703         5.08031         6.25887
     2018.52977         5.48489         6.29330
     2018.53251        -0.42154         6.26718
     2018.53525        15.23504         6.44767
     2018.53798        -1.67438         6.38830
     2018.54072        -3.13880         6.32418
     2018.54346         2.58478         6.53791
     2018.54620         4.67635         6.27312
     2018.54893         7.44393         6.24937
     2018.55167         5.50551         6.33130
     2018.55441        -0.51991         6.43223
     2018.55715        -0.20234         6.28499
     2018.55989        -0.34776         6.48091
     2018.56262         0.47682         6.37048
     2018.56536         2.59240         6.33367
     2018.56810         7.38198         6.31824
     2018.57084         4.94755         6.34199
     2018.57357         2.10313         6.38711
     2018.57631        -3.63429         6.78727
     2018.57905        11.44529         6.81339
     2018.58179         8.21687         6.68396
     2018.58453         8.95444         6.65071
     2018.58726         6.79202         6.49991
     2018.59000         8.15760         6.39779
     2018.59274         4.81418         6.35030
     2018.59548         9.82876         6.39305
     2018.59822         0.29533         6.73740
     2018.60095        15.77291         6.40254
     2018.60369        16.18749         6.40136
     2018.60643        -5.52593         6.67684
     2018.60917         8.44664         6.23749
     2018.61190         9.25922         6.33130
     2018.61464         6.82680         6.30755
     2018.61738         8.07238         6.44767
     2018.62012         4.54296         6.30636
     2018.62286         9.52353         6.51416
     2018.62559        17.57511         6.70534
     2018.62833         1.76569         6.51891
     2018.63107        -1.85273         6.30399
     2018.63381         5.36085         6.54741
     2018.63655         7.69842         6.29093
     2018.63928        30.53600         6.82289
     2018.64202        15.00158         6.73383
     2018.64476         9.05816         6.28262
     2018.64750         4.51973         6.27074
     2018.65023        15.47131         8.32853
     2018.65297         5.77789         6.60559
     2018.65571         9.81247         6.33130
     2018.65845         3.67905         6.38711
     2018.66119         6.07162         6.32774
     2018.66392        16.77120         6.71246
     2018.66666         9.39778         6.36573
     2018.66940        -1.15964         6.41798
     2018.67214         2.53094         6.36455
     2018.67488        -2.59749         6.42154
     2018.67761         4.72909         6.26243
     2018.68035         4.80667         6.32774
     2018.68309         5.84525         6.38948
     2018.68583        11.29183         6.31468
     2018.68856         7.26940         6.23156
     2018.69130        11.31498         6.38236
     2018.69404        10.47456         6.51179
     2018.69678         6.41314         6.27668
     2018.69952        -0.24429         6.31349
     2018.70225        -0.29071         6.33130
     2018.70499        -0.99913         6.25649
     2018.70773         3.47145         6.28499
     2018.71047         1.90603         6.31230
     2018.71321         0.16260         6.29924
     2018.71594         0.45818         6.19593
     2018.71868        -2.15724         6.23274
     2018.72142        -1.20166         6.42036
     2018.72416        -0.04608         6.34792
     2018.72689        -0.07651         6.27668
     2018.72963         7.92507         6.25056
     2018.73237        -2.98635         6.37998
     2018.73511         8.09723         6.24343
     2018.73785         3.84981         6.32418
     2018.74058        -2.50862         6.29330
     2018.74332         4.20496         6.23631
     2018.74606         0.75254         6.24937
     2018.74880         1.92012         6.29568
     2018.75154        -0.31231         6.28143
     2018.75427         3.71627         6.27312
     2018.75701         5.28485         6.45835
     2018.75975         3.81143         6.26718
     2018.76249        11.35801         6.52366
     2018.76522         6.70758         6.39898
     2018.76796         5.49016         6.39067
     2018.77070         7.60174         6.42154
     2018.77344         3.24332         6.39779
     2018.77618         1.57790         6.43223
     2018.77891        -1.83653         6.35742
     2018.78165        -1.20295         6.46073
     2018.78439        11.33063         6.36098
     2018.78713         6.04321         6.39423
     2018.78987         1.89579         6.76352
     2018.79260        -4.58264         6.35624
     2018.79534        16.69794         6.40373
     2018.79808         1.77552         6.62815
     2018.80082        -1.10690         6.45123
     2018.80355         4.76367         6.43698
     2018.80629         9.54925         6.61865
     2018.80903         5.31483         6.34436
     2018.81177         8.07441         6.66734
     2018.81451        -0.55701         6.42036
     2018.81724        -0.10144         6.34555
     2018.81998        10.15514         6.49516
     2018.82272         9.23172         6.32061
     2018.82546         2.96530         6.37286
     2018.82820        -2.62012         6.42273
     2018.83093        12.73745         6.32061
     2018.83367        -3.57697         6.33249
     2018.83641        -2.22639         6.43104
     2018.83915         7.81819         6.41561
     2018.84188        12.43777         6.35149
     2018.84462        13.25734         6.52841
     2018.84736         3.17192         6.39779
     2018.85010         2.87050         6.32774
     2018.85284         4.00908         6.44292
     2018.85557        -7.04735         6.38236
     2018.85831         2.69323         6.31111
     2018.86105        -0.40119         6.29686
     2018.86379         7.24039         6.53791
     2018.86653         4.78797         6.41798
     2018.86926        -4.06746         6.45954
     2018.87200        -1.28988         6.35267
     2018.87474         4.20470         6.26362
     2018.87748         3.17328         6.39305
     2018.88021        11.00286         6.49991
     2018.88295         3.76443         6.41561
     2018.88569         1.46001         6.38711
     2018.88843         3.81459         6.52960
     2018.89117         6.42717         6.37405
     2018.89390         4.95574         6.42154
     2018.89664         9.06932         6.49398
     2018.89938        10.30590         6.42036
     2018.90212         9.51148         6.39067
     2018.90485        17.24506         6.49635
     2018.90759        17.92963         6.40967
     2018.91033        10.28921         6.36455
     2018.91307        12.90279         6.44885
     2018.91581        10.12137         6.38711
     2018.91854         8.65995         6.29924
     2018.92128         4.12652         6.31586
     2018.92402         5.08510         6.51179
     2018.92676         3.49568         6.33961
     2018.92950         4.28126         6.26124
     2018.93223         1.71084         6.26955
     2018.93497        -0.88959         6.32061
     2018.93771         8.05899         6.40492
     2018.94045         4.34957         6.52247
     2018.94318         7.51315         6.36811
     2018.94592         1.03372         6.34199
     2018.94866         1.36230         6.40611
     2018.95140        11.39988         6.37405
     2018.95414        13.20646         6.30043
     2018.95687         9.13204         6.35030
     2018.95961        16.68761         6.28855
     2018.96235        11.83619         6.22918
     2018.96509         9.28977         6.35149
     2018.96783         0.66535         6.38830
     2018.97056         5.14793         6.40373
     2018.97330         1.61850         6.30399
     2018.97604        -2.31492         6.28618
     2018.97878         1.28266         6.26480
     2018.98151       -14.49576         6.34792
     2018.98425         4.80582         6.45123
     2018.98699         3.28039         6.60678
     2018.98973        -0.84003         6.37880
     2018.99247        -9.85445         6.55216
     2018.99520         4.69113         6.34080
     2019.00068       -14.47472         6.47973
     2019.00342       -16.51714         6.52485
     2019.00616         3.21044         6.39542
     2019.00889         3.18002         6.29924
     2019.01163        -2.12241         6.33367
     2019.01437         4.64317         6.31586
     2019.01711        -1.97725         6.33249
     2019.01984         0.84733         6.39898
     2019.02258        -5.71909         6.53672
     2019.02532        -3.15052         6.37880
     2019.02806         0.56706         6.54741
     2019.03080        -1.99036         6.38117
     2019.03353         1.01322         6.38473
     2019.03627        -6.56820         6.41679
     2019.03901        -0.76863         6.22799
     2019.04175        -2.02205         6.42036
     2019.04449         0.13853         6.34674
     2019.04722        -5.06189         6.41917
     2019.04996        -9.06732         6.43223
     2019.05270        -4.82974         6.63053
     2019.05544        -1.54316         6.43104
     2019.05817       -14.01558         6.53435
     2019.06091        -1.97300         6.37998
     2019.06365         2.96257         6.47854
     2019.06639         0.92415         6.57709
     2019.06913        -3.23127         6.70415
     2019.07186       -15.43369         6.59609
     2019.07460        -8.53311         6.31943
     2019.07734        -1.25954         6.29093
     2019.08008        -2.42096         6.41561
     2019.08282        -6.86638         6.51179
     2019.08555       -11.55080         6.24699
     2019.08829       -13.38322         6.30399
     2019.09103       -14.34165         6.28262
     2019.09377       -12.86507         6.34911
     2019.09650        -8.15549         6.35861
     2019.09924       -14.50891         6.24937
     2019.10198       -13.65434         6.40848
     2019.10472        -6.39376         6.33605
     2019.10746        -7.16718         6.37167
     2019.11019        -9.62460         6.32655
     2019.11293        -3.22402         6.45598
     2019.11567        -2.66345         6.72790
     2019.11841         8.23013         6.29805
     2019.12115         8.12771         6.46904
     2019.12388         4.21629         6.42748
     2019.12662         1.47487         6.27193
     2019.12936        -5.03156         6.23868
     2019.13210        -5.05498         6.28024
     2019.13483        -7.54640         6.32892
     2019.13757        -3.64482         6.35624
     2019.14031        -0.41224         6.41204
     2019.14305        -5.89967         6.28499
     2019.14579        -8.21209         6.29805
     2019.14852        -4.76851         6.37405
     2019.15126        -4.89793         6.27787
     2019.15400        -4.63136         6.37167
     2019.15674        -7.12878         6.35742
     2019.15948        -6.18820         6.30874
     2019.16221        -9.88462         6.30993
     2019.16495        -9.55704         6.29568
     2019.16769       -10.47547         6.37286
     2019.17043       -14.17489         6.26718
     2019.17316       -10.40131         6.21850
     2019.17590        -8.50573         6.22681
     2019.17864        -1.45415         6.27312
     2019.18138        -2.69058         6.51060
     2019.18412       -12.82600         6.33130
     2019.18685        -8.56042         6.32418
     2019.18959       -13.17384         6.24224
     2019.19233        -2.70227         6.29924
     2019.19507        -2.98269         6.35980
     2019.19780       -11.55411         6.40848
     2019.20054        -7.91053         6.43223
     2019.20328       -13.54495         6.24462
     2019.20602       -10.96938         6.27430
     2019.20876       -13.48380         6.30280
     2019.21149       -12.76522         6.28143
     2019.21423        -9.21264         6.29093
     2019.21697        -6.12806         6.24462
     2019.21971        -6.41449         6.44410
     2019.22245        -5.87591         6.23274
     2019.22518        -9.53833         6.22799
     2019.22792        -7.61875         6.21731
     2019.23066       -10.63717         6.27312
     2019.23340        -9.83860         6.17694
     2019.23613        -9.39402         6.24818
     2019.23887        -9.49444         6.20543
     2019.24161        -9.41786         6.63647
     2019.24435        -9.92729         6.50941
     2019.24709       -10.53771         6.33961
     2019.24982        -6.75113         6.27668
     2019.25256         0.78245         6.35149
     2019.25530        -1.73897         6.32774
     2019.25804         1.39760         6.31468
     2019.26078         4.59618         6.25530
     2019.26351       -11.45324         6.38830
     2019.26625        -7.73666         6.29211
     2019.26899        -7.63308         6.26599
     2019.27173         9.29149         6.50466
     2019.27446        -6.70893         6.23631
     2019.27720        -0.27035         6.40136
     2019.27994         3.58323         6.26005
     2019.28268         3.18281         6.17219
     2019.28542         6.73338         6.22087
     2019.29089       -12.96846         6.29924
     2019.29363       -11.65688         6.34911
     2019.29637         6.72169         6.43817
     2019.29911         0.55827         6.20662
     2019.30184        -1.75715         6.28618
     2019.30458       -15.39257         6.33486
     2019.30732         7.45601         6.39779
     2019.31006        -4.05842         6.36930
     2019.31279        -4.10784         6.45242
     2019.31553         1.18174         6.35386
     2019.31827        -2.61668         6.49873
     2019.32101        -4.00910         6.54860
     2019.32375       -17.91253         6.17100
     2019.32648        -7.14795         6.21850
     2019.32922        -3.64537         6.25768
     2019.33196        -3.56279         6.41204
     2019.33470         1.71279         6.55691
     2019.33744        -6.01864         6.28380
     2019.34017        -6.81406         6.19593
     2019.34291        -6.18848         6.25293
     2019.34565        -7.23790         6.37761
     2019.34839        -6.06633         6.30636
     2019.35112        -6.93975         6.25530
     2019.35386        -6.31417         6.28618
     2019.35660         1.57241         6.37998
     2019.35934         0.47799         6.29924
     2019.36208        -6.54244         6.25174
     2019.36481         0.35014         6.46192
     2019.36755        -2.89328         6.27549
     2019.37029        -0.89870         6.19831
     2019.37303         4.23888         6.23868
     2019.37577         0.16545         6.39186
     2019.37850         2.05703         6.43935
     2019.38124         7.20861         6.52960
     2019.38398         4.73219         6.22324
     2019.38672        -3.57623         6.43579
     2019.38945        -7.60966         6.38830
     2019.39219         1.75092         6.22799
     2019.39493        -3.06350         6.25412
     2019.39767         0.51108         6.27430
     2019.40041        -3.48535         6.29093
     2019.40314        -2.37677         6.35386
     2019.40588         7.73781         6.33842
     2019.40862         5.63339         6.46785
     2019.41136        12.16697         6.29805
     2019.41410         9.03754         6.44410
     2019.41683         4.14512         6.37880
     2019.41957         4.16170         6.32892
     2019.42231         4.98128         6.22918
     2019.42505        -0.67114         6.27312
     2019.42778         3.38543         6.41086
     2019.43052         5.81801         6.25768
     2019.43326         0.59159         6.28499
     2019.43600        -1.11083         6.43935
     2019.43874         4.82375         6.37286
     2019.44147       -12.70868         6.48804
     2019.44421        -4.57110         6.46310
     2019.44695         6.22948         6.49991
     2019.44969        -2.07394         6.38592
     2019.45243         0.49863         6.31111
     2019.45516        -2.39479         6.43817
     2019.45790        -2.51121         6.36336
     2019.46064        25.89237         6.56760
     2019.46338        -0.38605         6.65903
     2019.46611         6.98652         6.51654
     2019.46885         2.07910         6.49160
     2019.47159        11.66868         6.31349
     2019.47433         5.67726         6.35861
     2019.47707         2.90184         6.47735
     2019.47980         0.02341         6.46785
     2019.48254         0.75299         6.41442
     2019.48528         2.42557         6.50347
     2019.48802        -1.18585         6.35386
     2019.49076         2.54272         6.40017
     2019.49349         8.03330         6.40967
     2019.49623         6.88588         6.39423
     2019.49897        -2.01054         6.70534
     2019.50171         5.61404         6.44292
     2019.50444         2.44761         6.53316
     2019.50718        -2.42481         6.33842
     2019.50992         4.42777         6.35505
     2019.51266         3.93135         6.55097
     2019.51540         3.96793         6.47141
     2019.51813         7.66750         6.44529
     2019.52087        -2.94092         6.42154
     2019.52361         1.06466         6.39423
     2019.52635         1.11924         6.33011
     2019.52908         7.58082         6.55810
     2019.53182        -1.32961         6.40611
     2019.53456         0.64797         6.40254
     2019.53730         7.55055         6.56047
     2019.54004        14.28613         6.56166
     2019.54277         9.49970         6.45242
     2019.54551         4.41428         6.55928
     2019.54825         2.59686         6.23631
     2019.55099         3.99344         6.60678
     2019.55373        10.07802         6.54622
     2019.55646         8.15159         6.55097
     2019.55920         0.85117         6.67921
     2019.56194         6.72375         6.42392
     2019.56468         2.51633         6.46666
     2019.56741         2.82691         6.39186
     2019.57015        14.10848         6.55216
     2019.57289         7.77406         6.43698
     2019.57563         3.31264         6.30518
     2019.57837         2.23822         6.40611
     2019.58110         6.58180         6.31943
     2019.58384         1.45037         6.56522
     2019.58658         0.36595         6.22443
     2019.58932         6.50353         6.30755
     2019.59206         9.88111         6.57709
     2019.59479         6.64368         6.28618
     2019.59753         6.51926         6.61984
     2019.60027         5.08284         6.64003
     2019.60301         5.57342         6.36930
     2019.60574         2.69400         6.57709
     2019.60848         8.71357         6.68040
     2019.61122         4.89515         6.34911
     2019.61396        10.65573         6.45479
     2019.61670         4.39931         6.37642
     2019.61943        -0.03111         6.58066
     2019.62217        10.22346         6.55691
     2019.62491         7.22504         6.28974
     2019.62765        17.20262         6.46666
     2019.63039        15.99720         6.40136
     2019.63312         7.05378         6.35980
     2019.63586         4.81735         6.59134
     2019.63860        15.85793         6.58897
     2019.64134        -7.65149         6.39661
     2019.64373        -8.04999         7.46053
     2019.67264        23.23166        17.82192
     2019.67419         6.80944         6.39898
     2019.67693         1.02602         6.45717
     2019.67967         6.06060         6.59966
     2019.68240        -0.57082         6.37286
     2019.68514         5.89476         6.33130
     2019.68788         6.98633         6.31705
     2019.69062         7.01891         6.41323
     2019.69336         4.34749         6.25649
     2019.69609        12.91007         6.31586
     2019.69883         6.59864         6.29686
     2019.70157         3.17022         6.35386
     2019.70431         9.21180         6.23156
     2019.70705         2.83338         6.33961
     2019.70978         6.11196         6.33605
     2019.71252        -2.02347         6.27074
     2019.71526        14.79611         6.33961
     2019.71800        14.19769         6.53435
     2019.72073        -2.32873         6.65903
     2019.72347        19.71185         6.72552
     2019.72621         3.99942         6.40017
     2019.72895       -10.57900         6.52841
     2019.73169        12.36758         6.34199
     2019.73442        13.97316         6.37880
     2019.73716         9.92673         6.59728
     2019.73990         5.30031         6.50704
     2019.74264         1.86389         6.38948
     2019.74538         4.04147         6.30280
     2019.74811         5.74105         6.46310
     2019.75085         8.12462         6.54028
     2019.75359        13.21720         6.62459
     2019.75633        11.04078         6.42867
     2019.75906         2.92936         6.39542
     2019.76180         1.55394         6.47023
     2019.76454         8.20551         6.45360
     2019.76728         6.62909         6.30993
     2019.77002         2.60567         6.35980
     2019.77275         3.71925         6.47141
     2019.77549         5.58783         6.37048
     2019.77823        11.93940         6.43698
     2019.78097         5.29398         6.30399
     2019.78371         8.51256         6.36692
     2019.78644         9.58914         6.34911
     2019.78918         8.91771         6.22799
     2019.79192        14.23529         6.31111
     2019.79466        23.63987         6.29568
     2019.79739        12.14745         6.53910
     2019.80013        11.33103         6.34317
     2019.80287        12.92360         6.37048
     2019.80561        11.30218         6.45123
     2019.80835         0.53776         6.28737
     2019.81108         4.65534         6.42867
     2019.81382        22.13592         6.43579
     2019.81656         0.63149         6.39898
     2019.81930         3.52807         6.44648
     2019.82203         4.98565         6.46429
     2019.82477         0.09123         6.44648
     2019.82751         8.61381         6.48923
     2019.83025         6.84138         6.42629
     2019.83299        -2.41904         6.49160
     2019.83572        15.06154         6.35149
     2019.83846         6.55912         6.32536
     2019.84120        23.09969         6.41561
     2019.84394         3.82927         6.52247
     2019.84668         4.22585         6.49873
     2019.84941         7.11643         6.31349
     2019.85215         3.13901         6.32536
     2019.85489       -10.58742         6.38473
     2019.85763        -0.39684         6.36811
     2019.86036        -0.54326         6.30043
     2019.86310        -3.17468         6.34080
     2019.86584        17.88290         6.36336
     2019.86858         4.22547         6.39423
     2019.87132         8.82005         6.59491
     2019.87405        11.87063         6.37880
     2019.87679        -1.44879         6.77064
     2019.87953        14.67079         6.37286
     2019.88227        14.24536         6.31111
     2019.88501        14.13994         6.45242
     2019.88774        10.80052         6.58303
     2019.89048         2.40210         6.44885
     2019.89322         8.56367         6.48210
     2019.89596       -11.12975         6.39305
     2019.89869         6.44883         6.35505
     2019.90143         8.62741         6.30518
     2019.90417         4.54399         6.48923
     2019.90691         5.59956         6.29686
     2019.90965         6.97014         6.37286
     2019.91238         8.74172         6.21612
     2019.91512        10.80430         6.29449
     2019.91786         1.64588         6.32774
     2019.92060         3.57145         6.31230
     2019.92607        10.95661         6.28380
     2019.92881         7.07819         6.24581
     2019.93155         7.84377         6.24937
     2019.93429         7.44834         6.20068
     2019.93702         3.15192         6.27668
     2019.93976        10.07650         6.37286
     2019.94250         6.14008         6.28024
     2019.94524         1.57365         6.36930
     2019.94798        -3.13477         6.25649
     2019.95071         1.21381         6.43698
     2019.95345         0.53539         6.26480
     2019.95619         1.25397         6.31586
     2019.95893         0.73654         6.36336
     2019.96167        10.35412         6.32418
     2019.96440         3.24870         6.38473
     2019.96714         5.46128         6.40017
     2019.96988         6.86886         6.35505
     2019.97262         6.59943         6.27074
     2019.97535         5.69401         6.27549
     2019.97809         4.27959         6.30043
     2019.98083         2.00217         6.23631
     2019.98357        -1.01925         6.54028
     2019.98631        -1.48768         6.31586
     2019.98904        -2.24510         6.37167
     2019.99178         3.40248         6.45479
     2019.99452        -1.51794         6.36455
     2020.00000        18.84021         6.36455
     2020.00273        10.72879         6.26243
     2020.00547         7.34437         6.40967
     2020.00821        -3.49305         6.52604
     2020.01095         5.57552         6.49041
     2020.01368        -3.85090         6.41086
     2020.01642         5.78868         6.44648
     2020.01916         4.34026         6.39898
     2020.02190        -0.45016         6.51297
     2020.02464        -5.23159         6.48210
     2020.02737        -6.09001         6.27549
     2020.03011       -19.04743         6.25412
     2020.03285       -19.49385         6.27312
     2020.03559       -15.70128         6.28737
     2020.03833        -8.13070         6.19118
     2020.04106        -8.31012         6.59134
     2020.04380       -12.20554         6.32418
     2020.04654       -12.35796         6.16269
     2020.04928       -11.76039         6.17456
     2020.05201       -14.76881         6.37880
     2020.05475        -1.87523         6.22324
     2020.05749        -6.23465         6.24106
     2020.06023        -3.76907         6.26955
     2020.06297        -2.00250         6.18525
     2020.06570        -3.26592         6.31111
     2020.06844         1.42566         6.21018
     2020.07118         2.41924         6.32655
     2020.07392         5.62682         6.20543
     2020.07666         4.39739         6.24462
     2020.07939        -3.58703         6.35030
     2020.08213        -0.48145         6.26480
     2020.08487       -13.14087         6.28024
     2020.08761       -13.18330         6.27193
     2020.09034       -12.99672         6.17219
     2020.09308       -18.97814         6.30161
     2020.09582        -6.04356         6.27787
     2020.09856        13.94402         6.42629
     2020.10130        -3.79841         6.31230
     2020.10403        -0.79783         6.38948
     2020.10677        -5.77325         6.27787
     2020.10951        -6.15667         6.32418
     2020.11225         3.92891         6.30161
     2020.11498        -2.75652         6.26718
     2020.11772        -6.05594         6.46666
     2020.12046        -0.57936         6.54385
     2020.12320       -12.89878         6.30280
     2020.12594         2.66980         6.34911
     2020.12867        -0.91863         6.39661
     2020.13141        -6.82205         6.37167
     2020.13415        -5.78847         6.28974
     2020.13689        -3.53389         6.40373
     2020.13963       -18.01932         6.50941
     2020.14236        -4.52474         6.24937
     2020.14510         1.43684         6.23512
     2020.14784        -3.19658         6.25530
     2020.15058        -8.97700         6.27430
     2020.15331       -11.60143         6.29330
     2020.15605       -16.75985         6.36455
     2020.15879        -7.03727         6.30993
     2020.16153        -0.74869         6.18525
     2020.16427         1.48289         6.36455
     2020.16700        -1.47954         6.61865
     2020.16974        -9.13696         6.35980
     2020.17248         1.74362         6.25649
     2020.17522         0.36020         6.47616
     2020.17796        -0.48422         6.21731
     2020.18069        -2.91465         6.25887
     2020.18343        -4.51107         6.55572
     2020.18617        -2.38649         6.23037
     2020.18891        -8.03691         6.26362
     2020.19164        -5.32734         6.30399
     2020.19438        -5.84876         6.24106
     2020.19712        -9.60318         6.20543
     2020.19986        -8.21960         6.18050
     2020.20260       -13.69202         6.27905
     2020.20533       -10.70745         6.41323
     2020.20807       -11.58487         6.27312
     2020.21081       -10.04629         6.29093
     2020.21355       -10.07371         6.73858
     2020.21629        -5.41013         6.58066
     2020.21902        -9.41856         6.27787
     2020.22176        -7.05098         6.25293
     2020.22450        -2.49640         6.20543
     2020.22724        -7.44982         6.19593
     2020.22997        -4.21124         6.18525
     2020.23271         9.79533         6.28499
     2020.23545         9.49891         6.38830
     2020.23819       -16.98251         6.47141
     2020.24093        -7.09693         6.37048
     2020.24366        -0.86436         6.42273
     2020.24640        -2.72278         6.34317
     2020.24914       -14.34620         6.29211
     2020.25188        -8.55162         6.32655
     2020.25462        -7.53104         6.30280
     2020.25735        -2.36847         6.33249
     2020.26009         1.95311         6.40136
     2020.26283        -4.24031         6.41204
     2020.26557        -9.58573         6.44529
     2020.26830        -9.09915         6.37405
     2020.27104       -13.10758         6.38117
     2020.27378       -10.05100         6.35267
     2020.27652        -2.95142         6.40373
     2020.27926        -7.46384         6.46548
     2020.28199         1.00274         6.55928
     2020.28473        -9.64469         6.41204
     2020.28747        -9.35611         6.38117
     2020.29021        -1.88953         6.52129
     2020.29295         5.93505         6.41323
     2020.29568        -1.82338         6.39661
     2020.29842         0.20620         6.36098
     2020.30116        -1.46422         6.40254
     2020.30390         9.05736         6.47141
     2020.30663         2.23094         6.46192
     2020.30937         2.32651         6.50941
     2020.31211        -3.25691         6.46904
     2020.31485        -0.84233         6.47973
     2020.31759        -8.70175         6.30161
     2020.32032        -4.39117         6.37048
     2020.32306       -12.46460         6.33605
     2020.32580        -3.43302         6.36692
     2020.32854        -0.40444         6.27312
     2020.33128        -4.03986         6.38711
     2020.33401        -0.46929         6.38236
     2020.33675         6.36429         6.37761
     2020.33949        -3.28313         6.32536
     2020.34223        -5.57155         6.42748
     2020.34496        -8.10497         6.27074
     2020.34770       -11.98440         6.26005
     2020.35044        -4.03882         6.46548
     2020.35318        -3.37524         6.40967
     2020.35592        -6.23066         6.45598
     2020.35865        -0.62208         6.32418
     2020.36139        -1.39551         6.33486
     2020.36413        -0.24893         6.34080
     2020.36687        -1.70835         6.47260
     2020.36961        -3.42977         6.42154
     2020.37234        -0.19719         6.31349
     2020.37508         0.49838         6.25293
     2020.37782         1.16196         6.30874
     2020.38056        -2.75146         6.35149
     2020.38329         2.20012         6.37523
     2020.38603        -7.50531         6.28737
     2020.38877        -3.14273         6.39067
     2020.39151        -7.85915         6.20781
     2020.39425         4.91343         6.36455
     2020.39698         5.46301         6.35861
     2020.39972         4.98958         6.37998
     2020.40246        -1.54584         6.30874
     2020.40520        -3.57026         6.41798
     2020.40794         0.86532         6.33605
     2020.41067         1.14590         6.41086
     2020.41341         1.72847         6.30755
     2020.41615         0.52005         6.29568
     2020.41889        -7.17937         6.33367
     2020.42162         0.20021         6.31468
     2020.42436        -2.74721         6.50229
     2020.42710         3.64236         6.52366
     2020.42984         0.66194         6.24699
     2020.43258        -1.71648         6.35505
     2020.43531        -5.50390         6.29924
     2020.43805         1.09867         6.27787
     2020.44079        -3.06075         6.37405
     2020.44353         1.10783         6.33367
     2020.44626        -1.98359         6.35030
     2020.44900         3.11799         6.32061
     2020.45174         1.38756         6.29924
     2020.45448         2.89014         6.38711
     2020.45722         1.95872         6.33367
     2020.45995         1.12130         6.32418
     2020.46269        -3.01012         6.30043
     2020.46543        10.76445         6.34555
     2020.46817        12.67803         6.42273
     2020.47091         9.23161         6.37642
     2020.47364         0.21919         6.44648
     2020.47638         6.00077         6.56285
     2020.47912        -2.45366         6.30636
     2020.48186         3.52092         6.33249
     2020.48459        -5.34750         6.45835
     2020.48733         7.99408         6.53554
     2020.49007        -5.21735         6.39305
     2020.49281         3.41623         6.57591
     2020.49555         2.62181         6.30993
     2020.49828         2.52039         6.28855
     2020.50102         4.26497         6.27193
     2020.50376         3.53854         6.35861
     2020.50650        -0.45188         6.26837
     2020.50924        -6.59430         6.21493
     2020.51197         1.21728         6.34792
     2020.51471         1.07986         6.32655
     2020.51745         3.22643         6.33486
     2020.52019         7.83601         6.57472
     2020.52292         6.82459         6.35149
     2020.52566         8.73617         6.38236
     2020.52840         7.58175         6.28024
     2020.53114        -0.60868         6.25887
     2020.53388        -3.84610         6.37998
     2020.53661         1.79548         6.61272
     2020.53935         1.88006         6.40254
     2020.54209         7.13363         6.28499
     2020.54483         2.91321         6.31349
     2020.54757         5.99779         6.44529
     2020.55030         4.03137         6.35386
     2020.55304        17.82195         6.40017
     2020.55578         6.00452         6.44410
     2020.55852        13.53110         6.54503
     2020.56125        10.00868         6.48329
     2020.56399         4.66726         6.49160
     2020.56673         1.30284         6.58066
     2020.56947        12.52641         6.75164
     2020.57221        14.25199         6.86445
     2020.57494        -1.70443         6.37880
     2020.57768         6.51615         6.37761
     2020.58042         5.43472         6.60797
     2020.58316         6.75830         6.71602
     2020.58590         3.06588         6.50110
     2020.58863        10.07146         6.55453
     2020.59137         1.69404         6.40848
     2020.59411         6.08861         6.49279
     2020.59685        10.14819         6.62340
     2020.59958         0.95877         6.69346
     2020.60232        21.65235         6.54860
     2020.60506         1.15093         6.58541
     2020.60780        17.90050         6.77777
     2020.61054         4.99608         6.39067
     2020.61327         3.82466         6.44648
     2020.61601         4.53724         6.49873
     2020.61875         6.26282         6.39661
     2020.62149        -2.34261         6.37642
     2020.62423         1.67997         6.42986
     2020.62696         1.89655         6.85020
     2020.62970         2.42713         6.82408
     2020.63244         9.24870         6.52010
     2020.63518        12.81928         6.42748
     2020.63791         6.56986         6.65309
     2020.64065        13.50344         6.50110
     2020.64339         1.43802         6.41442
     2020.64613         2.34059         6.40848
     2020.64887         5.98517         6.42629
     2020.65160        10.00475         6.37167
     2020.65434         7.79733         6.44410
     2020.65708         8.18991         6.79083
     2020.65982        12.11548         6.42748
     2020.66256         1.92606         6.44054
     2020.66529         7.12464         6.58541
     2020.66803        -3.78578         6.71840
     2020.67077         7.70080         6.70177
     2020.67351        10.97837         6.71009
     2020.67624         2.20995         6.41086
     2020.67898        -9.98147         6.44292
     2020.68172         1.09811         6.37048
     2020.68446        -2.09132         6.45123
     2020.68720        -1.71674         6.50822
     2020.68993         4.56984         6.40373
     2020.69267         1.10542         6.55810
     2020.69541         4.30300         6.81458
     2020.69815         8.08657         6.61509
     2020.70089         2.24515         6.48804
     2020.70362         4.88173         6.43579
     2020.70636        -0.52269         6.71127
     2020.70910         0.61689         6.65546
     2020.71184         4.32246         6.58184
     2020.71457         4.21904         6.59728
     2020.71731        19.25562         6.55810
     2020.72005        13.03720         7.01644
     2020.72279        18.33378         6.44648
     2020.72553         8.07235         6.59847
     2020.72826        10.33293         6.56285
     2020.73100        17.97851         6.54503
     2020.73374         8.45909         6.64953
     2020.73648         9.76466         6.52485
     2020.73921         1.44724         6.42629
     2020.74195         9.94182         6.49516
     2020.74469         6.03040         6.45954
     2020.74743         8.60198         6.44173
     2020.75017         8.63655         6.54028
     2020.75290        12.94913         6.45598
     2020.75564         3.62271         6.48566
     2020.75838        20.82629         6.52129
     2020.76112        10.20687         6.78014
     2020.76386        -1.57056         6.42392
     2020.76659         7.28202         6.34555
     2020.76933        16.97760         6.48804
     2020.77207         6.14518         6.37286
     2020.77481        18.16776         6.42986
     2020.77754        24.30333         6.32180
     2020.78028        14.52091         6.33486
     2020.78302        12.08049         6.34080
     2020.78576        23.53007         6.37642
     2020.78850         5.27864         6.54385
     2020.79123        -8.67278         6.41204
     2020.79397         6.73680         6.25768
     2020.79671         6.53638         6.31824
     2020.79945         7.85196         6.33011
     2020.80219        21.36853         6.63409
     2020.80492        10.40411         6.29449
     2020.80766         7.84669         6.37048
     2020.81040         6.71427         6.37048
     2020.81314         7.31285         6.36811
     2020.81587         2.35942         6.40848
     2020.81861        -7.18200         6.78845
     2020.82135        -1.21342         6.38117
     2020.82409        12.89116         6.31111
     2020.82683         9.83874         6.45479
     2020.82956         4.38931         6.42392
     2020.83230         9.99789         6.46429
     2020.83504         6.62447         6.59253
     2020.83778        16.49505         6.51060
     2020.84052        11.38962         6.52010
     2020.84325        12.17920         6.58659
     2020.84599         7.35978         6.60322
     2020.84873         8.76436         6.33367
     2020.85147         3.46594         6.33724
     2020.85420         8.71251         6.31111
     2020.85694        12.15509         6.43698
     2020.85968        17.66967         6.33249
     2020.86242        15.50125         6.32299
     2020.86516        12.62883         6.59728
     2020.86789        19.68440         6.45123
     2020.87063        28.07298         6.29568
     2020.87337        22.07556         6.28380
     2020.87611        16.90514         6.35742
     2020.87885        15.25471         6.56166
     2020.88158        11.48729         6.38948
     2020.88432        10.93987         6.39661
     2020.88706         3.03545         6.65071
     2020.88980         8.58203         6.49041
     2020.89253        15.93260         6.33961
     2020.89527        12.53418         6.53554
     2020.89801         8.93576         6.64240
     2020.90075        20.13134         6.43104
     2020.90349        12.06292         6.56878
     2020.90622        15.50849         6.43579
     2020.90896         6.60307         6.47498
     2020.91170        -2.36935         6.69227
     2020.91444         3.61323         6.63053
     2020.91718         0.28881         6.45717
     2020.91991         0.15338         6.44054
     2020.92265        -1.36904         6.45954
     2020.92539        -4.20046         6.40017
     2020.92813        -1.00188         6.48923
     2020.93086        -3.85931         6.55572
     2020.93360         1.17327         6.68040
     2020.93634        -1.74815         6.58897
     2020.93908         3.39343         6.45954
     2020.94182         2.01901         6.45360
     2020.94455         4.39358         6.40729
     2020.94729         0.23516         6.40254
     2020.95003        -1.66726         6.35624
     2020.95277        -4.91568         6.38711
     2020.95551        -1.08810         6.30280
     2020.95824        -3.44253         6.39305
     2020.96098        10.24405         6.35030
     2020.96372        -6.04337         6.46785
     2020.96646        -9.88479         6.46548
     2020.96919       -14.45121         6.40611
     2020.97193        -0.26964         6.31705
     2020.97467         2.22494         6.38473
     2020.97741        -9.00648         6.43579
     2020.98015       -14.84790         6.61390
     2020.98288        -0.78133         6.44410
     2020.98562         9.94525         6.26243
     2020.98836         8.66283         6.27549
     2020.99110         1.03241         6.26362
     2020.99384         2.99999         6.29805
     2020.99657         3.37656         6.24581
     2020.99931         6.44014         6.24106
     2021.00205       -10.56728         6.58303
     2021.00479         0.71330         6.25174
     2021.00752        -0.43512         6.41798
     2021.01026         7.79945         6.26243
     2021.01300         5.50103         6.26718
     2021.01574         3.79261         6.32180
     2021.01848         0.70519         6.27787
     2021.02121        -1.94823         6.26243
     2021.02395        -1.56566         6.31586
     2021.02669        -3.23808         6.27668
     2021.02943        -1.70550         6.35149
     2021.03216         3.87308         6.28618
     2021.03490         1.62665         6.39067
     2021.03764        -1.73177         6.30874
     2021.04038        -4.41819         6.41204
     2021.04312        -7.25561         6.36573
     2021.04585        -9.61803         6.26124
     2021.04859         0.81054         6.30043
     2021.05133       -13.84488         6.49160
     2021.05407         3.71470         6.72433
     2021.05681         1.97328         6.42748
     2021.05954        -8.67114         6.28499
     2021.06228        -2.56357         6.28499
     2021.06502        -8.65199         6.26955
     2021.06776        -6.44041         6.30043
     2021.07049        -4.83383         6.26243
     2021.07323        -0.63625         6.28855
     2021.07597        -2.51668         6.34080
     2021.07871        -2.32510         6.31943
     2021.08145        -6.51352         6.26480
     2021.08418        -8.90094         6.26480
     2021.08692        -2.70437         6.25649
     2021.08966        -7.05579         6.23868
     2021.09240       -19.47121         6.24937
     2021.09514       -12.01063         6.57116
     2021.09787        -9.23005         6.45242
     2021.10061        -3.38748         6.25174
     2021.10335        -5.55790         6.24581
     2021.10609        -6.53532         6.22087
     2021.10882        -3.23974         6.34911
     2021.11156       -13.61216         6.26362
     2021.11430       -13.85859         6.27074
     2021.11704       -10.30601         6.25293
     2021.11978       -10.91643         6.24106
     2021.12251        -6.75585         6.24462
     2021.12525        -7.80827         6.26718
     2021.12799         4.82930         6.30161
     2021.13073        -6.28412         6.22681
     2021.13347        -7.22454         6.49635
     2021.13620        -7.02396         6.39542
     2021.13894       -14.24939         6.38711
     2021.14168       -15.48781         6.33249
     2021.14442       -15.58823         6.34555
     2021.14715        -2.99665         6.23868
     2021.14989       -10.85507         6.42867
     2021.15263       -15.17150         6.37880
     2021.15537         5.01308         6.43935
     2021.15811        -3.24934         6.56166
     2021.16084        -2.15976         6.45123
     2021.16358         4.36482         6.43342
     2021.16632        -4.85061         6.47854
     2021.16906        -3.41603         6.25887
     2021.17180        -1.86645         6.28262
     2021.17453        -7.04487         6.42511
     2021.17727         1.36370         6.45123
     2021.18001        -5.85172         6.38948
     2021.18275       -10.54914         6.58422
     2021.18548       -12.59556         6.24224
     2021.18822       -12.08598         6.28024
     2021.19096       -11.63941         6.29093
     2021.19370       -10.88883         6.36217
     2021.19644        -7.20625         6.27430
     2021.19917        -9.86667         6.28499
     2021.20191       -11.41309         6.24343
     2021.20465       -15.48952         6.51297
     2021.20739       -10.28294         6.30518
     2021.21013        -4.90536         6.42986
     2021.21286        -4.41278         6.37642
     2021.21560        -5.09620         6.43698
     2021.21834       -12.71563         6.33367
     2021.22108        -3.63805         6.34080
     2021.22381       -10.92747         6.26243
     2021.22655       -10.21489         6.28737
     2021.22929        -1.87232         6.27430
     2021.23203         1.47426         6.39423
     2021.23477       -22.15616         6.31943
     2021.23750        -3.80858         6.40492
     2021.24024       -11.86600         6.25412
     2021.24298        -8.94343         6.26362
     2021.24572       -17.62585         6.33486
     2021.24846       -18.19427         6.70059
     2021.25119        -7.94869         6.30518
     2021.25393       -10.44711         6.31586
     2021.25667        -8.23154         6.35267
     2021.25941        -5.52796         6.33724
     2021.26214        -6.69538         6.33842
     2021.26488        -3.17580         6.46904
     2021.26762       -10.99222         6.43460
     2021.27036       -13.08865         6.42036
     2021.27310        -4.43007         6.30280
     2021.27583       -16.10149         6.33842
     2021.27857       -12.93291         6.36455
     2021.28131        -9.12834         6.28974
     2021.28405        -9.64276         6.30755
     2021.28679        -9.34718         6.47498
     2021.28952        -6.30760         6.31586
     2021.29226        -8.79702         6.39661
     2021.29500       -10.42145         6.30043
     2021.29774       -14.10687         6.53435
     2021.30047        -8.85329         6.26124
     2021.30321        -4.42071         6.35386
     2021.30595        -5.58813         6.53554
     2021.30869         0.23344         6.54978
     2021.31143        -4.99598         6.28499
     2021.31416        -6.63740         6.29568
     2021.31690        -1.00182         6.27787
     2021.31964        -5.35024         6.54503
     2021.32238        -9.97967         6.60678
     2021.32512       -16.77809         6.35386
     2021.32785       -16.33451         6.43104
     2021.33059        -2.99893         6.34317
     2021.33333        -4.96936         6.32655
     2021.33607        -0.70178         6.40136
     2021.33880        -8.43520         6.40017
     2021.34154       -11.03762         6.36455
     2021.34428        -3.55204         6.51060
     2021.34702       -11.09547         6.33249
     2021.34976        -6.68089         6.26005
     2021.35249        -6.46031         6.26124
     2021.35523       -10.65573         6.27668
     2021.35797       -12.58315         6.29805
     2021.36071       -13.14958         6.45598
     2021.36344       -10.62400         6.24224
     2021.36618        -8.58142         6.30043
     2021.36892       -12.18184         6.27549
     2021.37166       -12.99426         6.31230
     2021.37440        -9.37769         6.59491
     2021.37713        -7.12511         6.23749
     2021.37987        -4.44753         6.45004
     2021.38261       -12.73695         6.74808
     2021.38535       -15.77938         6.58897
     2021.38809       -13.06980         6.40967
     2021.39082        -7.69522         6.32774
     2021.39356        -6.75864         6.26718
     2021.39630        -2.76906         6.33961
     2021.39904         1.53551         6.32655
     2021.40177        -0.60391         6.31705
     2021.40451        -4.83333         6.53672
     2021.40725        -4.32575         6.32180
     2021.40999        -0.10217         6.29449
     2021.41273        -0.67760         6.38117
     2021.41546       -20.93102         6.35149
     2021.41820       -14.01544         6.40848
     2021.42094         6.13614         6.54147
     2021.42368         6.30171         6.35267
     2021.42642        -1.69071         6.42273
     2021.42915         3.50487         6.30636
     2021.43189        -0.24155         6.34674
     2021.43463        -5.65997         6.35030
     2021.43737         1.29960         6.40729
     2021.44010        -0.90782         6.42629
     2021.44284        -8.15724         6.52129
     2021.44558        -0.67766         6.47379
     2021.44832        -1.52708         6.61390
     2021.45106         3.12849         6.60797
     2021.45379        -1.44293         6.52604
     2021.45653        -0.03635         6.57116
     2021.45927        -1.71577         6.32180
     2021.46201        -2.83019         6.32774
     2021.46475        -4.75862         6.36455
     2021.46748        -4.54904         6.36573
     2021.47022        -2.30746         6.72671
     2021.47296        -7.55288         6.59253
     2021.47570        -6.29931         6.32299
     2021.47843        -2.69373         6.43223
     2021.48117        -1.88415         6.45954
     2021.48391        -5.72957         6.44885
     2021.48665        -8.65899         6.41204
     2021.48939         1.78358         6.50822
     2021.49212        11.57316         6.52010
     2021.49486         5.00474         6.58422
     2021.49760        -1.91168         6.64478
     2021.50034         3.51990         6.70415
     2021.50308        -4.46853         6.30399
     2021.50581       -19.92595         6.31943
     2021.50855        -3.43737         6.33367
     2021.51129         6.54721         6.47141
     2021.51403         3.74379         6.49398
     2021.51676         2.49636         6.52841
     2021.51950         8.34694         6.60322
     2021.52224         9.21652         6.26837
     2021.52498         5.12710         6.30874
     2021.52772         2.12367         6.43935
     2021.53045         4.66525         6.43817
     2021.53319         2.15183         6.44885
     2021.53593         5.17441         6.50822
     2021.53867         5.74099         6.74689
     2021.54141         8.75456         6.55572
     2021.54414         2.08914         6.48566
     2021.54688         4.78172         6.38711
     2021.54962         7.18630         6.44173
     2021.55236         3.81188         6.23987
     2021.55509        10.26845         6.47735
     2021.55783         3.47403         6.41679
     2021.56057         8.02061         6.42273
     2021.56331         6.81319         6.45123
     2021.56605         4.48277         6.51891
     2021.56878         5.93234         6.47616
     2021.57152         1.71892         6.48448
     2021.57426         1.84750         6.49398
     2021.57700         2.04808         6.76352
     2021.57974         8.71965         6.65784
     2021.58247        -8.85077         6.63647
     2021.58521         3.49781         6.79083
     2021.58795         1.35039         6.61034
     2021.59069         3.09497         6.74333
     2021.59342        12.15654         6.75283
     2021.59616         5.70612         6.65071
     2021.59890         2.79470         6.47141
     2021.60164         4.76028         6.38711
     2021.60438        -0.31814         6.74333
     2021.60711        -3.29957         6.62459
     2021.60985         2.08401         6.54622
     2021.61259         4.32659         6.49754
     2021.61533         4.10017         6.43698
     2021.61807       -15.01325         6.81577
     2021.62080        -4.77668         6.98200
     2021.62354        -1.73510         6.46666
     2021.71663        14.49855         6.34911
     2021.71937        10.06713         6.48091
     2021.72210        -2.48530         6.50585
     2021.72484        -1.39772         6.72433
     2021.72758         2.39686         6.55216
     2021.73032        -3.11856         6.88820
     2021.73305        19.28102         6.58066
     2021.73579        18.28559         6.51179
     2021.73853        19.16117         6.53791
     2021.74127        20.20275         6.48685
     2021.74401         9.46633         6.51535
     2021.74674        12.18291         6.53672
     2021.74948         2.09248         6.52010
     2021.75222        -8.21694         6.51179
     2021.75496        -4.99036         6.67684
     2021.75770         6.40922         6.42273
     2021.76043         9.57280         6.41086
     2021.76317         4.33237         6.41679
     2021.76591         6.52795         6.37167
     2021.76865        18.35953         6.44648
     2021.77138        -0.77589         6.71127
     2021.77412        24.16068         6.47379
     2021.77686        15.14926         6.48566
     2021.77960        13.13984         6.83833
     2021.78234        15.51342         6.53791
     2021.78507         6.93300         6.56285
     2021.78781         5.77657         6.51060
     2021.79055        13.07115         6.53079
     2021.79329        10.12673         6.50466
     2021.79603         6.35831         6.48091
     2021.79876        12.35989         6.47379
     2021.80150        14.25746         6.56641
     2021.80424        12.22104         6.58778
     2021.80698        11.20362         6.53554
     2021.80971        12.11220         6.57234
     2021.81245        16.17378         6.67802
     2021.81519        22.22235         6.50585
     2021.81793        23.63193         6.50347
     2021.82067         6.34351         6.79202
     2021.82340        10.27509         6.50229
     2021.82614        14.74766         6.44529
     2021.82888        11.75124         6.50466
     2021.83162        12.23982         6.45360
     2021.83436        12.23040         6.49873
     2021.83709        12.48498         6.64715
     2021.83983        11.80255         6.50466
     2021.84257        10.94413         7.02950
     2021.84531         9.16971         6.56047
     2021.84804        12.35129         6.55335
     2021.85078        16.40387         6.50110
     2021.85352        10.49244         6.56760
     2021.85626         1.87402         6.48448
     2021.85900        10.93260         6.48566
     2021.86173         2.96418         6.47973
     2021.86447         2.07676         6.62340
     2021.86721        -3.92067         6.63765
     2021.86995        12.19391         6.63172
     2021.87269        11.92049         6.74452
     2021.87542        11.65907         6.64478
     2021.87816         1.33164         6.58422
     2021.88090         0.31622         6.58778
     2021.88364        -7.04520         6.56878
     2021.88637       -15.02362         6.43223
     2021.88911        -4.04104         6.41917
     2021.89185         3.34053         6.69465
     2021.89459        13.54511         6.68752
     2021.89733         2.31369         6.64953
     2021.90006         5.55827         6.63884
     2021.90280       -14.53115         6.62578
     2021.90554         2.98042         6.49398
     2021.90828        -2.11000         6.66259
     2021.91102         3.62558         6.56522
     2021.91375         1.82616         6.50466
     2021.91649         9.05374         6.55810
     2021.91923        -9.32869         6.64596
     2021.92197       -12.72911         6.71483
     2021.92470       -10.77353         6.47141
     2021.92744       -13.23795         6.52960
     2021.93018        -9.02438         6.39423
     2021.93292        -7.03880         6.64478
     2021.93566         1.95278         6.63884
     2021.93839         8.71636         6.53910
     2021.94113         6.25894         6.81577
     2021.94387        19.43551         6.39898
     2021.94661         3.68609         6.39423
     2021.94935         8.24667         6.29805
     2021.95208         5.97525         6.33724
     2021.95482         2.29683         6.45360
     2021.95756         0.38340         6.53910
     2021.96030        -0.38202         6.36573
     2021.96303       -12.48644         6.34792
     2021.96577        -4.38086         6.44054
     2021.96851        -7.07628         6.36455
     2021.97125        -0.02471         6.53197
     2021.97399         0.28087         6.32061
     2021.97672         2.59245         6.29211
     2021.97946         1.86203         6.27312
     2021.98220         4.55360         6.33249
     2021.98494         4.66518         6.29568
     2021.98767         6.97176         6.44173
     2021.99041         4.70534         6.42154
     2021.99315         5.27892         6.50229
     2021.99589         4.73549         6.33367
     2021.99863         7.94507         6.35624
     2022.00136         2.94965         6.42392
     2022.00410         6.94423         6.47023
     2022.00684        -3.54919         6.28499
     2022.00958        -9.13562         6.32299
     2022.01232       -23.10204         6.29686
     2022.01505         2.71154         6.32418
     2022.01779         7.37912         6.30280
     2022.02053        -6.83331         6.33961
     2022.02874        -4.93857         6.45123
     2022.03148       -10.78399         6.43342
     2022.03422        -3.59342         6.31468
     2022.03696        -0.30684         6.46310
     2022.03969       -16.90526         6.50941
     2022.04243        -1.76368         6.72671
     2022.04517         6.74190         6.48923
     2022.04791        -1.88253         6.47379
     2022.05065        -4.83895         6.50229
     2022.05338       -15.06137         6.56878
     2022.05612       -14.07979         6.71840
     2022.05886       -12.68621         6.72315
     2022.06160       -15.19564         6.63053
     2022.06433        -9.03506         6.60915
     2022.06707       -17.05448         6.54622
     2022.06981        -5.02490         6.36692
     2022.07255       -12.06633         6.39661
     2022.07529       -16.10775         6.49873
     2022.07802        -3.13417         6.41798
     2022.08076        -0.86959         6.46904
     2022.08350        -1.85701         6.52247
     2022.08624        -6.44044         6.42511
     2022.08898        -6.49486         6.47023
     2022.09171       -11.95928         6.49160
     2022.09445       -21.33170         6.39423
     2022.09719        -9.47912         6.49041
     2022.09993       -11.95455         6.56878
     2022.10266        -3.92597         6.71721
     2022.10540       -18.28739         6.70771
     2022.10814        -3.87681         7.11024
     2022.11088       -12.26823         6.96657
     2022.11362        -4.09066         6.53910
     2022.11635        -0.11908         6.71840
     2022.11909        -2.38850         6.41204
     2022.12183        -2.48092         6.41561
     2022.12457       -13.95435         6.60441
     2022.12731        -7.79077         6.33961
     2022.13004       -12.92819         6.41442
     2022.13278        -5.66561         6.37880
     2022.13826         7.27554         6.37405
     2022.14099        -5.92188         6.29686
     2022.14373       -25.62530         6.33961
     2022.14647        -5.55872         6.34555
     2022.14921        -5.84814         6.56047
     2022.15195        -5.19457         6.62815
     2022.15468        -4.69299         6.41442
     2022.15742        -2.35141         6.51179
     2022.16016         4.35617         6.32892
     2022.16290        -0.31625         6.38948
     2022.16564        -1.25368         6.38117
     2022.16837        -6.16510         6.40254
     2022.17111        -7.36452         6.35861
     2022.17385        -7.73994         6.43104
     2022.17659         3.07663         6.40017
     2022.17932       -19.18279         6.47973
     2022.18206       -13.02221         6.33367
     2022.18480       -14.51563         6.55691
     2022.18754        -4.69905         6.42748
     2022.19028       -16.57348         6.34911
     2022.19301        -5.71690         6.40967
     2022.19575         3.40168         6.53554
     2022.19849       -13.74774         6.37761
     2022.20123        -3.79616         6.50110
     2022.20397         1.49541         6.49873
     2022.20670       -13.07801         6.66378
     2022.20944         1.81757         6.65190
     2022.21218        -0.35885         6.37998
     2022.21492        -9.30527         6.45835
     2022.21765        -9.55570         6.33842
     2022.22039       -12.08112         6.37761
     2022.22313        -8.92254         6.38473
     2022.22587        -9.75796         6.54860
     2022.22861        -6.57239         6.47498
     2022.23134        -6.57881         6.39067
     2022.23408        -4.29723         6.38948
     2022.23676       -10.04550         6.62697
     2022.23956       -10.55307         6.43342
     2022.24230       -17.47550         6.44529
     2022.24503        -3.97892         6.47616
     2022.24777        -8.04434         6.50704
     2022.25051       -14.59776         6.42986
     2022.25325        -8.34418         6.35624
     2022.25598         1.76439         6.44410
     2022.25872         1.40497         6.52366
     2022.26146        -7.99845         6.34199
     2022.26420       -14.50087         6.36692
     2022.26694       -19.04530         6.51416
     2022.26967        -7.37472         6.64953
     2022.27241        -1.23814         6.61034
     2022.27515        -8.76356         6.44767
     2022.27789        -7.91698         6.34199
     2022.28062       -17.88541         6.49991
     2022.28336        -9.41383         6.61153
     2022.28610       -10.92025         6.76827
     2022.28884       -14.06867         6.48566
     2022.29158       -13.02309         6.44292
     2022.29431       -10.55452         6.42748
     2022.29705        -7.94394         6.48329
     2022.29979        -5.49336         6.48804
     2022.30253        -4.66378         6.61984
     2022.30527        -4.87420         6.51060
     2022.30800       -12.55863         6.49279
     2022.31074        -5.92705         6.39305
     2022.31348        -7.88547         6.38117
     2022.31622       -11.34889         6.54385
     2022.31895       -19.87432         6.60678
     2022.32169        -6.88474         6.55691
     2022.32443       -12.23116         6.39542
     2022.32717       -13.73358         6.40611
     2022.32991       -10.72500         6.37761
     2022.33264       -17.01143         6.47260
     2022.33538       -17.11785         6.68277
     2022.33812       -13.58927         6.69227
     2022.34086       -10.47969         6.42629
     2022.34360        -8.62711         6.42629
     2022.34633       -10.83754         6.38592
     2022.34907        -7.82796         6.44648
     2022.35181        -9.40938         6.32418
     2022.35455        -7.32480         6.51891
     2022.35728        -6.42722         6.34674
     2022.36002        -8.17965         6.44767
     2022.36276       -16.84507         6.38592
     2022.36550        -5.93649         6.42154
     2022.36824        -9.83891         6.42273
     2022.37097       -15.33034         6.52960
     2022.37371       -23.24776         6.36930
     2022.37645       -12.56718         6.37405
     2022.37919        -7.17260         6.66853
     2022.38193       -24.69502         6.66615
     2022.38466       -16.70245         6.35861
     2022.38740       -24.61787         6.29211
     2022.39014       -10.62429         6.35861
     2022.39288       -14.32071         6.46666
     2022.39561       -10.89913         6.43698
     2022.39835        -7.77856         6.66971
     2022.40109        -6.28598         6.73146
     2022.40383         0.04460         6.41442
     2022.40657        -1.16482         6.40373
     2022.40930        -9.56724         6.61153
     2022.41204        -5.06267         6.57709
     2022.41478        -5.25009         6.37642
     2022.41752        -4.21451         6.62697
     2022.42026       -17.25593         6.60203
     2022.42299         1.02264         6.48685
     2022.42573        -0.77378         6.43698
     2022.42847        -2.59320         6.35267
     2022.43121        -5.52862         6.49160
     2022.43394        12.96596         6.67328
     2022.43668       -18.37147         6.48685
     2022.43942        -1.75389         6.61153
     2022.44216        -5.83231         6.49398
     2022.44490         4.97327         6.64715
     2022.44763         5.80085         6.34555
     2022.45037        -4.56958         6.51416
     2022.45311       -14.90700         6.42154
     2022.45585         3.09058         6.52722
     2022.45859       -12.78484         6.44173
     2022.46132       -12.84226         6.34674
     2022.46406        -9.33169         6.52841
     2022.46680        -4.98911         6.53910
     2022.46954        -0.14653         6.49991
     2022.47227        -8.97995         6.49398
     2022.47501         3.02062         6.32892
     2022.47775       -11.68080         6.50347
     2022.48049       -10.32722         6.34199
     2022.48323         5.82336         6.43698
     2022.48596        13.10094         6.48448
     2022.48870         0.71251         6.60322
     2022.49144        -2.32691         6.46548
     2022.49418        -1.67933         6.56403
     2022.49692        -3.99875         6.50585
     2022.49965       -10.40417         6.40373
     2022.50239       -23.23360         6.38236
     2022.50513        -0.53402         6.82645
     2022.50787        20.66656         6.77896
     2022.51060        -1.29186         6.62459
     2022.51334        -1.61828         6.58184
     2022.51608        -7.46371         6.47854
     2022.51882       -12.36613         6.40848
     2022.52156       -13.11955         6.37998
     2022.52429        -2.45297         6.45242
     2022.52703        -2.80740         6.53672
     2022.52977        22.16618         6.45835
     2022.53251         4.82576         6.62815
     2022.53525         2.60634         6.48448
     2022.53798         1.19392         6.48091
     2022.54072        -7.41451         6.49041
     2022.54346         1.96307         6.55335
     2022.54620        -1.88135         6.78014
     2022.54893         7.05223         6.70771
     2022.55167        17.37681         6.63884
     2022.55441        -1.29862         6.42273
     2022.55715        16.70496         6.49041
     2022.55989        -4.31346         6.54503
     2022.56262        -6.07188         6.53791
     2022.56810        -3.02573         6.43579
     2022.57084         3.74985         6.53316
     2022.57357         9.24643         6.78133
     2022.57631        -5.99399         6.37642
     2022.57905        -5.85042         6.53197
     2022.58179        13.22616         6.65546
     2022.58453        13.21274         6.75877
     2022.58726        -4.56368         6.51891
     2022.59000         3.33590         6.46073
     2022.59274        -5.34653         6.38117
     2022.59548         5.55005         6.48091
     2022.59822         9.35763         6.67446
     2022.60095       -12.56279         6.68396
     2022.60369        -7.74321         6.36692
     2022.60643         2.28336         6.37048
     2022.60917         6.49794         6.58422
     2022.61190        12.29552         6.62815
     2022.61464        14.66910         6.58422
     2022.61738        20.89467         6.50941
     2022.62012         9.37825         6.55928
     2022.62286         8.96083         6.45242
     2022.62559         6.61241         6.53910
     2022.62833        -2.05801         6.54860
     2022.63107        13.17356         6.56047
     2022.63381        12.37714         6.53910
     2022.63655        11.38272         6.35624
     2022.63928         7.40730         6.53435
     2022.64202         7.22888         6.94994
     2022.64476         4.36345         6.61984
     2022.64750        10.80203         6.42511
     2022.65023        15.26461         6.54028
     2022.65297        19.49419         6.44648
     2022.65571         7.68177         6.44410
     2022.65845        12.30634         6.47973
     2022.66119        15.73692         6.61865
     2022.66392        -0.35450         6.47023
     2022.66666        19.32908         6.87632
     2022.66940         9.33165         6.49279
     2022.67214         1.46323         6.53791
     2022.67488        16.94681         6.55928
     2022.67761        11.27839         6.46666
     2022.68035        11.59997         6.35149
     2022.68309         3.48154         6.42986
     2022.68583        11.97712         6.63409
     2022.68856         8.28370         6.63409
     2022.69130        11.95528         6.55691
     2022.69404        14.34186         6.56403
     2022.69678        10.20743         6.44885
     2022.69952         2.75301         6.45954
     2022.70225        10.66159         6.65903
     2022.70499         2.78317         6.72315
     2022.70773        11.40275         6.59966
     2022.71047         7.20632         6.33961
     2022.71321        16.62190         6.46666
     2022.71594        16.78648         6.50822
     2022.71868         8.18106         6.32299
     2022.72142        16.83763         6.31349
     2022.72416         2.68621         6.49279
     2022.72689         6.02979         6.56285
     2022.72963         6.58437         6.52247
     2022.73237         3.39795         6.37761
     2022.73511        10.11452         6.39186
     2022.73785        14.41210         6.54978
     2022.74058        13.06868         6.61034
     2022.74332        19.11926         7.17674
     2022.74606        10.88484         6.46666
     2022.74880         3.94841         6.45717
