# ================= DQRFIT RESULTS ================
# INPUT FILE: series/SPN1.rad
# OUTPUT: LDETRENDED
# FILTER FUNCTION: f(t)
# f(t)=+line(t)+annual(t)
# line(t)=+P 1+P 2*t
# annual(t)=+P 3*sin(2*pi*t+P 4)
# heav(t)=(t<0?0:1)
# TOTAL OBSERVATIONS MTOT= 2541
# INITIAL TIME INTERVAL= 2008.2651 - 2001.0825 =  7.1825
# TOTAL OBSERVATIONS AFTER PREFILTER M= 2531
# TIME-SPAN= 2008.2601 - 2001.0825 =  7.1775
# OBSERVATIONS: USED M=  2531 REJECTED MTOT-M=    10 %USED=   99.6065
# N=  4 PARAMETERS
# MAXSIG= 175.00000
# MAXRES=  29.37927
# SCALE FACTOR FOR LENGTHS: SCL=  10.00000
# SCALE FACTOR FOR SIGMAS: SCLSIG=   1.00000
# CHI^2=   2460.005 DOF=  2527 CHI^2/DOF=   0.97349
# RMS=      6.285 SDEV=      6.285 MEAN=   -0.10773
#  P #       PARAMETER +-    SIGMA %error PARAMETER NAME
# P 1 =      2169.35812 +-  115.531   5.33 YZERO                              
# P 2 =        -1.07677 +-    0.058   5.35 SLOPE                              
# P 3 =         6.26249 +-    0.166   2.65 ANNUAL AMPLITUDE                   
# P 4 =        -2.70662 +-    0.034   1.25 ANNUAL PHASE                       
#       T            LDETRENDED       SIG_OBS
     2001.08255       -51.23465        22.54211
     2001.08419        -1.88988         6.51192
     2001.08693        -2.34194         6.26921
     2001.08967        -0.20799         6.23171
     2001.09241         0.44996         6.14390
     2001.09515         2.11591         6.30177
     2001.09788        -3.97714         6.10345
     2001.10062        -4.47820         6.12022
     2001.10336        -1.51025         6.16462
     2001.10610       -14.27330         6.19915
     2001.10883        -7.80935         6.23369
     2001.11157        -4.73140         6.05806
     2001.11431         4.79754         6.25737
     2001.11705        -7.93751         6.11233
     2001.11979         1.31344         6.11430
     2001.12252        -4.09761         6.16561
     2001.12526        -6.44066         6.04622
     2001.12800       -12.12671         5.75023
     2001.13074        -6.63677         5.80055
     2001.13347         6.04318         5.94164
     2001.13621        -4.36987         5.91894
     2001.13895        -5.06792         6.19027
     2001.14169         5.42503         6.04425
     2001.14443        -8.88103         5.96630
     2001.14716        -4.45808         5.94854
     2001.14990         4.29487         6.31361
     2001.15264        -4.26018         6.24059
     2001.15538         9.39077         6.16462
     2001.15812        -6.40529         6.16067
     2001.16085        -1.60334         6.16955
     2001.16359         8.96461         6.27611
     2001.16633        -0.40744         6.61552
     2001.16907       -15.03949         6.36886
     2001.17180         1.79045         6.16758
     2001.17454       -23.44460         6.20113
     2001.17728       -13.90865         6.15179
     2001.18002        -7.69970         6.14883
     2001.18276        -9.34575         6.04918
     2001.18549        -0.24181         6.26329
     2001.18823        -4.62286         6.27611
     2001.19097         2.14209         6.21297
     2001.19371        -2.35696         6.40536
     2001.19642        -0.87604         6.12219
     2001.19918         5.06893         6.12022
     2001.20192        -1.08512         6.01860
     2001.20466         0.61283         6.28598
     2001.20740        -6.99422         6.18731
     2001.21013        -5.57327         6.08668
     2001.21287        -4.36233         6.17054
     2001.21560        -9.48039         6.90363
     2001.21835        -7.00043         6.44779
     2001.22109        -8.27148         6.15771
     2001.22382        -4.77553         6.18435
     2001.22656        -7.67859         6.30275
     2001.22930         2.46836         6.39944
     2001.23204        -4.99569         6.37478
     2001.23478        -3.93774         6.49120
     2001.23751        -4.37679         6.53067
     2001.24025        -3.32885         6.41720
     2001.24299        -6.19090         6.29091
     2001.24573         2.45605         8.80688
     2001.24846         3.19500         6.33926
     2001.25120        17.83495         6.37971
     2001.25394        -2.20311         6.45470
     2001.25668        -1.36716         6.34913
     2001.25942        -5.11021         6.78819
     2001.26215         3.69574         6.21198
     2001.26489         6.09869         6.49416
     2001.26763         4.32463         6.28697
     2001.27037        -5.30642         6.41227
     2001.27309         3.02252         6.46456
     2001.27584        13.62948         6.56718
     2001.27852         0.34837         6.58790
     2001.28126        -5.90269         6.35801
     2001.28406        -8.74168         6.57112
     2001.28679        -6.08174         6.57112
     2001.28953        -3.33378         6.72405
     2001.29227        -1.37983         6.71517
     2001.29493       -11.58097         7.05162
     2001.29775         3.52106         6.64710
     2001.30048         3.31401         6.38662
     2001.30323        -7.82804         7.05557
     2001.30596        -3.09309         6.84245
     2001.30870        -5.68414         6.30473
     2001.31144        -5.46120         6.33137
     2001.31417        -3.98425         7.04768
     2001.31693        -3.99328         6.26822
     2001.31965         5.51165         6.32051
     2001.32239         6.12160         6.54251
     2001.32512       -12.04646         6.53560
     2001.32786        -7.48351         6.45272
     2001.33066        -5.25950         6.16857
     2001.33334        -7.50861         6.12910
     2001.33613       -10.59360         6.42608
     2001.33881       -10.26972         6.37872
     2001.34155        -6.27177         6.53067
     2001.34429        -9.65382         6.26329
     2001.34703        -8.00387         6.41918
     2001.34982        -3.30686         6.41227
     2001.35250        -3.62898         6.34617
     2001.35524        -0.38803         6.15278
     2001.35798        -5.02408         6.21889
     2001.36072         1.72187         6.89080
     2001.36351         1.08287         6.26131
     2001.36625        -6.43617         6.33038
     2001.36899         3.09678         6.30867
     2001.37167        -8.85934         6.30275
     2001.37446       -10.08233         6.37478
     2001.37720        -2.36038         5.98702
     2001.37988        -5.61350         6.14785
     2001.38262        -5.05455         6.15377
     2001.38536         0.64140         6.47048
     2001.38815        -2.67160         6.65203
     2001.39083         0.73830         6.27611
     2001.39364         6.39032         6.13601
     2001.39631         5.73719         6.13107
     2001.39905         4.50314         6.10049
     2001.40178         3.46008         6.19323
     2001.40452         5.12804         7.01314
     2001.40726        -1.69302         6.70333
     2001.41000        -4.50207         6.16857
     2001.41279         0.19394         6.02353
     2001.41553         2.63289         5.99689
     2001.41787        -3.30759         7.26474
     2001.42095        -2.98228         6.12219
     2001.42369         3.54067         6.26427
     2001.42643         0.71162         6.22086
     2001.42922        -1.94637         6.13897
     2001.43196        -1.55842         6.08569
     2001.43464        -1.35854         6.36590
     2001.43738         1.56641         6.14390
     2001.44011         2.23436         6.10147
     2001.44285         3.36131         5.94657
     2001.44559        -6.34474         6.05609
     2001.44838        -2.56273         5.99788
     2001.45112         4.35421         6.92336
     2001.45380         0.85510         6.00380
     2001.45654         2.19105         6.06596
     2001.45928        -0.61100         6.48134
     2001.46208         0.49101         6.17449
     2001.46481         0.42195         6.38958
     2001.46749        -0.24316         6.33926
     2001.47024        -7.50921         6.34419
     2001.47297        -4.50526         6.80595
     2001.47571        -2.76131         6.21987
     2001.47844         4.87963         6.06497
     2001.48118        -3.26242         6.07089
     2001.48392        -0.67647         5.97716
     2001.48666        -0.03552         6.13403
     2001.48940         5.36043         6.16659
     2001.49213        -2.87463         6.03932
     2001.49487         2.36132         5.96334
     2001.49762         7.69128         6.13502
     2001.50035         4.76922         6.02254
     2001.50308        -0.87583         6.89376
     2001.50582         1.45011         6.02057
     2001.50856         8.21506         6.13699
     2001.51130        12.71201         6.11627
     2001.51404         2.57996         6.04622
     2001.51677         9.41991         6.08766
     2001.51951        -1.51115         5.96433
     2001.52225         2.28580         6.35209
     2001.52499         2.19375         6.05510
     2001.52773        -2.21730         6.16659
     2001.53046         8.31465         6.31262
     2001.53320        -0.76041         6.41326
     2001.53594        11.11054         6.51587
     2001.53868         1.56449         6.08766
     2001.54141         4.72144         6.05510
     2001.54415         4.89039         6.06497
     2001.54689         2.07033         6.01761
     2001.54963         6.26028         6.25638
     2001.55237         0.20223         6.04326
     2001.55510         5.13518         6.11035
     2001.55784         6.30713         6.22777
     2001.56058        17.35207         6.07089
     2001.56332        22.93402         6.44779
     2001.56606        -1.40003         6.91448
     2001.56879         7.10392         6.59283
     2001.57153        12.13187         6.33531
     2001.57427         1.86081         6.52968
     2001.57701        11.92376         6.39648
     2001.57974        10.98471         6.33926
     2001.58248         8.90466         6.22283
     2001.58523         8.82961         6.28598
     2001.58796        25.01055         6.76747
     2001.59070        22.00950         6.31755
     2001.59343        10.77345         6.22875
     2001.59617         9.80040         6.11035
     2001.59891        11.33535         6.46062
     2001.60165         0.91229         6.45174
     2001.60439        12.56024         6.47739
     2001.60712        11.11019         6.19126
     2001.60986         6.55814         6.18534
     2001.61260         7.80309         6.18435
     2001.61534        12.22603         6.18929
     2001.61807         9.70098         6.48134
     2001.62076         8.22287         6.21790
     2001.62355         6.25988         6.09062
     2001.62629         3.15883         7.51930
     2001.62903        -0.39323         6.56619
     2001.63176         6.12872         6.53264
     2001.63450         9.15967         6.42115
     2001.63724         5.12662         6.63427
     2001.63998         6.07157         6.16955
     2001.64272         1.82152         6.19817
     2001.64545         2.80846         6.21494
     2001.64819         2.77941         6.51094
     2001.65093         2.31136         6.22086
     2001.65367         0.59531         6.23763
     2001.65640         8.96326         6.40931
     2001.65914         3.65720         6.54350
     2001.66188         6.53715         6.48232
     2001.66462        18.37910         6.85627
     2001.66736        19.84405         6.70136
     2001.67009        15.62100         6.58099
     2001.67283         6.10094         6.42806
     2001.67557         0.49889         7.14141
     2001.67831        -2.73316         7.08122
     2001.68105        12.62479         6.10542
     2001.68378         4.80374         6.10049
     2001.68652         1.76668         6.14883
     2001.68926         3.23763         6.25638
     2001.69200         2.82958         6.06102
     2001.69474        -0.35847         6.19619
     2001.69747         8.51548         6.62243
     2001.70021        14.33342         7.22034
     2001.70295         6.53837         6.11035
     2001.70569         2.56932         6.17153
     2001.70842         6.27627         6.21889
     2001.71116        11.72822         6.19915
     2001.71390        11.55216         6.19718
     2001.71664         2.91211         6.25737
     2001.71938         5.87106         6.77437
     2001.72211         5.65501         6.58099
     2001.72485         4.45696         6.22579
     2001.72759         7.23790         6.06694
     2001.73033         7.71585         6.20705
     2001.73306        15.89980         6.97269
     2001.73581         1.93475         7.10885
     2001.73854        -9.69930         8.88483
     2001.74128        14.77964         6.67965
     2001.74396         4.37053         8.48622
     2001.74676        -1.28445         8.82563
     2001.74950        10.48350         9.43144
     2001.75223         5.02644         9.79946
     2001.75497         6.57639         8.10142
     2001.75771         6.60334         7.73538
     2001.76045         9.71729         8.96475
     2001.76318        15.11723         6.41326
     2001.76592        12.22418         6.52179
     2001.76871        23.07819         6.98354
     2001.77139        10.82707         7.24303
     2001.77413         8.97902         5.93078
     2001.77687         9.12997         5.93374
     2001.77961        16.55992         6.11923
     2001.78235         8.97486         6.15377
     2001.78509         7.34582         6.24849
     2001.78702        13.85090        11.48565
     2001.79056         9.81771         6.24059
     2001.79330         6.52566         6.76845
     2001.79603         5.18760         6.03636
     2001.79877        15.08355         6.50896
     2001.80151        13.93950         6.10542
     2001.80425        15.91145         6.66781
     2001.80699        12.60140         6.72899
     2001.80972        17.97134         5.98998
     2001.81246         6.11029         5.93473
     2001.81520         3.32824         6.23566
     2001.81794         7.78519         6.06596
     2001.82065        10.38511         6.26427
     2001.82349        10.86117         7.21146
     2001.82615         9.57403         6.05017
     2001.82889         8.56998         5.93769
     2001.83163        12.45193         6.31262
     2001.83436        17.80988         8.19713
     2001.83710        14.76483         6.17449
     2001.83869       -39.04247        30.40674
     2001.84258         1.61072         6.25539
     2001.84532        12.56567         6.59480
     2001.84805        32.48762         8.11918
     2001.85079        -2.64543         6.02550
     2001.85353         2.76651         6.32051
     2001.85627        -1.28454         6.24355
     2001.85901         3.26442         5.88342
     2001.86174         4.07336         5.92980
     2001.86448         6.22731         5.92980
     2001.86722         6.09625         6.06990
     2001.86996        12.83320         6.11825
     2001.87269        10.01415         6.04918
     2001.87543         7.19409         6.57606
     2001.87817         6.11005         5.93868
     2001.88091         0.33499         5.86961
     2001.88365         3.37394         6.16166
     2001.88638        12.08989         6.43496
     2001.88912        -3.78416         6.10739
     2001.89186        10.27179         5.96729
     2001.89460         8.96273         6.07878
     2001.89734         6.74768         7.64460
     2001.90007         9.68663         8.06295
     2001.90281        -7.13942         6.88093
     2001.90555        -5.51747         6.07977
     2001.90829         0.17147         6.33433
     2001.91102        10.72242         5.97814
     2001.91376         8.01737         6.19817
     2001.91650       -13.26168         6.10049
     2001.91924         6.87227         6.27907
     2001.92198        13.12321         6.13107
     2001.92471        -3.25984         6.15673
     2001.92745        11.51511         5.96236
     2001.93019         4.98406         6.10246
     2001.93293        -7.35799         6.13995
     2001.93567       -10.82005         5.87553
     2001.93840         1.15490         6.71813
     2001.94114         7.66285         6.43891
     2001.94388         3.51180         6.27019
     2001.94662        -3.58925         6.02550
     2001.94935         9.95069         5.89329
     2001.95209        11.91664         5.90414
     2001.95483         7.77459         5.87454
     2001.95757         0.80554         5.97617
     2001.96031         6.28149         6.09753
     2001.96304        -7.87757         5.97617
     2001.96578        -6.28062         5.87454
     2001.96852        -2.69867         6.14193
     2001.97126        -7.54772         5.76897
     2001.97400        -6.98777         6.18929
     2001.97673       -10.08883         5.98012
     2001.97947       -16.65988         6.17251
     2001.98221       -12.88493         5.82126
     2001.98495       -16.82898         5.92486
     2001.98768        -4.24603         5.91796
     2001.99042        -7.78809         5.99788
     2001.99316       -11.62114         5.81534
     2001.99590        -4.46719         5.90020
     2001.99864        -2.31124         6.13305
     2002.00411         5.71266         6.00084
     2002.00685        10.99860         6.04622
     2002.00959        -4.85745         6.15969
     2002.01233         1.69550         6.12713
     2002.01506         9.08145         6.16561
     2002.01780        -3.29660         6.10641
     2002.02053         0.16234         6.28006
     2002.02329        -2.06469         6.27217
     2002.02601        -3.86876         7.30914
     2002.02875        -0.97381         6.80891
     2002.03149        -5.66886         6.71123
     2002.03423        -2.06492         6.05905
     2002.03697       -10.34797         6.35011
     2002.03970        -4.13202         6.45864
     2002.04244        -9.27807         6.39944
     2002.04518        -4.82912         6.08963
     2002.04792       -12.10518         6.11726
     2002.05065         8.70077         5.93868
     2002.05339         3.91372         6.09457
     2002.05613         2.35567         5.98801
     2002.05887        -2.31138         6.03537
     2002.06161        -4.74244         5.88441
     2002.06435        -9.48948         5.89329
     2002.06708        -2.06554         5.95348
     2002.06982        -0.14259         5.96630
     2002.07256        -4.41864         6.02452
     2002.07530        -6.94970         6.09062
     2002.07803       -14.43575         6.17843
     2002.08077       -13.65680         5.97124
     2002.08351       -17.48085         5.93670
     2002.08625        -7.88490         6.12614
     2002.08898        -5.40996         6.94112
     2002.09172       -20.52101         5.90020
     2002.09446        -8.46406         5.97814
     2002.09719       -17.07312         6.43595
     2002.09994         2.48984         6.27611
     2002.10267         4.59378         6.48232
     2002.10541         2.25373         6.40635
     2002.10815       -10.26732         6.21889
     2002.11089       -18.89137         6.24651
     2002.11363       -15.91142         6.33433
     2002.11636       -14.75348         6.50304
     2002.11910        -6.34253         9.06637
     2002.12184        -5.04658         6.43595
     2002.12458       -11.75363         6.38563
     2002.12731        -0.55968         6.30670
     2002.13005        -1.34174         6.28894
     2002.13279        -3.14079         6.21691
     2002.13553        -0.50384         6.30769
     2002.13827        -9.12989         6.36195
     2002.14100       -12.96194         6.30374
     2002.14374       -13.38400         6.40832
     2002.14648       -10.50205         6.22777
     2002.14922        -8.05610         6.36491
     2002.15196       -17.83515         6.19817
     2002.15469       -20.34620         6.40339
     2002.15743       -14.57426         6.46358
     2002.16017       -12.91931         6.58395
     2002.16291       -16.76536         6.55928
     2002.16564       -21.45941         6.24651
     2002.16838       -20.58646         6.39648
     2002.17112       -18.42251         6.07188
     2002.17386       -11.58157         6.31262
     2002.17660       -14.27262         6.25441
     2002.17933        -8.20468         6.17251
     2002.18207        -9.84572         6.34222
     2002.18481       -20.10477         6.20211
     2002.18755       -12.57083         6.20310
     2002.19029         1.94012         6.53363
     2002.19302         1.20807         6.20606
     2002.19576         5.62902         6.41326
     2002.19850        -7.04303         6.17646
     2002.20124        -9.15509         6.51291
     2002.20397        -7.79114         6.08963
     2002.20671       -15.19219         6.30571
     2002.20945        -1.06024         6.69347
     2002.21219         4.91671         6.33235
     2002.21493       -13.00235         6.24059
     2002.21766       -18.95040         6.33334
     2002.22040       -16.35845         6.35307
     2002.22314        -9.31550         7.12168
     2002.22588        -9.04455         7.28447
     2002.22862       -11.70561         6.56126
     2002.23135       -13.87966         7.28250
     2002.23409       -10.14371         7.13352
     2002.23683        -1.44276         6.43496
     2002.23957       -15.86781         6.24947
     2002.24230       -13.26787         6.32446
     2002.24504        -5.34092         6.30473
     2002.24778       -14.69097         6.46062
     2002.25052       -18.15002         6.35406
     2002.25326       -16.65407         6.17054
     2002.25599       -13.35913         6.30966
     2002.25873       -12.00518         6.56520
     2002.26147       -14.74423         6.45667
     2002.26421       -10.16928         6.25835
     2002.26695       -11.70233         6.53856
     2002.26968       -12.32039         6.68360
     2002.27242       -11.75144         6.59974
     2002.27516       -13.52249         6.22777
     2002.27790       -11.95654         6.23270
     2002.28063       -12.46659         6.64216
     2002.28337         8.38735         6.62243
     2002.28611        -2.99170         6.28499
     2002.28790         7.80823        13.56651
     2002.29267        -8.06563        13.63064
     2002.29432        -8.52485         7.03386
     2002.29706       -10.58491         6.44384
     2002.29980        -8.14596         6.61454
     2002.30254        -2.10101         6.17843
     2002.30528        -7.44206         6.44779
     2002.30801        -7.69611         6.35998
     2002.31075       -15.57517         6.05214
     2002.31349       -10.28722         6.27907
     2002.31623        -7.41527         6.27118
     2002.31896        -3.59432         6.09851
     2002.32170        -6.51737         6.13502
     2002.32444       -15.76443         6.16067
     2002.32718       -10.25848         6.17942
     2002.32992        -7.86653         6.14094
     2002.33265        -9.19058         6.00478
     2002.33539         0.07337         6.14390
     2002.33813       -11.03169         6.14883
     2002.34087        -7.85274         6.15673
     2002.34361       -16.96879         6.33827
     2002.34634       -11.51784         6.09259
     2002.34908        -6.77589         5.91796
     2002.35182       -14.26194         6.20606
     2002.35456       -10.71400         6.11529
     2002.35729       -11.08705         6.14193
     2002.36003       -12.55510         6.13107
     2002.36277       -12.71015         6.10542
     2002.36551         6.18080         6.22086
     2002.36825        -5.80326         6.12318
     2002.37098        -2.45531         5.96334
     2002.37372       -10.17036         6.23961
     2002.37646       -13.42341         6.10147
     2002.37920        -6.60146         6.02748
     2002.38193        -2.46852         5.90908
     2002.38467        -7.10057         5.94361
     2002.38741         0.14638         5.92782
     2002.39015        -6.14967         5.88441
     2002.39289        -7.98572         6.43595
     2002.39562        -6.98478         6.17350
     2002.39836        -8.97083         5.96630
     2002.40110        10.46011         6.75661
     2002.40385        12.98008         6.59480
     2002.40657        -0.91599         6.30374
     2002.40931        -9.57104         6.30670
     2002.41204         1.96690         7.15325
     2002.41478        -8.82915         7.98500
     2002.41752        -5.49120         6.61750
     2002.42027        -7.98524         6.88685
     2002.42298        -3.73132         6.59776
     2002.42541        -7.53770         9.46301
     2002.42848         0.13060         5.98505
     2002.43122        -5.87645         6.09950
     2002.43395        -0.54650         6.07484
     2002.43669         3.55444         6.11331
     2002.43943        -2.82261         6.06398
     2002.44217        -4.93766         6.03932
     2002.44491        -3.40471         6.35011
     2002.44764        -4.51676         6.29091
     2002.45038        -1.40082         6.46358
     2002.45312         1.01513         6.08865
     2002.45586        -2.76892         6.04129
     2002.45859         1.03303         6.11233
     2002.46216        20.65987        20.06758
     2002.46399       -21.55216        45.31016
     2002.46672       -17.51922        17.46971
     2002.47228         3.61477         6.06201
     2002.47502        -1.42528         5.98702
     2002.47776         2.30666         5.91697
     2002.48050         0.26761         5.90908
     2002.48324         6.72556         6.49022
     2002.48597         5.59251         6.61059
     2002.48871         9.45646         6.69544
     2002.49145         7.94240         6.43299
     2002.49419         0.07535         6.23763
     2002.49692         1.66230         7.02005
     2002.49966         8.15225         7.30223
     2002.50241        -3.46980         7.73932
     2002.50510        -1.37989         7.24501
     2002.50788         4.42409         7.02696
     2002.51061         5.95704         6.72405
     2002.51335         6.68998         7.52719
     2002.51611        17.84296         7.04373
     2002.51883         0.24389         7.09800
     2002.52157        -2.03617         6.02649
     2002.52430         4.76378         6.04129
     2002.52704        -0.57727         6.05412
     2002.52978         0.72668         5.97222
     2002.53252        10.70163         6.09457
     2002.53525         7.46757         6.38267
     2002.53799         4.64152         6.02156
     2002.54073        10.72847         6.16659
     2002.54347         6.10842         6.17251
     2002.54621         8.50937         6.14883
     2002.54826       -28.39142        12.09540
     2002.55101         5.35153        28.79355
     2002.55472         0.46853         6.78029
     2002.55716         7.12116         6.06892
     2002.55990        -1.75189         6.15870
     2002.56263         3.90905         5.96729
     2002.56537        -0.29300         6.06793
     2002.56811         9.68695         6.08174
     2002.57085         3.39190         6.13009
     2002.57358         1.71285         6.04129
     2002.57632        -0.24921         6.05806
     2002.57906        -5.98926         6.08174
     2002.58180        -1.67431         5.90809
     2002.58454         1.22664         6.30966
     2002.58727         1.06559         5.99788
     2002.59001         7.42053         6.22579
     2002.59275         0.63948         5.99097
     2002.59549         0.70343         5.99788
     2002.59823        -6.13162         6.16857
     2002.60096        -0.05267         6.01662
     2002.60370         0.55627         6.28302
     2002.60644        -1.29678         6.26427
     2002.60918        -0.90083         6.02353
     2002.61152        -0.84631         6.99736
     2002.72765        -6.10026         9.07624
     2002.72963         0.24687         8.57403
     2002.73132       -18.09030        15.26553
     2002.73862         5.66655         9.71165
     2002.74007         1.84111         8.38755
     2002.74860        -1.29271         7.21640
     2002.75154         1.65346         6.26329
     2002.75427         5.69941         9.79452
     2002.75701        -0.00465         6.42115
     2002.75975         3.87630         6.41227
     2002.76254        -6.20769         6.50008
     2002.76489         2.36483         7.73044
     2002.77344        14.96604         8.70131
     2002.77618         0.66099         6.91843
     2002.77891       -12.52606         6.53264
     2002.78171        -7.60905         6.18633
     2002.78439        -8.11317         6.43990
     2002.78713         0.75178         6.60171
     2002.78987        -4.78627         6.42214
     2002.79260         9.54668         8.76840
     2002.79534         3.56863         6.37675
     2002.79808         6.95457         6.29190
     2002.80088        11.25559         6.58198
     2002.80355        -4.81653         6.10345
     2002.80629         3.03642         6.37182
     2002.80903        -0.75063         6.15377
     2002.81162         3.98616         9.96028
     2002.81679       -10.51428         8.03039
     2002.82820        -0.95800         6.20409
     2002.83074       -10.25326         6.81187
     2002.83641        -4.73415         6.27710
     2002.83829       -14.61513        13.03371
     2002.84129         3.57310         8.49806
     2002.84466         1.70473         6.16363
     2002.84733        -3.20939         6.62144
     2002.85015        12.58065         6.28105
     2002.85284        18.71053         5.98012
     2002.85557        10.73348         6.27315
     2002.85837         6.93749         6.04129
     2002.86105         2.32038         5.95446
     2002.86378        -8.72668         6.04820
     2002.87753         1.95813         6.30374
     2002.88021        -1.44699         5.96236
     2002.88295        -1.49004         5.93868
     2002.88563        -8.39915         6.32545
     2002.89390         2.33376         5.83113
     2002.89670        -4.88624         5.91500
     2002.89938        -4.20835         5.89329
     2002.90212        -5.13640         6.16265
     2002.90759        -1.51850         6.18929
     2002.91307        -5.58161         5.96334
     2002.91586        -0.28560         5.86369
     2002.91854        -5.07871         6.06596
     2002.92056        -1.85054         8.99139
     2002.92402         1.75218         6.49219
     2002.92768         7.77512        10.03626
     2002.92950        -4.74492         8.56121
     2002.93223        -3.16297         5.89230
     2002.94045        15.38187         6.14982
     2002.94318         2.89882         6.02254
     2002.94592         4.35477         5.96926
     2002.94866         9.65771         6.03438
     2002.95140         9.57067         5.94558
     2002.95420         1.15968         6.16363
     2002.95687        14.95656         6.40043
     2002.95961         6.19251         5.98209
     2002.96235         2.81946         6.10739
     2002.96509       -10.82860         6.63131
     2002.96783        -8.63065         6.24947
     2002.97056        -0.87670         6.01958
     2002.97336        -4.57169         5.93473
     2002.97604        -6.35780         6.05708
     2002.97878        -4.07686         6.09654
     2002.98151        -6.46991         6.16659
     2002.98425         0.12904         6.02452
     2002.98699         1.07899         6.35801
     2002.98973        -1.54706         5.96828
     2002.99252         1.28795         6.04030
     2002.99520        -5.80617         5.85185
     2002.99794        -0.03122         6.04129
     2003.00325        -1.33850         6.31854
     2003.00569        -4.60887        15.39281
     2003.01004       -17.24019        18.74941
     2003.01169       -14.69342         6.22185
     2003.01437       -14.72753         5.98505
     2003.01671       -12.76001         7.35058
     2003.01984        -5.30664         5.75023
     2003.02258        -3.22769         6.05708
     2003.02532       -11.84574         5.90118
     2003.02806       -13.41779         5.72457
     2003.03085        -3.79878         5.82126
     2003.03353       -11.93890         5.82620
     2003.03627        -7.56595         6.81088
     2003.03901       -15.94100         5.82718
     2003.04175       -16.82305         5.89230
     2003.04449       -16.20110         5.70780
     2003.04722        -8.47616         5.72951
     2003.05002        -8.90115         6.04326
     2003.05270        -9.06126         5.92289
     2003.05544        -6.67731         6.00478
     2003.05817        -8.22336         5.83212
     2003.06091         2.25658         6.13699
     2003.06365        -4.15347         5.85481
     2003.06639       -12.50952         5.96630
     2003.06918        -1.87951         6.12417
     2003.07186        -9.31662         6.24059
     2003.07460        -5.27767         6.18041
     2003.07734        -8.39373         5.83804
     2003.07987        -5.99400         6.20310
     2003.08371       -17.49187        11.17979
     2003.08555        -1.80288         5.99393
     2003.08829         2.34307         5.88737
     2003.09103        -2.26399         5.95052
     2003.09377        -6.52604         6.04622
     2003.09650        -7.23009         5.82422
     2003.09907        -6.88933         6.30670
     2003.10307       -29.52002        17.23193
     2003.10472       -12.64625         5.85678
     2003.10746        -5.72930         5.96828
     2003.11019        -6.75235         6.15377
     2003.11293        -9.28640         6.10739
     2003.11567        -5.56145         5.98998
     2003.11841        -7.82851         5.94953
     2003.12115        -9.00956         5.80153
     2003.12388       -13.02561         5.80646
     2003.12662        -7.61866         5.78476
     2003.12936        -9.52471         5.93868
     2003.13210        -9.08277         6.05905
     2003.13483        -7.53682         6.06004
     2003.13757        -4.07187         5.75319
     2003.14020         2.21096         5.93769
     2003.14305        -3.63797         5.81830
     2003.14579        -9.37803         5.78279
     2003.14852       -10.24008         6.10147
     2003.15119       -13.04321         5.97518
     2003.15404         0.55886         6.35899
     2003.15686        -9.99611         6.41523
     2003.15948        -6.22429         5.66833
     2003.16211        -9.41945         6.23270
     2003.16513        -8.41120         6.52771
     2003.16769        -3.14044         5.90217
     2003.17043         2.93851         6.03241
     2003.17316         2.07245         5.83310
     2003.17590         1.63940         5.81633
     2003.17864        -4.05565         6.14587
     2003.18138        -8.58470         6.33038
     2003.18412         0.79125         5.79364
     2003.18698        -3.27867         7.70084
     2003.19028       -10.78012        12.09639
     2003.19233        -1.19591         7.45122
     2003.19507        -3.56196         6.74083
     2003.19742        -0.14843         8.45465
     2003.20146       -10.78408        11.51920
     2003.20305        -5.61837         6.82765
     2003.20600       -12.40718         8.24153
     2003.20916       -14.62279         7.58738
     2003.21149       -13.48727         5.95644
     2003.21390        -8.51968        10.78315
     2003.21755        -6.90176         7.69591
     2003.21971        -8.30343         6.18435
     2003.22245       -11.02248         5.89526
     2003.22518       -10.78353         5.86764
     2003.22792        -9.06359         6.19718
     2003.23066        -6.88464         6.08372
     2003.23340       -13.97169         6.32051
     2003.23613       -18.55274         5.93966
     2003.23887       -20.34679         6.48134
     2003.24161       -17.86484         5.87454
     2003.24435       -12.64190         5.84297
     2003.24709        -7.38095         6.13107
     2003.24994        -7.26888         6.01958
     2003.25256        -6.83605         6.06398
     2003.25530       -14.03710         6.00577
     2003.25804       -17.54016         5.83508
     2003.26078       -11.83821         5.73641
     2003.26351       -11.28426         5.72655
     2003.26625       -10.35431         6.01761
     2003.26899       -10.96336         6.01662
     2003.27173       -13.66842         6.99242
     2003.27446        -9.89647         5.86270
     2003.27720        -9.89652         5.86468
     2003.27994        -4.15057         5.69695
     2003.28268        -7.19062         5.72063
     2003.28542        -8.97868         6.12219
     2003.28797        -4.87493         6.30275
     2003.29088        -2.36679        14.20586
     2003.29483        -0.31254        16.22653
     2003.29637       -10.09588         5.57065
     2003.29907        -6.00398         6.33334
     2003.30190        -6.36493         5.69596
     2003.30458        -2.07104         6.04030
     2003.30732        -1.79209         5.56276
     2003.31006         0.57786         5.70583
     2003.31222        -8.23981         7.40781
     2003.31553        -6.59325         5.82817
     2003.31833        -2.52024         5.96236
     2003.32375        -0.92840         5.60716
     2003.32648        -4.38046         5.74529
     2003.32922        -5.39851         5.81830
     2003.33196        -8.50056         5.77391
     2003.33470         4.48339         5.84494
     2003.33744        -5.18866         5.50948
     2003.34017        -3.52972         5.52329
     2003.34291        -1.84377         5.51639
     2003.34565        -1.46482         5.60617
     2003.34839         4.11413         5.87356
     2003.35112        -1.85592         5.86172
     2003.35386        -2.58198         5.53711
     2003.35660         0.52297         5.58545
     2003.35934        -1.17208         5.58348
     2003.36208         2.14887         5.55684
     2003.36481         5.33082         5.74135
     2003.36755        -2.64224         5.72556
     2003.37029        -0.82129         5.63577
     2003.37303        -4.66734         5.69497
     2003.37936        -5.91552         8.60363
     2003.38124        -4.91150         5.54303
     2003.38398        -4.40055         5.45916
     2003.38672        -4.22060         5.57164
     2003.38945        -1.18465         5.49863
     2003.39219         0.23130         5.63084
     2003.39493         3.83924         5.66735
     2003.39767         4.43119         5.58940
     2003.40041         1.43714         6.04820
     2003.40314       -10.08191         6.02452
     2003.40588         3.58104         5.89724
     2003.40862         8.03998         6.42510
     2003.41136        -2.16007         5.66932
     2003.41410         2.12988         5.64169
     2003.41683        -1.25417         5.93572
     2003.41957        -2.64623         5.98308
     2003.42231        -2.74627         5.68116
     2003.42505         3.99467         5.70583
     2003.42778        -1.59638         6.04030
     2003.43052         4.47157         5.71668
     2003.43292         0.32115         6.68360
     2003.43600         7.66847         5.68807
     2003.43874        11.95841         6.20705
     2003.44147        10.09436         5.86073
     2003.44421         4.71731         5.65452
     2003.44695         6.12826        10.46841
     2003.44969        -2.50979         5.68313
     2003.45243        -4.75685         5.69892
     2003.45516        -4.60890         5.94065
     2003.45790         1.59005         5.94065
     2003.46064         6.23100         6.58395
     2003.46338         3.72495         5.79759
     2003.46611        12.04989         5.93177
     2003.46885         1.12184         5.78180
     2003.47159         1.81979         5.62689
     2003.47433         5.27474         5.64071
     2003.47691         2.13252         5.89526
     2003.47980        10.02663         5.86961
     2003.48254        -2.80542         5.83113
     2003.48528         3.39253         5.81337
     2003.48802         3.49648         5.87356
     2003.49076         3.66543         5.81830
     2003.49349         5.56237         6.03241
     2003.49623        -0.00868         6.15179
     2003.49897         4.68627         5.80351
     2003.50171        -1.65178         5.94854
     2003.50444        -4.07483         5.91993
     2003.50718         7.49411         5.89822
     2003.50992         1.74306         5.64564
     2003.51266         2.88401         5.80844
     2003.51540         5.30196         6.08865
     2003.51813        11.88891         5.82620
     2003.52087         5.78685         5.80942
     2003.52361         1.53180         5.88934
     2003.52635        10.54575         6.04524
     2003.52908         4.89870         6.02748
     2003.53182         0.40465         5.83310
     2003.53456         3.30359         7.58836
     2003.53730        13.59254         6.13107
     2003.54004         0.47049         5.97420
     2003.54277        -2.97756         5.72063
     2003.54551        -5.32061         5.73641
     2003.54825         1.35133         5.84396
     2003.55099         0.62328         5.90414
     2003.55373        -2.24777         5.77785
     2003.55646        12.72018         5.79956
     2003.55920         4.80913         5.75319
     2003.56194         2.94907         5.85382
     2003.56468         3.29202         5.88145
     2003.56741         5.96197         5.85185
     2003.57015         1.44192         5.80942
     2003.57289         4.26087         5.88737
     2003.57563         0.94581         5.89132
     2003.57837         4.61676         6.77635
     2003.58110         2.86171         5.86566
     2003.58384         9.32866         6.08668
     2003.58658         4.66361         5.82817
     2003.58932        11.37355         6.00873
     2003.59206         1.79950         5.92092
     2003.59479         4.15645         6.02550
     2003.59753         0.66940         5.76897
     2003.60027         3.54835         5.79660
     2003.60301         2.66630         5.96137
     2003.60574         5.08124         5.75516
     2003.60848         0.16819         5.69300
     2003.61122         1.71514         5.75516
     2003.61396         0.15709         5.65945
     2003.61670         0.63204         5.72063
     2003.61943         6.72598         5.85974
     2003.62217        12.12793         6.05905
     2003.62491         4.17288         5.60223
     2003.62765         7.34183         5.66143
     2003.63039         3.65978         5.66340
     2003.63301        -0.17739         6.12614
     2003.63592         5.23973         5.90414
     2003.63860        13.74862         6.13995
     2003.64134         0.94757         5.69399
     2003.64407         3.70652         5.63873
     2003.64681         3.53246         5.71767
     2003.64955        -1.31859         5.74036
     2003.65229         2.91136         5.73247
     2003.65503         0.36231         5.73839
     2003.65776        -2.68974         5.65452
     2003.66050        -1.39680         5.61604
     2003.66324         2.39015         5.85382
     2003.66598         4.04310         5.82521
     2003.66872        -1.78095         5.60321
     2003.67145         7.03300         5.77292
     2003.67419         6.63894         5.70385
     2003.67693         4.43689         5.62985
     2003.67967         3.63684         5.67228
     2003.68240         5.47579         5.95644
     2003.68514         5.72774         5.65847
     2003.68788         6.78868         5.58940
     2003.69062         5.49663         5.64268
     2003.69336        14.06558         5.91006
     2003.69609        -0.79947         5.81534
     2003.69883         1.08348         5.73937
     2003.70157         6.38942         5.67721
     2003.70431        -4.06963         5.65945
     2003.70705        10.16332         5.67129
     2003.70978         7.29827         6.50995
     2003.71252         0.30222         5.74529
     2003.71526         8.88416         5.85086
     2003.71800         3.64811         5.65156
     2003.72073         5.54506         5.66439
     2003.72347         1.05401         5.76108
     2003.72621         9.71396         6.18238
     2003.72895        -0.69610         6.02057
     2003.73169         6.46385         5.94756
     2003.73442         6.93680         5.77687
     2003.73716         5.88075         5.64268
     2003.73985         1.33565         5.83014
     2003.74275        -0.44523         7.20456
     2003.74538         7.10259         5.84100
     2003.74811         8.42554         5.70681
     2003.75085         9.12649         5.67425
     2003.75357         9.67642         5.74628
     2003.75633        -0.24362         5.63775
     2003.75906         3.26033         5.64959
     2003.76180         6.90428         5.79956
     2003.76454        13.19123         6.14982
     2003.76728         9.77918         6.02156
     2003.77002         6.27313         5.65551
     2003.77275         9.40807         5.67228
     2003.77549         8.31702         5.61012
     2003.77823         7.83297         5.63479
     2003.78097         7.32992         5.59729
     2003.78371        10.55487         5.70681
     2003.78644         9.10781         5.69991
     2003.78918         8.95976         5.55585
     2003.79192         6.73271         5.71372
     2003.79466         6.90866         5.66044
     2003.79739        10.18161         5.75319
     2003.80013         7.89455         5.69793
     2003.80287         7.87250         5.61999
     2003.80561         7.06045         5.89625
     2003.80835        22.79040         6.15278
     2003.81108         3.40635         5.78969
     2003.81382        -7.94171         5.56177
     2003.81656        -3.31776         5.52625
     2003.81930         6.78519         5.60913
     2003.82203         7.94114         5.55487
     2003.82477         0.83409         7.15818
     2003.82751        -3.79297         6.87205
     2003.83025        -7.46002         5.70287
     2003.83299         1.78993         5.55289
     2003.83572         1.08188         5.47002
     2003.83807         0.06741         6.77141
     2003.85060        17.64590        16.37157
     2003.85215         0.70057         5.47791
     2003.85489         8.68851         5.54599
     2003.85763        11.02346         5.74135
     2003.86036        12.56941         5.76207
     2003.86310         4.38136         5.55289
     2003.86584         6.22731         5.63873
     2003.86858         5.61225         5.78969
     2003.87132         6.18420         5.71569
     2003.87405         9.17015         5.62788
     2003.87679        11.75610         5.74924
     2003.87953         3.30705         5.63380
     2003.88227         8.34299         5.66735
     2003.88501         7.53394         6.81384
     2003.88774        -7.07211         5.90414
     2003.89048         3.81084         5.75121
     2003.89322         0.78779         5.55783
     2003.89596        17.99473         5.57657
     2003.89869        10.65168         5.72556
     2003.90143         2.65763         5.51836
     2003.90417        -4.82942         5.63972
     2003.90691        -1.84547         5.62985
     2003.90965         6.26747         5.64860
     2003.91238         8.46142         5.53711
     2003.91512         2.57637         5.59335
     2003.91786         5.22832         5.85481
     2003.92060         1.13127         5.85185
     2003.92334        -6.28379         5.82028
     2003.92607        12.67216         5.87948
     2003.92881         6.41011         5.60420
     2003.93155         7.53006         5.66044
     2003.93429         6.99901         5.71471
     2003.93702        -1.70505         5.53020
     2003.93976         3.61890         5.59433
     2003.94250         2.48585         5.62196
     2003.94524         0.37680         5.63775
     2003.94798        11.87175         5.76700
     2003.95071         5.69070         5.67129
     2003.95345        -1.50536         5.56572
     2003.95619        -1.70841         5.77095
     2003.95893        -6.85746         5.82916
     2003.96167        -2.97251         5.84494
     2003.96440        -0.20956         5.77983
     2003.96714         5.98038         5.65649
     2003.96988         3.16333         5.75121
     2003.97262        -0.50072         5.66537
     2003.97535        -0.98577         5.65452
     2003.97809         3.10518         5.60913
     2003.98083         6.71012         5.56769
     2003.98357         4.46907         5.52329
     2003.98631        -5.19998         5.53316
     2003.98904        -1.10303         5.63084
     2003.99268        -1.47512        10.27503
     2003.99452        -3.08214         5.48284
     2003.99726         0.87581         5.49863
     2004.00273        -1.22729         5.80646
     2004.00547        -4.84134         5.78081
     2004.00821        -9.58340         5.63972
     2004.01095       -16.48845         5.73148
     2004.01368        -5.03350         5.81732
     2004.01642        -5.77355         5.46212
     2004.01916        -9.39560         5.62295
     2004.02190       -10.36566         5.42266
     2004.02464        -1.06871         5.45324
     2004.02737        -4.81676         5.79660
     2004.03011       -12.36081         5.79167
     2004.03285        -8.70286         5.54303
     2004.03559        -3.45692         5.59137
     2004.03833        -0.22597         5.57361
     2004.04106        -3.15102         5.93177
     2004.04380         0.52793         5.63775
     2004.04654        -0.47112         5.63479
     2004.04928         2.18982         5.59729
     2004.05201        -9.02823         5.57361
     2004.05475       -12.76928         5.68313
     2004.05749        -8.98433         5.88737
     2004.06023        -3.54438         5.60025
     2004.06297         0.94656         5.49370
     2004.06570       -13.58049         5.50060
     2004.06844        -6.11454         5.59433
     2004.07118        -6.77259         5.51146
     2004.07392        -3.81564         5.71471
     2004.07666         2.93730         5.68116
     2004.07939         5.22325         5.71668
     2004.08213        -3.79180         5.57460
     2004.08487        -2.62485         5.51738
     2004.08761        -4.19690         5.58447
     2004.09034        -2.08096         5.62492
     2004.09308        -0.25001         5.74825
     2004.09582        -9.57706         5.64860
     2004.09856       -10.64811         5.62393
     2004.10130        -6.85016         5.63972
     2004.10403        -8.12822         5.46804
     2004.10677       -10.19527         5.47495
     2004.10951       -10.98932         5.50356
     2004.11225        -9.48037         5.55881
     2004.11498        -7.89242         5.69892
     2004.11772        -3.75348         5.66340
     2004.12046        -1.40353         5.47002
     2004.12320         0.92042         5.73740
     2004.12594        -2.25763         5.68905
     2004.12867         0.03432         5.65748
     2004.13141        -3.86873         5.65945
     2004.13415        -1.79379         5.52527
     2004.13683        -3.87791         5.78180
     2004.13968        -6.51283         5.75417
     2004.14236        -5.84494         5.61407
     2004.14510        -3.65799         5.68313
     2004.14784         2.36695         5.68313
     2004.15058         1.99590         5.69793
     2004.15331        -3.12215         5.65649
     2004.15605        -1.89520         5.67129
     2004.15879        -6.98725         5.66241
     2004.16153        -1.77131         5.66833
     2004.16427        -4.71936         5.62097
     2004.16700        -7.96641         5.65748
     2004.16974        -7.45046         5.83606
     2004.17248        -4.30751         5.83804
     2004.17522         6.09043         5.76503
     2004.17796        -1.99762         5.67820
     2004.18069        -7.86467         5.65551
     2004.18343       -12.92472         5.73049
     2004.18617        -9.60177         5.83804
     2004.18891        -4.36383         5.60124
     2004.19164        -7.08388         5.58743
     2004.19433        -3.32199         5.79561
     2004.19712        -9.01498         5.75319
     2004.19986        -9.68703         5.59927
     2004.20260        -2.85709         5.68708
     2004.20533        -7.41114         5.81929
     2004.20807        -0.66819         5.88145
     2004.21081         2.26776         5.90414
     2004.21355        -4.14929         5.95940
     2004.21629       -10.92635         5.89822
     2004.21902       -11.72140         5.92092
     2004.22176        -6.74845         5.68017
     2004.22450         5.23550         6.07286
     2004.22722         6.44143         5.85580
     2004.22997        -1.39161         5.61604
     2004.23271         5.16334         5.75319
     2004.23543         0.40726         5.71569
     2004.23819       -10.95776         5.59137
     2004.24093       -11.38081         5.74233
     2004.24366        -1.77387         5.78673
     2004.24640        -1.10992         5.77095
     2004.24914        -9.09897         5.82028
     2004.25188        -9.44402         5.46015
     2004.25462        -8.09707         5.80153
     2004.25735        -2.97213         5.63183
     2004.26009        -6.29518         5.52724
     2004.26283        -5.08523         5.81929
     2004.26550        -6.30735         5.71668
     2004.26830        -0.62733         5.56473
     2004.27104        -3.66839         5.49271
     2004.27378        -5.77544         5.69300
     2004.27652        -4.82549         5.74727
     2004.27926        -5.08754         5.85974
     2004.28199        -7.65459         5.71964
     2004.28473        -5.64265         5.77292
     2004.28747        -0.32670         5.50751
     2004.29021        -2.30875         5.54204
     2004.29295        -0.92680         5.56079
     2004.29574         5.73921         5.68708
     2004.29842         0.54810         5.77884
     2004.30116         3.87204         5.65748
     2004.30390         2.05399         5.54796
     2004.30663        -3.90706         5.71372
     2004.30937        -1.21711         5.71767
     2004.31211        -4.95116         5.47396
     2004.31485        -5.67222         5.62689
     2004.31759        -5.43527         5.49764
     2004.32032         1.12968         5.84198
     2004.32306         7.72663         5.84396
     2004.32580        -4.57142         5.60913
     2004.32854        -9.36948         5.45324
     2004.33128        -4.07453         5.45127
     2004.33401         0.53141         5.93966
     2004.33726         0.18592         7.02400
     2004.33949         7.49732         5.98702
     2004.34223         5.47726         5.89724
     2004.34496         6.08521         5.55092
     2004.34770         3.89416         5.72457
     2004.35044         2.33511         5.78772
     2004.35318        -3.72294         5.73148
     2004.35592         1.34000         5.58447
     2004.35865         1.81195         5.56375
     2004.36139        -4.59910         5.47396
     2004.36413        -4.95515         5.65649
     2004.36687         0.80780         5.47100
     2004.36961        -1.25926         5.73444
     2004.37234         0.33569         5.55783
     2004.37508         0.62964         5.44732
     2004.37782         3.93259         5.44436
     2004.38056         1.97154         5.75615
     2004.38329        -0.17852         5.69399
     2004.38603        -1.71957         5.70484
     2004.38877         7.54438         5.76700
     2004.39151         2.55633         5.66439
     2004.39425        -0.47172         5.41180
     2004.39698         1.23722         5.64761
     2004.39978        11.72323         5.67820
     2004.40246         3.80112         5.65156
     2004.40520         1.74107         5.88540
     2004.40794         0.79402         5.47199
     2004.41067         4.33496         5.57657
     2004.41341        -1.64309         5.49863
     2004.41615         0.67886         5.52329
     2004.41889        -4.33219         5.52329
     2004.42162         0.29876         5.69004
     2004.42436        -0.01430         5.53513
     2004.42710         4.69665         5.83705
     2004.42984         0.98160         5.58447
     2004.43258        -0.68145         5.66833
     2004.43531         2.44350         5.80548
     2004.43805         3.92344         5.58447
     2004.44079         5.21239         5.56276
     2004.44353         4.74734         5.77687
     2004.44626         1.79829         5.47791
     2004.44900        -0.24876         5.65353
     2004.45174        -2.94282         5.72063
     2004.45448         0.89213         5.76897
     2004.45722        -2.87792         6.41523
     2004.45995         1.34503         6.84936
     2004.46269        -3.54002         6.00972
     2004.46543        -7.84808         5.53809
     2004.46817         0.98687         5.64959
     2004.47091         1.79282         5.61604
     2004.47364         8.18977         5.66340
     2004.47638         0.18272         5.64663
     2004.47912        -2.91533         5.62295
     2004.48186         3.22061         5.83014
     2004.48459         0.52056         5.72951
     2004.48733         8.75051         5.77292
     2004.49007        11.52546         5.91105
     2004.49281        -0.95359         5.97124
     2004.49555         3.75735         5.83113
     2004.49828         5.11830         5.69004
     2004.50102         5.98325         5.65452
     2004.50376         0.55020         5.59631
     2004.50650         2.39115         5.48778
     2004.50924         0.29809         5.63577
     2004.51197         1.28404         5.67228
     2004.51471         4.37699         5.97025
     2004.51745         1.88594         6.66387
     2004.52019        -1.58811         5.62985
     2004.52292        -3.78017         5.74727
     2004.52566         1.82978         5.64860
     2004.52840        -1.49627         5.67228
     2004.53114         1.82868         6.04425
     2004.53388        -2.29237         5.52329
     2004.53661        -2.00243         5.55783
     2004.53935         1.26052         5.91598
     2004.54209         3.43847         5.65649
     2004.54483         0.98942         5.53513
     2004.54716         1.95493         6.49712
     2004.55030         2.25631         5.90513
     2004.55304         7.61326         6.14587
     2004.55578        -4.23179         5.70977
     2004.55852        -0.86984         5.51047
     2004.56125        -1.57889         5.46804
     2004.56399         0.57605         5.58545
     2004.56673         9.40300         6.68853
     2004.56947         4.87295         6.38563
     2004.57221        -5.57810         5.75812
     2004.57494        -6.83615         5.77785
     2004.57768        -3.69321         5.56276
     2004.58042         4.77574         5.73839
     2004.58316         0.05069         5.77785
     2004.58590         2.09564         5.58545
     2004.58863         2.60859         5.58447
     2004.59137         0.30753         7.21048
     2004.59411         4.63948         6.28006
     2004.59685         7.69043         5.82718
     2004.59958        -1.54062         5.48975
     2004.60232         1.24333         6.25243
     2004.60506         0.19527         5.65452
     2004.60780        -0.18678         5.67031
     2004.61054         0.34817         5.49666
     2004.61327        -3.75288         5.69497
     2004.61601         0.68707         5.61604
     2004.61875         0.61901         5.45916
     2004.62149        -0.31404         5.50652
     2004.62423        -2.59109         5.67820
     2004.62696         7.15086         5.62097
     2004.62970         4.55181         5.57065
     2004.63244        11.28975         5.88046
     2004.63518         8.65470         5.54697
     2004.63791        13.63565         5.91105
     2004.64055        11.58749         5.97814
     2004.64339        13.41155         6.14094
     2004.64613         9.45050         5.56375
     2004.64887         7.24344         5.53513
     2004.65160         3.96339         5.63380
     2004.65440         5.30440         6.47147
     2004.65708        -3.13871         5.83606
     2004.65982        -2.58876         6.18633
     2004.66249         0.28612         6.37576
     2004.66541         2.37725         6.77043
     2004.66803         5.77408         6.03142
     2004.67077         4.67103         5.78279
     2004.67351         8.39298         5.60913
     2004.67624         7.10492         6.39056
     2004.67898         3.89587         5.75023
     2004.68172         5.80182         8.54147
     2004.68446         5.76177         5.74036
     2004.68720         2.79572         5.65551
     2004.68993         7.54566         6.17745
     2004.69267         0.97461         5.68313
     2004.69541        10.73356         6.14291
     2004.69815         7.45551         5.54895
     2004.70089        11.57246         5.61012
     2004.70362        13.86640         5.60321
     2004.70636        12.63535         5.58841
     2004.70910        13.08430         5.56769
     2004.71184        10.89725         5.85974
     2004.71457        13.52420         5.64169
     2004.71731         9.36614         5.51442
     2004.72005         7.94509         6.05708
     2004.72279         2.64604         5.57559
     2004.72553        -3.71901         5.61604
     2004.72826         4.49294         5.50060
     2004.73100         8.46988         5.55585
     2004.73374        -0.38717         5.44732
     2004.73648         4.53678         5.47002
     2004.73921         4.50173         5.46903
     2004.74195         5.41468         5.52724
     2004.74469         6.45162         5.56177
     2004.74743         4.53557         5.50060
     2004.75017        -1.98948         5.47791
     2004.75290         2.50247         5.47100
     2004.75564         1.00042         5.52625
     2004.75838         4.45636         5.47594
     2004.76112         1.11231         5.49370
     2004.76386         5.63426         5.69892
     2004.76659         9.26321         5.59729
     2004.76933         6.25916         5.63577
     2004.77207         9.29210         5.67228
     2004.77481         6.79905         5.58545
     2004.77754         4.48000         5.61111
     2004.78028         1.78495         5.63676
     2004.78302         0.92890         5.69695
     2004.78576         3.70784         5.47100
     2004.78850        14.59279         5.70287
     2004.79123         9.40274         5.48975
     2004.79397        24.14569         5.62492
     2004.79671        13.85464         5.53020
     2004.79945        12.37058         5.56769
     2004.80219        15.64453         5.48186
     2004.80492        13.04848         5.50850
     2004.80766        15.53643         5.54303
     2004.81040        11.97438         5.48383
     2004.81314         5.12032         5.40687
     2004.81587         6.36127         5.39503
     2004.81861         4.47622         5.63873
     2004.82135         7.59117         5.59631
     2004.82409         8.08912         5.46903
     2004.82683         3.57907         5.49666
     2004.82956        15.25101         5.61999
     2004.83230         6.84496         5.45127
     2004.83504        -4.63209         5.57065
     2004.83778        10.01286         5.50455
     2004.84052         6.88281         5.65255
     2004.84325         2.84875         5.45028
     2004.84599         8.78570         5.42956
     2004.84873         7.24465         5.49172
     2004.85147         0.35660         5.54796
     2004.85421         6.53855         6.95789
     2004.85694         4.00449         5.75220
     2004.85968         7.04544         5.86665
     2004.86242         3.82139         5.41772
     2004.86516         0.90734         5.38418
     2004.86789        -2.05771         5.50652
     2004.87063        -6.12077         5.50258
     2004.87337        -0.42182         5.46804
     2004.87611         4.48213         5.48876
     2004.87885         9.47108         5.41772
     2004.88158         5.19003         5.68116
     2004.88432        -0.38003         5.67524
     2004.88706        -0.01408         5.49863
     2004.88980         0.65587         5.42068
     2004.89253         2.17682         5.38516
     2004.89527         5.42977         5.52625
     2004.89801        10.32771         5.56769
     2004.90075        11.88766         5.73543
     2004.90349         3.21561         5.52724
     2004.90622         4.01256         5.50159
     2004.90896        -4.35149         5.36247
     2004.91170        -2.98655         5.42364
     2004.91444        -2.83760         5.43154
     2004.91718        -4.22065         5.62788
     2004.91991        -1.62870         5.58447
     2004.92265        -6.61275         5.53711
     2004.92539         1.17019         5.47002
     2004.92813        10.87314         5.44831
     2004.93086         7.22809         5.58743
     2004.93360        17.27104         5.71668
     2004.93634        19.20499         5.78279
     2004.93908        10.89493         5.63380
     2004.94182         5.93688         5.76799
     2004.94455         3.79883         5.58841
     2004.94729        -5.06322         5.54303
     2004.95003        -3.81827         5.56276
     2004.95277        -2.70133         5.90809
     2004.95551        -2.33538         5.55289
     2004.95824        -6.75943         5.51343
     2004.96098        -2.10248         5.55289
     2004.96372        -4.13753         5.49962
     2004.96646        -5.52459         5.45916
     2004.96919        -3.32364         5.41575
     2004.97193        -3.57169         5.54697
     2004.97467        -9.79374         5.54204
     2004.97741       -10.69979         5.40095
     2004.98015        -4.18085         5.49370
     2004.98288        -0.35590         5.51540
     2004.98562         3.08405         5.51343
     2004.98836        -0.09500         5.46607
     2004.99110         1.80295         5.60913
     2004.99384         2.99689         5.54401
     2004.99657         4.99884         5.61999
     2004.99931         4.35379         5.56769
     2005.00479        -7.35931         5.53119
     2005.00752        -4.77036         5.51738
     2005.01026        -6.22542         5.53612
     2005.01300        -3.93947         5.59335
     2005.01574        -2.58852         5.65551
     2005.01848         3.66143         5.54895
     2005.02121         4.84838         5.56375
     2005.02395        -0.95168         5.53908
     2005.02669        -7.18373         5.44732
     2005.02943         2.47222         5.51146
     2005.03216        -2.82583         5.56769
     2005.03490        -9.06188         5.52428
     2005.03764       -12.70294         5.56572
     2005.04038       -14.97499         5.51540
     2005.04312        -8.12804         5.52724
     2005.04585        -5.94609         5.62196
     2005.04859        -0.35514         5.76700
     2005.05133        -8.87420         5.71471
     2005.05407        -6.79725         5.66537
     2005.05681        -5.49330         5.53908
     2005.05954         0.27065         5.60519
     2005.06228        -2.95640         5.51442
     2005.06502        -6.99246         5.56572
     2005.06776        -0.82751         6.13305
     2005.07049        -6.60156         5.47495
     2005.07323        -4.53161         5.46508
     2005.07597        -5.83966         5.61900
     2005.07871        -8.88172         5.40884
     2005.08145       -10.24777         5.41476
     2005.08418       -10.38282         5.51639
     2005.08692        -9.53187         5.42266
     2005.08966       -15.02592         5.37036
     2005.09240       -11.63498         5.50652
     2005.09514        -8.22603         5.51047
     2005.09787       -10.42608         5.44634
     2005.10061        -9.05313         5.39602
     2005.10335        -8.47418         5.41378
     2005.10609        -6.92024         5.52724
     2005.10882        -3.30329         5.46508
     2005.11156       -12.46734         5.32892
     2005.11430        -7.80339         5.33879
     2005.11704        -1.79744         5.44436
     2005.11978        -0.32750         5.41772
     2005.12251        -4.75655         5.42463
     2005.12525       -13.00360         5.36247
     2005.12799       -14.54965         5.35063
     2005.13073       -11.30670         5.48876
     2005.13347       -10.41476         5.52231
     2005.13620        -4.90881         5.42660
     2005.13894        -7.36086         5.43252
     2005.14168       -11.20591         5.43844
     2005.14442       -11.32396         5.35556
     2005.14715       -14.53802         5.50652
     2005.14989       -10.31407         5.56079
     2005.15263        -9.13312         5.54697
     2005.15537        -9.40217         5.49271
     2005.15811        -9.41722         5.50850
     2005.16084        -3.12628         5.57065
     2005.16358        -1.84633         5.61308
     2005.16632        -4.32538         5.66636
     2005.16906        -1.00543         5.54007
     2005.17180        -5.47848         5.55980
     2005.17453       -10.41953         5.45620
     2005.17727        -1.43459         5.62492
     2005.18001        -2.17464         5.58249
     2005.18275       -10.75569         5.53711
     2005.18548        -6.99974         5.60124
     2005.18822        -5.86979         5.55289
     2005.19096        -8.80485         5.45522
     2005.19370        -4.14990         5.61012
     2005.19644       -12.14595         5.47890
     2005.19917        -7.22900         5.42858
     2005.20191        -1.55405         5.56769
     2005.20465        -2.75311         5.57065
     2005.20739        -5.19616         5.60716
     2005.21013        -6.44921         5.41476
     2005.21286        -2.57126         5.47692
     2005.21560         1.46669         5.42364
     2005.21834        -3.59837         5.52329
     2005.22108        -5.31242         5.47002
     2005.22381        -2.85347         5.40391
     2005.22655        -3.50352         5.43647
     2005.22929        -5.22357         5.42562
     2005.23116        -4.90156         8.76150
     2005.24024         1.28722         5.63972
     2005.24298        -2.05183         5.45226
     2005.24572        -7.17389         5.60321
     2005.24846        -2.10494         5.57065
     2005.25119        -6.90699         5.48482
     2005.25393        -0.14804         5.61407
     2005.25667         3.20491         5.83902
     2005.25941        -2.95515         5.68511
     2005.26214        -8.18620         5.61801
     2005.26488        11.38275         5.84988
     2005.26762        -1.25030         5.47791
     2005.27036        -2.05535         5.49666
     2005.27310        -4.81641         5.58249
     2005.27583        -4.53946         5.56572
     2005.27857        -2.91751         5.48975
     2005.28131        -1.07356         5.61111
     2005.28405       -11.64361         5.64761
     2005.28679       -10.44367         5.50356
     2005.28952        -3.28972         5.45522
     2005.29226         1.82723         5.52527
     2005.29500        -7.03282         5.43252
     2005.29774        -3.92187         5.53316
     2005.30047        -1.41793         5.46410
     2005.30321        -4.59898         5.79759
     2005.30595        -3.65903         5.46804
     2005.30869        -3.85808         5.42562
     2005.31143        -1.08213         5.56276
     2005.31416        -0.61719         5.48679
     2005.31690        -3.68524         5.46015
     2005.31964        -5.04229         5.50850
     2005.32238        -5.72134         5.54500
     2005.32512        -5.08339         5.42759
     2005.32785        -7.83145         5.44535
     2005.33059        -5.30050         5.41378
     2005.33333        -1.40855         5.45127
     2005.33607         1.94840         5.58249
     2005.33880         2.31535         5.47594
     2005.34154        -0.96371         5.49962
     2005.34428         0.02524         5.47199
     2005.34702         4.95419         5.43943
     2005.34976         3.14114         5.68807
     2005.35249         5.73109         5.59039
     2005.35523         0.50404         5.63380
     2005.35797        -7.55802         5.60124
     2005.36071        -7.26507         5.63676
     2005.36344        -7.30612         5.72063
     2005.36618         0.22583         5.75516
     2005.36892         6.15078         6.19126
     2005.37166         4.93572         5.50850
     2005.37440         9.61267         5.85481
     2005.37713         5.58062         5.50948
     2005.37987         4.78557         5.41180
     2005.38261        -1.76548         5.66143
     2005.38535        -1.14454         5.69300
     2005.38809         1.29341         5.52034
     2005.39082        -4.56464         5.41476
     2005.39356        -1.70069         5.43252
     2005.39630       -11.84574         5.43450
     2005.39904        -6.20180         5.48975
     2005.40177        -1.37485         5.49666
     2005.40451         1.18010         5.43055
     2005.40725        -4.84895         5.49764
     2005.40999         4.66100         5.51738
     2005.41273        -4.40706         5.57065
     2005.41546        -1.70211         5.49567
     2005.41820         3.25084         5.49074
     2005.42094        -2.17721         5.42364
     2005.42368        -1.37026         5.45916
     2005.42642         4.55368         5.63775
     2005.42915         3.74663         5.47100
     2005.43189         4.74458         5.51836
     2005.43463         2.06453         5.49468
     2005.43737        -0.69152         5.61999
     2005.44010         0.19042         5.57065
     2005.44284         2.16137         5.63972
     2005.44558         3.43232         5.86270
     2005.44832        -3.36073         5.71767
     2005.45106         4.18722         5.56868
     2005.45379        -2.97584         5.53415
     2005.45653        -0.06389         5.71076
     2005.45927         2.92406         5.60815
     2005.46201         4.13401         5.51540
     2005.46475        -2.43204         5.46706
     2005.46748        -5.29710         5.45719
     2005.47022         0.78285         5.58644
     2005.47296        -2.82020         5.60420
     2005.47570        -6.07025         5.74431
     2005.47843         2.73770         5.62196
     2005.48117         0.92164         5.74628
     2005.48391        -0.46241         5.52625
     2005.48665         4.19054         5.57855
     2005.48939        -0.22151         5.49764
     2005.49212         0.88844         5.45226
     2005.49486         1.09238         5.47298
     2005.49760         2.30833         5.53809
     2005.50034        -2.10972         5.46311
     2005.50308        -1.20677         5.48284
     2005.50581        -3.02082         5.43746
     2005.50855        -4.25988         5.43351
     2005.51129         5.07007         5.82225
     2005.51403        -7.28398         5.44634
     2005.51676        -0.15603         5.51836
     2005.51950        15.83992         5.75713
     2005.52224        10.00787         5.64071
     2005.52498         2.46081         5.49666
     2005.52772        -2.25924         5.43943
     2005.53045        -0.87329         5.67031
     2005.53319        -1.16134         5.53809
     2005.53593         2.32461         5.40095
     2005.53867        10.29155         5.71865
     2005.54141         1.97050         5.48284
     2005.54414         2.17245         5.55092
     2005.54688         4.76640         5.46903
     2005.54962         2.26835         5.43943
     2005.55236         0.71329         5.44042
     2005.55509        -2.92176         5.60716
     2005.55783         1.05319         5.48186
     2005.56057        -0.08686         5.59828
     2005.56331         0.09509         5.68116
     2005.56605        -5.53097         5.79068
     2005.56878         5.50798         6.56027
     2005.57152         4.25993         5.91401
     2005.57426         1.26188         5.60617
     2005.57700        -2.54817         5.45719
     2005.57974         3.00077         5.48975
     2005.58247         9.58672         5.57953
     2005.58521        18.37467         5.75911
     2005.58795         2.12762         5.40292
     2005.59069         4.26357         5.44732
     2005.59342         0.03151         5.43450
     2005.59616         7.15946         5.47988
     2005.59890         3.94141         5.53415
     2005.60164         0.26836         5.46508
     2005.60438         7.35331         5.52329
     2005.60711         3.94425         5.67721
     2005.60985         6.88320         5.72951
     2005.61259         3.80415         5.65945
     2005.61533         9.45610         5.65847
     2005.61807         7.08605         5.50554
     2005.62080         0.93399         5.47298
     2005.62354         6.04694         5.74825
     2005.62628        11.15389         5.76305
     2005.62902         8.83584         5.62788
     2005.63175         9.27679         5.47890
     2005.63449         4.72173         5.46607
     2005.63723         5.65768         5.54105
     2005.63997         4.98063         5.52724
     2005.64271         8.72458         5.71175
     2005.64544         3.67953         5.69201
     2005.64818         1.06647         5.55092
     2005.65092         5.30842         5.55684
     2005.65366         8.77637         5.56177
     2005.65639         6.38632         5.58052
     2005.65913        14.67327         5.79265
     2005.66187         5.08521         5.52921
     2005.66461         7.44116         5.52625
     2005.66735         8.80411         5.47692
     2005.67008        12.55106         5.50850
     2005.67282        15.61601         5.57855
     2005.67556        10.82995         5.51540
     2005.67830         2.75190         5.44042
     2005.68104         0.53785         5.43844
     2005.68377         2.09180         5.48876
     2005.68651         9.70575         5.55388
     2005.68925        10.60469         5.57953
     2005.69199         7.57064         5.44634
     2005.69472         7.89359         5.62591
     2005.69746         5.94554         5.52034
     2005.70020        13.89749         5.63281
     2005.70294         7.25544         5.56769
     2005.70568         1.96838         5.64564
     2005.70841         2.49933         5.59137
     2005.71115         5.77128         5.52823
     2005.71389         3.98323         5.43154
     2005.71663         4.61018         5.60716
     2005.71937         3.93212         5.47594
     2005.72210         2.25107         5.57361
     2005.72484         2.75302         5.49962
     2005.72758         2.82597         5.51146
     2005.73032         2.61492         5.61209
     2005.73305         5.01286         5.55980
     2005.73579         8.71481         5.57855
     2005.73853         7.27476         5.60519
     2005.74127         4.63771         5.59532
     2005.74401        13.10666         5.50652
     2005.74674        11.98760         5.65452
     2005.74948        17.13755         5.52034
     2005.75222         5.99350         5.65156
     2005.75496         5.94045         5.56769
     2005.75770         5.86640         5.51442
     2005.76043         7.20734         5.28551
     2005.76317         7.52529         5.35162
     2005.76591        13.65024         5.58743
     2005.76865        10.26919         5.50455
     2005.77138         9.66414         5.36050
     2005.77412         5.91708         5.30031
     2005.77686         7.06003         5.40095
     2005.77960        10.20798         5.44436
     2005.78234         6.90093         5.63281
     2005.78507         8.94388         5.58644
     2005.78781        11.42282         5.62689
     2005.79055         8.74877         5.45127
     2005.79329        10.32072         5.54796
     2005.79603        13.27267         5.75615
     2005.79876         6.51162         5.68017
     2005.80150         7.91356         5.62788
     2005.80424         9.55451         5.52428
     2005.80698         5.32046         5.47002
     2005.80971         6.97241         5.42562
     2005.81245        12.64036         5.61308
     2005.81519        11.46230         5.59828
     2005.81793        10.38125         5.59828
     2005.82067         5.25020         5.47100
     2005.82340         7.20615         5.57164
     2005.82614        10.45010         5.84396
     2005.82888        10.88304         6.20409
     2005.83162         0.45599         5.54599
     2005.83436         6.01694         5.66735
     2005.83709         6.63389         6.26526
     2005.83983         6.44684         5.98308
     2005.84257         9.59078         6.60467
     2005.84531        -5.89327        12.72686
     2005.84804         8.95568         5.87060
     2005.85078         7.27163         5.67228
     2005.85352         0.72458         5.68116
     2005.85626        -1.50648         5.54007
     2005.85900         3.15347         5.53612
     2005.86173         7.41842         5.66143
     2005.86447         1.78337         5.53612
     2005.86721         5.93332         5.46311
     2005.86995         0.74426         5.55487
     2005.87269       -11.28179         5.44436
     2005.87542       -12.55684         5.71273
     2005.87816        -7.31189         5.49172
     2005.88090        -6.71194         5.58447
     2005.88364        -8.71499         5.71273
     2005.88637       -13.35905         5.53809
     2005.88911       -15.08310         5.71668
     2005.89185        -9.84015         5.52921
     2005.89459        -7.67520         5.56079
     2005.89733        -0.29025         5.57361
     2005.90006         0.82469         5.69004
     2005.90280        -1.48836         5.69892
     2005.90554        -2.66541         5.59828
     2005.90828        -8.77246         5.67327
     2005.91107         2.84455         5.66439
     2005.91375        -2.01057         5.80153
     2005.91649        -0.13762         5.62393
     2005.91923         6.74633         5.77785
     2005.92197         4.46628         5.48876
     2005.92470        -6.31177         5.57559
     2005.92744        -0.80183         5.58841
     2005.93018        -0.96688         5.64564
     2005.93292         0.47507         5.79463
     2005.93566         0.66502         5.67524
     2005.93839         4.88097         5.61012
     2005.94113        -2.09509         5.44930
     2005.94387         1.85386         5.44831
     2005.94661        -0.78919         5.49962
     2005.94935        -1.73124         5.56375
     2005.95208       -12.00629         5.45620
     2005.95482       -13.74335         5.94756
     2005.95756        -9.35140         5.55388
     2005.96030        -9.64145         5.91697
     2005.96303        -6.05050         5.67031
     2005.96577        -2.72455         5.72951
     2005.96851        -2.85361         5.77391
     2005.97125        -0.25966         5.76009
     2005.97399        12.01029         5.71767
     2005.97672         6.80124         5.71865
     2005.97946         4.30019         5.74135
     2005.98220         5.16413         5.69596
     2005.98494         6.60908         5.56473
     2005.98767         8.70303         5.86172
     2005.99041         1.80898         5.51738
     2005.99315         1.45693         5.60321
     2005.99589        12.10687         5.56079
     2005.99863        14.70882         5.66735
     2006.00410        10.68972         5.61308
     2006.00684        -1.70233         5.56375
     2006.00958        -6.50039         5.51442
     2006.01232       -11.89344         5.59039
     2006.01505        -9.31649         5.60124
     2006.01779         7.02946         5.60815
     2006.02053         1.44641         5.79660
     2006.02308        -8.76285         5.97420
     2006.03509        -0.53691         9.92575
     2006.03696         5.33409         5.58249
     2006.03969        -2.01696         5.71372
     2006.04243        -9.26901         5.61604
     2006.04517        -5.08606         5.64959
     2006.04791         4.01589         5.38516
     2006.05065        -0.14416         5.66735
     2006.05338        -9.95122         5.69004
     2006.05612       -10.20327         5.57361
     2006.05886       -12.07532         5.53415
     2006.06160        -9.83437         5.43351
     2006.06433        -2.46742         5.61111
     2006.06707        -8.53048         5.57460
     2006.06981        -6.81653         5.42364
     2006.07255       -13.52858         5.53809
     2006.07529        -1.44663         5.54401
     2006.07802        -7.42368         5.43055
     2006.08076         0.70726         5.55092
     2006.08350        -6.07079         5.42266
     2006.08624        -3.92384         5.42956
     2006.08898         1.13411         5.52823
     2006.09171         1.03806         5.46212
     2006.09445        -3.02900         5.46212
     2006.09719       -11.31705         5.47890
     2006.09993       -16.72110         5.50060
     2006.10266       -15.15915         5.51836
     2006.10540       -19.33020         5.63479
     2006.10814       -15.49726         5.60913
     2006.11088       -18.73931         5.59137
     2006.11362       -20.07236         5.59532
     2006.11635       -21.85141         5.48482
     2006.11909       -12.04946         5.85086
     2006.12076        -4.74167        12.12500
     2006.12457       -14.38257         5.70287
     2006.12731       -14.83662         5.51540
     2006.13004       -18.46867         5.65452
     2006.13278       -14.22872         5.51738
     2006.13552       -16.79378         5.70287
     2006.13826        -4.48683         5.55684
     2006.14099        -2.67688         5.53020
     2006.14373        -2.02093         5.53217
     2006.14647        -3.37398         5.50159
     2006.14921        -7.97204         5.49962
     2006.15195       -11.97709         5.45028
     2006.15468        -9.91914         5.44930
     2006.15742         5.48181         5.52329
     2006.16016         8.11576         5.58644
     2006.16290        -9.01630         5.72852
     2006.16564        -8.14235         5.48186
     2006.16837        -4.86140         5.59828
     2006.17111        -7.66945         5.43154
     2006.17385        -4.30650         5.48975
     2006.17659        -1.78556         5.51540
     2006.17932         1.92939         5.61801
     2006.18206        -0.44466         5.46311
     2006.18480         4.13929         5.48284
     2006.18754         1.91024         5.54796
     2006.19028        -2.73682         5.49962
     2006.19301        -6.65787         5.49962
     2006.19575       -10.15592         5.49567
     2006.19849         3.47903         5.69892
     2006.20123        -2.48902         5.50850
     2006.20397       -16.97408         5.77292
     2006.20670        -6.94713         5.87060
     2006.20944        -4.48818         5.75812
     2006.21218       -11.31523         5.97025
     2006.21492        -6.74128         5.57559
     2006.21765        -4.46434         5.57361
     2006.22039       -14.56439         5.58249
     2006.22313       -15.22944         5.62887
     2006.22587        -4.86349         6.03340
     2006.22861         1.52246         5.77292
     2006.23134        -3.26659         5.55980
     2006.23408        -9.36765         5.45719
     2006.23682        -7.58470         5.58151
     2006.23956        -5.01775         5.54105
     2006.24230        -7.68580         5.47890
     2006.24499        -3.79890         5.79857
     2006.24783        -0.80885         5.55684
     2006.25051       -10.82296         5.45423
     2006.25325        -5.78901         5.54303
     2006.25598        -2.77206         5.60025
     2006.25872        -1.71411         5.73937
     2006.26146        -3.36717         5.66044
     2006.26420        -9.90122         5.74036
     2006.26694        -6.14227         5.69497
     2006.26967        -2.30332         5.58644
     2006.27241        -0.47137         5.55289
     2006.27515        -0.63143         5.80942
     2006.27789        -7.22948         5.65255
     2006.28062        -9.03153         5.52132
     2006.28336         3.90142         5.67425
     2006.28610         7.20137         5.53119
     2006.28884         2.18731         5.79660
     2006.29158         0.34726         5.54105
     2006.29431        -5.01579         5.65551
     2006.29705        -8.01484         5.54401
     2006.29979         1.08611         5.72457
     2006.30253        -4.91995         5.86961
     2006.30527        -3.79400         5.63775
     2006.30800        -1.97005         5.52428
     2006.31074        -4.94110         5.51540
     2006.31348        -7.11015         5.96729
     2006.31622        -2.92921         5.81140
     2006.32169        -6.06531         5.94164
     2006.32443        -5.47236         5.60519
     2006.32717         5.64759         5.85086
     2006.32991        -5.58347         5.57855
     2006.33264        -7.84552         5.59236
     2006.33538        -6.74157         5.53612
     2006.33812        -2.99262         5.55684
     2006.34086        -6.15867         5.46508
     2006.34360         1.08527         5.59927
     2006.34633         0.31722         5.54007
     2006.34907        -4.38083         5.62393
     2006.35181        -2.11988         5.61111
     2006.35450        -5.07098         5.63380
     2006.35728        -4.28099         5.54599
     2006.36002        -5.98904         5.54401
     2006.36276        -5.26709         5.52823
     2006.36550        -8.72714         5.66537
     2006.36824        -5.92319         5.66143
     2006.37097        -1.51625         5.92289
     2006.37371        -0.29730         5.80449
     2006.37645         3.42965         5.72457
     2006.37919         2.74360         5.90809
     2006.38193         4.07655         5.68215
     2006.38466         2.46949         5.51047
     2006.38740         4.71844         5.70681
     2006.39014         4.36039         5.67820
     2006.39288         0.65734         5.67228
     2006.39561         1.53129         5.71964
     2006.39835         1.35824         5.72951
     2006.40109         0.34818         5.67919
     2006.40383         2.49213         5.79561
     2006.40657        -0.04692         5.57460
     2006.40930        -6.13497         5.67031
     2006.41204        -4.02602         5.68511
     2006.41478        -4.07008         5.74332
     2006.41752        -4.21213         6.01761
     2006.42026         6.05682         6.09654
     2006.42172       -10.26960        29.19414
     2006.42967       -28.06305        18.16333
     2006.43121        -1.67139         5.61900
     2006.43394         3.59956         5.73740
     2006.43668        -4.67949         5.72161
     2006.43942        -3.75554         5.60420
     2006.44216         7.16640         5.73345
     2006.44490        -1.21865         5.54599
     2006.44763        11.63330         5.79759
     2006.45037         4.58124         6.03438
     2006.45311         2.33320         6.02353
     2006.45585        -3.54286         5.78279
     2006.45859        -1.05691         5.47199
     2006.46132        -0.23496         6.04326
     2006.46406        -3.29401         5.82028
     2006.46680         0.19794         5.85481
     2006.46954         0.72888         5.69596
     2006.47227         0.58283         5.75911
     2006.47501         2.53678         5.60420
     2006.47775        -3.02427         5.63281
     2006.48049        -9.21832         6.11430
     2006.48323        -7.00638         6.27611
     2006.48596         0.87957         6.11233
     2006.48870         4.11552         6.03340
     2006.49144         2.90247         5.73740
     2006.49418         6.96742         5.69793
     2006.49692         0.81936         6.14094
     2006.49961        -0.25874         6.18534
     2006.50231        -0.60683         6.46950
     2006.50513        -0.36079         7.29335
     2006.50787         0.86516         5.90414
     2006.51050         4.27699         6.45864
     2006.51340        -4.52989         7.32197
     2006.51611       -11.24797         8.71118
     2006.51893        -0.50193         6.70827
     2006.52156         1.12890         6.46062
     2006.52429         3.63184         5.87750
     2006.52703        10.96979         5.88145
     2006.52977         0.37874         5.97222
     2006.53251        -1.80531         6.53166
     2006.53525         5.81964         5.63873
     2006.53798        -0.74742         5.54993
     2006.54070         1.80851         6.09851
     2006.54343        -3.99155         6.45470
     2006.54614        -2.63463         5.75417
     2006.54893        -2.78162         5.46311
     2006.55162        -4.66373         5.90513
     2006.55447        -2.36167         6.85528
     2006.55715        12.11622         5.80942
     2006.55989         8.15917         5.86270
     2006.56262         4.32212         6.50403
     2006.56536         2.68206         6.63131
     2006.56810        -0.72099         8.30468
     2006.57084         8.28796         5.88244
     2006.57357         1.51491         5.58743
     2006.57631        -0.48014         7.10096
     2006.57903         1.17578         5.63183
     2006.58174         2.25970         9.05453
     2006.58441        13.29458        10.47137
     2006.58726         6.96865         6.35505
     2006.58995        -1.25646         6.13403
     2006.59274        -0.13145         6.92731
     2006.59548        -0.62151         6.19126
     2006.59822        -2.19956         6.17350
     2006.60095         0.43539         6.09851
     2006.60369        -0.73166         8.26718
     2006.60643         8.68229         5.75911
     2006.60917         3.41023         5.81830
     2006.61190         3.38118         5.55684
     2006.61464         1.01213         5.53908
     2006.61738         1.36608         5.60223
     2006.62012         9.81803         5.66636
     2006.62286        10.17597         5.59236
     2006.62559        -1.47208         5.60223
     2006.62828         6.80482         5.95249
     2006.63107         1.21682         5.60519
     2006.63381         6.58777         5.74924
     2006.63655         3.71071         5.58052
     2006.63928         2.88966         5.63084
     2006.64202         5.47861         5.63281
     2006.64476         5.33056         5.68708
     2006.64750         8.96451         5.62097
     2006.65023         1.52045         5.66340
     2006.65297         3.11840         5.84988
     2006.65571         0.90935         5.86764
     2006.65845         7.90330         6.08668
     2006.66119         5.36625         5.68017
     2006.66392         1.86119         5.87158
     2006.66666        -3.00786         5.89329
     2006.66940         1.13509         5.62985
     2006.67214         0.72404         5.55783
     2006.67488         2.12099         6.10838
     2006.67761        -1.53407         5.97321
     2006.68035        -0.80712         5.87158
     2006.68309         5.59983         6.07780
     2006.68583         7.88578         5.93670
     2006.68856         8.89573         5.84790
     2006.69130         4.82867         5.78279
     2006.69404         6.96262         5.90414
     2006.69678         2.97657         5.84988
     2006.69952        13.44352         5.77193
     2006.70220        14.25241         5.93078
     2006.70494         9.53536         6.20803
     2006.70756         1.35218         9.73829
     2006.71052       -26.37163        18.32909
     2006.71321         4.09126        15.35235
     2006.71589        -6.83385        13.63261
     2006.71780       -27.43580        35.23444
     2006.73490        -6.74138        79.46322
     2006.73741        -3.53668         7.32493
     2006.74338         9.79575         5.57953
     2006.74606        14.45063         5.63084
     2006.74880         7.98858         5.69300
     2006.75154         7.15153         5.72457
     2006.75427         4.88048         5.77785
     2006.75701         3.32643         5.55487
     2006.75975        11.15938         5.53809
     2006.76249        12.36232         5.59828
     2006.76522         4.27327         5.68116
     2006.76796        -1.42378         5.73148
     2006.77070        -3.14083         5.54697
     2006.77344        -0.31488         5.63873
     2006.77618         1.58806         5.47199
     2006.77891         5.98801         5.42660
     2006.78165         5.73396         5.49666
     2006.78439         4.99491         5.54993
     2006.78713         8.89086         5.66636
     2006.78987        19.93380         5.58447
     2006.79260         5.65875         5.58348
     2006.79534        -5.03030         5.53513
     2006.79808         1.01465         5.55585
     2006.80082         6.43560         5.74727
     2006.80355         0.64354         5.50258
     2006.80629         7.81749         5.50159
     2006.80903         5.09844         5.48876
     2006.81177         7.42639         5.73839
     2006.81451         1.22034         5.69399
     2006.81724         3.96728         5.61604
     2006.81998        -1.09177         5.49370
     2006.82272         0.88318         5.44930
     2006.82546        12.86413         5.68313
     2006.82820        -0.68392         5.47791
     2006.83093         0.17702         5.52132
     2006.83361        -0.70909         5.59433
     2006.83641        -1.10408         5.62788
     2006.83915         9.28487         5.58545
     2006.84188         0.17082         5.60321
     2006.84462         3.04776         5.74036
     2006.84736         3.71671         5.59236
     2006.85010         6.70066         5.62492
     2006.85284        11.94061         5.71471
     2006.85557        21.78656         5.75121
     2006.85809        12.69127         6.07977
     2006.86105         7.38045         5.73049
     2006.86374        -5.57765         5.83804
     2006.86653         3.75535         5.90908
     2006.86926         1.86230         5.48778
     2006.87200         2.53824         5.59927
     2006.87474         6.26419         5.66932
     2006.87748         1.77014         5.55881
     2006.88021        -2.13591         5.55388
     2006.88295        -7.69796         5.53711
     2006.88569         2.04598         5.68511
     2006.88843         4.26893         5.48284
     2006.89117         0.42888         5.62689
     2006.89390        -1.05717         5.74825
     2006.89664        14.53578         6.02057
     2006.89938        -5.28028         5.33682
     2006.90212        -1.62433         5.44930
     2006.90485         5.87462         5.60420
     2006.90759         2.03757         5.49271
     2006.91033        -2.87848         5.33386
     2006.91307        -3.37954         5.37628
     2006.91581        -7.30559         5.56375
     2006.91854       -12.97864         5.98900
     2006.92128       -13.72669         5.57657
     2006.92402        -5.45074         5.50356
     2006.92676        -8.55579         5.55487
     2006.92950        -5.13085         5.60223
     2006.93223        -5.89890         5.63380
     2006.93497        -7.12795         5.70385
     2006.93771         1.24700         5.55585
     2006.94045         6.29095         6.94013
     2006.94318         1.33589         5.66735
     2006.94592        10.32784         5.65452
     2006.94866         5.77779         5.63084
     2006.95140        10.15074         5.57263
     2006.95414        10.95369         5.99393
     2006.95687         2.20763         5.60617
     2006.95961        -1.69542         5.61308
     2006.96235        -3.09447         5.49962
     2006.96509        -2.44252         5.70583
     2006.96783        -3.57457         5.61703
     2006.97056        -3.72263         5.58545
     2006.97330        -4.14668         5.59631
     2006.97604        -4.43673         5.66833
     2006.97878        -5.06078         5.58249
     2006.98151        -2.59383         5.64071
     2006.98425         1.95711         5.64663
     2006.98699         7.86106         5.88342
     2006.98973        -7.53599         5.77391
     2006.99247       -12.38804         5.61801
     2006.99520       -11.46109         5.82916
     2006.99794        -5.86915         5.69300
     2007.00342         5.92575         5.88145
     2007.00616         2.93270         5.69695
     2007.00889         0.59865         5.60223
     2007.01163        -2.66441         5.65551
     2007.01437        -1.91246         5.57460
     2007.01711        -9.38151         5.47396
     2007.01984        -8.88756         5.76009
     2007.02258        -5.62661         5.44338
     2007.02532        -0.29567         5.57657
     2007.02806       -12.28972         5.67228
     2007.03080       -15.02177         5.45226
     2007.03353       -16.29882         5.36938
     2007.03627       -17.24287         5.39996
     2007.03901       -18.59893         5.34964
     2007.04175       -11.51998         5.42660
     2007.04449       -13.33403         5.37234
     2007.04722       -17.96008         5.55881
     2007.04996       -11.44213         5.55684
     2007.05270       -15.41119         5.59137
     2007.05544       -16.59924         5.45423
     2007.05817       -15.41729         5.55092
     2007.06091        -9.68034         5.42759
     2007.06365       -11.77339         5.47199
     2007.06639       -10.39745         5.48975
     2007.06913       -12.33650         5.35063
     2007.07186       -13.98555         5.35162
     2007.07460        -9.92960         5.45423
     2007.07734       -11.05265         5.40490
     2007.08008       -10.90771         5.37332
     2007.08282        -8.80276         5.38418
     2007.08555        -3.85181         5.59532
     2007.08829        -9.03186         5.45719
     2007.09103        -5.15691         5.50159
     2007.09377        -3.46897         5.53020
     2007.09650        -3.94102         5.49074
     2007.09924        -2.81107         5.59433
     2007.10198        -5.03712         5.57263
     2007.10472         0.76283         5.75121
     2007.10746         1.21478         5.63873
     2007.11019        -0.79028         5.45226
     2007.11293         8.24867         5.58940
     2007.11567        -3.92638         5.42660
     2007.11841        -4.45443         5.49271
     2007.12115        -7.45148         5.50258
     2007.12388         7.00146         5.61703
     2007.12662        -3.32159         5.49370
     2007.12936        -5.52764         5.67228
     2007.13210        -0.90569         5.54796
     2007.13483         5.20826         5.56572
     2007.13757         8.41520         5.50652
     2007.14031         0.59515         5.48778
     2007.14305         0.31910         5.41180
     2007.14579         5.61305         5.42266
     2007.14852        -0.24100         5.54895
     2007.15126         2.91694         5.46114
     2007.15400         1.66789         5.43154
     2007.15674         4.64784         5.49172
     2007.15948         4.17679         5.45916
     2007.16221        -0.36126         5.62887
     2007.16495        -3.87432         5.51047
     2007.16769        -5.71637         5.54007
     2007.17043        -5.24942         5.44239
     2007.17316        -2.71747         6.70827
     2007.17590        -5.37952         5.48284
     2007.17864        -2.69858         5.44535
     2007.18138        -0.94463         5.59532
     2007.18412        -4.00368         5.49468
     2007.18685         0.02627         5.54993
     2007.18959        -2.75478         5.49863
     2007.19233        -3.19084         5.51836
     2007.19507        -4.97389         5.41575
     2007.19780        -9.22994         5.49567
     2007.20054       -11.51999         5.55092
     2007.20328        -8.61104         5.52329
     2007.20602        -1.93710         5.45719
     2007.20876        -4.06315         5.46804
     2007.21149        -8.78720         5.51836
     2007.21423         1.85575         5.57460
     2007.21697         2.50070         5.53809
     2007.21971        -5.86236         5.44436
     2007.22245        -1.51641         5.45719
     2007.22518         2.27554         5.41674
     2007.22792        -0.06351         5.49271
     2007.23066        -4.37456         5.49863
     2007.23340         2.33838         5.54993
     2007.23613        -9.57367         5.48284
     2007.23887        -9.95072         5.42562
     2007.24161        -7.72777         5.44042
     2007.24435        -4.82682         5.43844
     2007.24709        -0.81588         5.50159
     2007.24982        -7.12493         5.46410
     2007.25256        -8.79098         5.48975
     2007.25530        -9.89703         5.40588
     2007.25804        -6.48908         5.55092
     2007.26078        -7.04814         5.58545
     2007.26351        -2.56119         5.49666
     2007.26625        -0.10124         5.50652
     2007.26899         7.55371         5.55585
     2007.27173        -0.03634         5.64465
     2007.27446         0.63661         5.60913
     2007.27720         5.55855         5.52527
     2007.27994        -1.65750         5.48383
     2007.28547         3.36846         5.70879
     2007.28815        -1.95865         5.55783
     2007.29089         8.33829         5.54105
     2007.29363        -1.38776         5.53612
     2007.29637         2.33619         5.41082
     2007.29911         1.15714         5.62887
     2007.30732         3.43798         5.47199
     2007.31006         3.82693         5.58447
     2007.31279         6.81688         5.52034
     2007.31553         1.87183         5.54204
     2007.31827         1.77377         5.57164
     2007.32101         0.44472         5.63281
     2007.32375        -2.21433         5.73247
     2007.32648         0.32962         5.51540
     2007.32922         2.83957         5.42167
     2007.33196         4.69951         5.60025
     2007.33470         1.53246         5.69497
     2007.33744         3.10641         5.52428
     2007.34017        -2.18664         5.51244
     2007.34291        -5.30169         5.59532
     2007.34565        -3.86575         5.66735
     2007.34839         0.74720         5.56868
     2007.35112        -2.40185         5.58151
     2007.35386        -1.12790         5.95052
     2007.35660        -5.67395         6.00281
     2007.35934         5.16999         5.56079
     2007.36208        -1.48306         5.56868
     2007.36481        -4.00111         5.70484
     2007.36755        -1.33016         5.58644
     2007.37029         0.89079         5.56276
     2007.37303         1.19773         5.85382
     2007.37531        -2.87581         7.02005
     2007.37850         8.96263         5.80252
     2007.38124        -1.44042         5.61308
     2007.38398         5.66953         5.53513
     2007.38672         5.21147         5.66143
     2007.38945         0.59242         5.71767
     2007.39105         6.36814        13.81810
     2007.39373        14.70803        16.43373
     2007.39767        -1.32773         5.59039
     2007.40041        13.56121         5.83409
     2007.40314         5.43616         5.65255
     2007.40588        -3.98989         5.59039
     2007.40862        -7.00894         5.65156
     2007.41136         4.63901         5.66241
     2007.41410        -3.46605         6.45075
     2007.42425        21.05089         9.31106
     2007.42776         7.52566         5.50455
     2007.43047         3.09058         5.63577
     2007.43326        -0.61741         5.52329
     2007.43594        -1.75052         5.74135
     2007.43874         5.52849         5.55980
     2007.44142        -2.88663         5.62985
     2007.44421        -1.33462         5.70089
     2007.44689         1.36627         5.86172
     2007.44969        -6.47072         5.56572
     2007.45220        -1.60202         6.12121
     2007.45499        -5.18901         5.87257
     2007.45790         5.36012         5.44042
     2007.46064        -3.86793         5.54303
     2007.46315        -1.18023         6.13107
     2007.46606        -6.70709         5.72260
     2007.46885         2.56392         5.49172
     2007.47159        -1.78214         5.41378
     2007.47433        -1.55319         5.56868
     2007.47707        -6.82624         5.61111
     2007.47980        -8.88329         5.39503
     2007.48251       -10.29938         5.69004
     2007.48534        -6.81334         5.52132
     2007.48802        -3.36645         5.46804
     2007.49076         4.08450         5.49764
     2007.49349        -6.58455         5.51738
     2007.49623         2.91640         5.45522
     2007.49897         4.21034         5.47298
     2007.50171        -2.04271         5.48778
     2007.50444        -1.24576         5.50258
     2007.50718        -3.18181         5.40786
     2007.50992        -3.63786         5.46311
     2007.51266        -3.52292         5.49074
     2007.51540        -3.72297         5.42463
     2007.51813         0.64898         5.49863
     2007.52087        -3.40707         5.54303
     2007.52361        -2.94412         5.54105
     2007.52635        -0.92118         5.49567
     2007.52908         0.05677         5.51836
     2007.53182         8.30772         5.62887
     2007.53456        -0.24933         5.53316
     2007.53730         8.21962         5.56473
     2007.54004         5.00656         5.70879
     2007.54277         8.47251         5.56868
     2007.54551        11.65246         5.76503
     2007.54825         3.49341         5.47495
     2007.55099         8.20936         5.64564
     2007.55373         1.20230         5.53908
     2007.55646         3.65025         9.30909
     2007.55920        13.48620         5.76996
     2007.56194         2.43015         5.37924
     2007.56468         6.66410         5.61012
     2007.56741         0.88704         5.61407
     2007.57015         7.51699         5.59433
     2007.57289         8.84694         5.51146
     2007.57563         5.65789         5.45719
     2007.57837         2.46584         5.44831
     2007.58110         4.18678         5.50751
     2007.58384         5.39573         5.64268
     2007.58658         8.95868         5.87060
     2007.58932        -3.83837         5.48383
     2007.59206         9.39958         5.51244
     2007.59479         7.75752         5.58151
     2007.59753         2.07247         5.61900
     2007.60027        11.82342         5.48482
     2007.60301        10.63837         5.40786
     2007.60574         9.38732         5.49074
     2007.60848         7.47726         5.43844
     2007.61122        11.36921         5.43055
     2007.61396        -0.94384         5.48087
     2007.61670         2.57611         5.77489
     2007.61943         3.65106         5.73345
     2007.62217         7.90800         5.76700
     2007.62491        11.04295         5.71175
     2007.62765         9.08290         5.77983
     2007.63039         8.48385         5.79167
     2007.63312         9.86380         5.57657
     2007.63586         5.79675         5.56572
     2007.63860         0.09769         5.68905
     2007.64134        11.65564         5.71964
     2007.64407         6.10459         5.87060
     2007.64681         9.36354         5.73839
     2007.64955        11.49949         5.78180
     2007.65229         6.74443         5.75121
     2007.65503         3.29338         5.49764
     2007.65776         3.34933         5.45620
     2007.66050         5.49228         5.57164
     2007.66324        12.92323         5.72457
     2007.66598        11.81617         5.50455
     2007.66872         8.87312         5.66932
     2007.67145         7.94207         5.58940
     2007.67419         9.86302         5.61900
     2007.67635         9.48935         7.75314
     2007.67967        12.51791         5.54303
     2007.68322        29.94574         8.71216
     2007.68514         3.64781         5.85382
     2007.68788         5.93976         5.69300
     2007.69062         5.70471         5.39207
     2007.69336         8.00965         5.56769
     2007.69609        14.75460         5.48778
     2007.69883         5.97555         5.57361
     2007.70157         6.32250         5.51836
     2007.70431         5.32045         5.58644
     2007.70705         7.37539         5.58447
     2007.70978        13.12534         5.59532
     2007.71252         6.73029         5.85382
     2007.71526         4.73424         5.48482
     2007.71800         5.27319         5.54500
     2007.72073        11.51613         5.49172
     2007.72347        12.51308         5.54697
     2007.72621        12.67103         5.50356
     2007.72895         9.83098         5.54204
     2007.73169         5.23693         5.63775
     2007.73442         4.32387         5.56967
     2007.73716         3.04282         5.63380
     2007.73990        12.97177         5.57855
     2007.74264        17.40272         5.54599
     2007.74538         8.74467         5.53908
     2007.74811         5.06661         5.65452
     2007.75085         5.60656         5.75713
     2007.75359        15.39951         5.80844
     2007.75633        10.06346         5.57657
     2007.75906        13.18441         5.51047
     2007.76180         8.36335         5.49172
     2007.76454        -1.46270         5.48087
     2007.76728         5.55825         5.91894
     2007.77002        10.41120         5.91993
     2007.77275         2.52615         5.74431
     2007.77549        11.07209         5.45818
     2007.77823         5.61704         5.50554
     2007.78097         8.05499         5.47594
     2007.78371         6.41794         5.47890
     2007.78644         8.87089         5.44930
     2007.78918         9.22783         5.63676
     2007.79192        13.09078         5.57657
     2007.79466        12.27673         5.59631
     2007.79739        14.59568         5.49764
     2007.80013        13.21163         5.72161
     2007.80287         7.90758         5.46903
     2007.80561        -3.10348         5.51442
     2007.80835        -0.01853         5.54303
     2007.81108         0.97042         5.60025
     2007.81382         4.75937         5.72161
     2007.81656        -5.60668         5.70780
     2007.81930        -1.37274         5.38812
     2007.82203        -4.40979         5.44140
     2007.82477        -0.96984         5.52724
     2007.82751         0.29511         5.46311
     2007.83025        -1.75694         5.50356
     2007.83299        -0.20100         5.50554
     2007.83572        -1.01705         5.43351
     2007.83846        -2.27010         5.44042
     2007.84120         4.07985         5.50751
     2007.84394        -3.63220         5.55881
     2007.84668        -3.63426         5.42759
     2007.84941        -1.36131         5.55684
     2007.85215         3.91264         5.63380
     2007.85489        17.76759         5.64663
     2007.85763        10.39254         5.47298
     2007.86036         2.74248         5.40687
     2007.86310         1.93943         5.42759
     2007.86584         2.88738         5.45028
     2007.86858         0.00733         5.41476
     2007.87132         4.20928         5.40786
     2007.87405         7.27622         5.56473
     2007.87679        13.31317         5.53711
     2007.87953         3.85212         5.47988
     2007.88227        15.55507         5.50060
     2007.88501        -2.56598         5.42266
     2007.88774        -5.44704         5.55092
     2007.89048        -6.64209         5.53711
     2007.89322        -9.15114         5.74332
     2007.89596        -2.35219         5.63972
     2007.89869        -5.50024         5.53809
     2007.90143        -2.90830         5.56572
     2007.90417         8.52265         5.64564
     2007.90691        -8.95940         5.51836
     2007.90965        -3.15145         5.57361
     2007.91238         0.69650         5.46706
     2007.91512         5.42144         5.40687
     2007.91786         9.41339         5.54895
     2007.92060        -5.56166         6.62144
     2007.92334         2.00129         5.68609
     2007.92607         4.78724         5.51047
     2007.92881         0.98518         5.57756
     2007.93155        -0.92187         5.62393
     2007.93429        -8.49292         5.60716
     2007.93702        -6.59297         5.65452
     2007.93976       -15.11702         5.48679
     2007.94250       -12.49208         5.49567
     2007.94524        -2.86313         5.96236
     2007.94798       -11.93218         5.54007
     2007.95071        -6.88623         5.61703
     2007.95345         0.75972         5.59729
     2007.95619        -2.78734         5.51343
     2007.95893         6.93161         5.63479
     2007.96167         5.13556         5.84790
     2007.96440         7.54551         5.74727
     2007.96714         4.34646         5.83804
     2007.96988       -15.14360         5.68905
     2007.97262        -9.83265         5.62985
     2007.97535        -9.75070         5.59729
     2007.97809        -1.67875         5.57460
     2007.98083        -8.13480         5.56671
     2007.98357        -5.60385         5.56572
     2007.98631        -0.05591         5.79265
     2007.98904        -5.34196         5.72556
     2007.99178        -7.31701         5.54697
     2007.99452        -5.65306         5.54500
     2007.99726       -11.99911         5.53513
     2008.00000       -18.71617         5.56868
     2008.00273       -12.27522         5.44338
     2008.00547        -3.50827         5.39108
     2008.00821         1.33168         5.53809
     2008.01095         4.77763         5.56868
     2008.01368         2.58657         5.54599
     2008.01642        -1.39948         5.49074
     2008.01916        -5.16553         5.47988
     2008.02190        -6.44058         5.47988
     2008.02464        -1.40963         5.48679
     2008.02737        -2.91669         5.54599
     2008.03011        -3.20174         5.60223
     2008.03285        -7.65379         5.54993
     2008.03559        -7.81584         5.51540
     2008.03833        -8.19789         5.56473
     2008.04106       -14.02295         5.60321
     2008.04380       -11.86800         5.53809
     2008.04654       -12.95205         5.63873
     2008.04928       -10.17510         5.50258
     2008.05201       -14.01815         5.45916
     2008.05475        -9.00721         5.51540
     2008.05749       -15.95726         5.55881
     2008.06023       -12.22431         5.54105
     2008.06297        -8.23536         5.58151
     2008.06570        -8.07741         5.54993
     2008.06844        -5.29847         5.49863
     2008.07118        -2.86452         6.00774
     2008.07392         4.26443         5.54796
     2008.07666         3.99738         5.93374
     2008.07939         8.82233         5.79068
     2008.08213        12.74527         5.61703
     2008.08487        -6.34978         5.47298
     2008.08761       -10.68383         5.52527
     2008.09034        -2.50488         5.44535
     2008.09308        -6.48893         5.55783
     2008.09582        -2.86099         5.68609
     2008.09856        -0.65504         5.72457
     2008.10130         2.77591         5.63775
     2008.10403        -8.66114         5.42266
     2008.10677        -6.37319         5.57559
     2008.10951        -9.63225         5.57065
     2008.11225        -6.98830         5.57164
     2008.11498        -8.30935         5.45522
     2008.11772        -5.47840         5.59236
     2008.12046        -6.19645         5.49468
     2008.12320        -7.28151         5.76601
     2008.12594         4.44344         5.70780
     2008.12867        -6.93661         5.52428
     2008.13141        -3.68766         5.49074
     2008.13415        -5.19071         5.51244
     2008.13689        -3.64477         5.49468
     2008.13963         4.15018         5.74431
     2008.14236        -2.46287         5.45127
     2008.14510        -2.20192         5.57657
     2008.14784        -2.87997         5.43844
     2008.15058        -6.87203         5.48679
     2008.15331        -8.54808         5.53020
     2008.15605       -11.55013         5.45522
     2008.15875        -9.62422         5.55980
     2008.16234         6.17064         8.50793
     2008.16427        -0.45228         5.59532
     2008.16700       -12.20834         5.50850
     2008.16974       -18.76139         5.41970
     2008.17248        -7.89244         5.51935
     2008.17522       -11.71249         5.52132
     2008.17759       -18.03194         6.53067
     2008.18069       -17.62260         5.42463
     2008.18343        -4.81765         5.57855
     2008.18617        -5.38570         5.48975
     2008.18832       -18.47839         7.53508
     2008.19164        -4.72280         5.64959
     2008.19438       -10.19586         5.36642
     2008.19712        -3.74291         5.43647
     2008.19986         1.96004         5.45818
     2008.20260        -1.49401         5.58447
     2008.20533         0.32394         5.47199
     2008.20807        -9.62012         5.62591
     2008.21081         3.10483         5.77785
     2008.21355       -10.11722         5.60815
     2008.21629        -0.92427         5.54697
     2008.21902       -14.84232         5.63183
     2008.22176       -18.86938         5.55980
     2008.22450       -12.19043         5.49271
     2008.22724        -8.78548         5.57361
     2008.22997       -10.02853         5.69991
     2008.23271        -4.67258         5.68412
     2008.23545         0.59736         5.58348
     2008.23819        -9.67769         5.75516
     2008.24093         1.71126         5.51442
     2008.24366        -3.54379         5.56177
     2008.24640        -2.09184         5.57263
     2008.24914        -7.36490         5.55881
     2008.25188        -8.42595         5.61604
     2008.25462        -9.22100         5.48876
     2008.25735        -8.93205         5.42956
     2008.26009         9.92090         5.75023
