# ================= DQRFIT RESULTS ================
# INPUT FILE: series/SS01.rad
# OUTPUT: LDETRENDED
# FILTER FUNCTION: f(t)
# f(t)=+line(t)
# line(t)=+P 1+P 2*t
# heav(t)=(t<0?0:1)
# TOTAL OBSERVATIONS MTOT=   48
# INITIAL TIME INTERVAL= 2013.6947 - 2001.7112 = 11.9836
# TOTAL OBSERVATIONS AFTER PREFILTER M=   48
# TIME-SPAN=    0.0000 -    0.0000 =  0.0000
# OBSERVATIONS: USED M=    48 REJECTED MTOT-M=     0 %USED=  100.0000
# N=  2 PARAMETERS
# MAXSIG= 175.00000
# MAXRES=  47.25571
# SCALE FACTOR FOR LENGTHS: SCL=  10.00000
# SCALE FACTOR FOR SIGMAS: SCLSIG=   1.00000
# CHI^2=    458.531 DOF=    46 CHI^2/DOF=   9.96806
# RMS=     17.057 SDEV=     17.165 MEAN=   -1.56128
#  P #       PARAMETER +-    SIGMA %error PARAMETER NAME
# P 1 =     -1758.52318 +- 1090.807  62.03 YZERO                              
# P 2 =         0.87668 +-    0.543  61.98 SLOPE                              
#       T            LDETRENDED       SIG_OBS
     2001.71116         3.09747        28.40945
     2001.71389        11.49045        12.47099
     2001.71663         6.41395        12.63456
     2001.71937       -11.57415        15.27788
     2002.72690        -7.81007        12.30277
     2002.72964        -4.23154        12.21303
     2002.73238         4.00260        12.20843
     2002.73511        -2.05826        12.26779
     2002.73785        -3.82392        13.93146
     2003.69336        -6.94298        11.34235
     2003.69610       -32.09237        27.19967
     2004.57221        16.98126        11.86331
     2004.57495        -1.48023        13.02335
     2005.62902         9.41346        12.07642
     2005.63176         6.71263        14.79063
     2006.52430        47.25571        24.41862
     2006.52704        -0.04129        12.41970
     2006.52977        -3.25779        12.49567
     2006.53251         9.39189        12.70365
     2006.53525        13.29060        12.55097
     2006.53799        -5.30450        12.58511
     2006.54073        -1.31815        12.77914
     2006.54346         5.36443        12.49478
     2006.54620         8.20050        17.33850
     2008.58864       -18.25959        17.88924
     2008.64339        -2.19622        21.47586
     2008.64613        -8.70553        13.46020
     2009.75770        -8.14572        11.49412
     2009.76044        -6.76512        11.41055
     2009.76318         0.27829        11.65885
     2009.76591         4.64136        11.45025
     2009.76865        -6.17635        11.82579
     2009.77139       -12.51590        11.83056
     2009.77413        10.25254        12.70331
     2010.69952       -58.72388        23.81158
     2010.70226       -27.16005        11.85941
     2010.70500       -27.37158        11.89573
     2010.70773        -3.37539        17.03225
     2011.69610       -25.82592        46.91135
     2011.69884        11.71291        11.46517
     2011.70157         4.17615        11.32559
     2011.70431        20.30013        22.30272
     2012.69268       -24.90608        27.06947
     2012.69541        -0.54270        11.39875
     2012.69815        18.09382        13.10383
     2013.68925       -17.92472        27.57983
     2013.69199        11.35848        11.67109
     2013.69473        31.16008        13.63247
