# ================= DQRFIT RESULTS ================
# INPUT FILE: series/STAR.rad
# OUTPUT: LDETRENDED
# FILTER FUNCTION: f(t)
# f(t)=+line(t)+annual(t)+jumps(t)
# line(t)=+P 1+P 2*t
# annual(t)=+P 3*sin(2*pi*t+P 4)
# jumps(t)=+P 5*heav(t-2009.6947  )+P 6*heav(t-2010.6995  )
# heav(t)=(t<0?0:1)
# TOTAL OBSERVATIONS MTOT=  345
# INITIAL TIME INTERVAL= 2011.6942 - 2008.6981 =  2.9961
# TOTAL OBSERVATIONS AFTER PREFILTER M=  318
# TIME-SPAN= 2011.6942 - 2008.6981 =  2.9961
# OBSERVATIONS: USED M=   318 REJECTED MTOT-M=    27 %USED=   92.1739
# N=  6 PARAMETERS
# MAXSIG= 175.00000
# MAXRES=  49.33170
# SCALE FACTOR FOR LENGTHS: SCL=  10.00000
# SCALE FACTOR FOR SIGMAS: SCLSIG=   1.00000
# CHI^2=    944.438 DOF=   312 CHI^2/DOF=   3.02705
# RMS=     17.590 SDEV=     17.515 MEAN=   -1.89863
#  P #       PARAMETER +-    SIGMA %error PARAMETER NAME
# P 1 =     55634.53243 +- 6456.875  11.61 YZERO                              
# P 2 =       -27.64013 +-    3.214  11.63 SLOPE                              
# P 3 =        37.95687 +-    1.609   4.24 ANNUAL AMPLITUDE                   
# P 4 =        -0.48983 +-    0.046   9.44 ANNUAL PHASE                       
# P 5 =        22.39946 +-    4.223  18.85 OFFSET 2009.6947                   
# P 6 =        -9.17694 +-    3.503  38.17 OFFSET 2010.6995                   
#       T            LDETRENDED       SIG_OBS
     2008.69815       -33.24965        11.57342
     2008.70089       -32.98298        11.32288
     2008.70362       -34.94130        11.34550
     2008.70636       -32.72963        11.42380
     2008.70910       -33.36295        11.75784
     2008.71184       -34.41628        11.77176
     2008.71457       -37.67160        11.15586
     2008.76659       -31.86392        11.76306
     2008.76815       -33.56169        33.95473
     2008.77207       -35.41344        11.08453
     2008.77481       -41.03976        11.16804
     2008.77754       -30.77009        11.83092
     2008.78028       -33.41241        11.98924
     2008.78302       -31.90174        11.99794
     2008.78576       -38.94406        11.90747
     2008.78850       -38.18139        11.81874
     2008.79123       -34.12671        11.93009
     2008.79397       -66.36104        12.45900
     2008.79671       -39.30637        11.74219
     2008.79945       -32.86369        11.52819
     2008.80219       -31.07602        11.54558
     2008.80492       -39.92934        11.72827
     2008.80766       -31.84767        11.60300
     2008.81040       -23.68899        11.88485
     2008.81314       -27.11532        11.87267
     2008.81587       -37.84364        13.43679
     2008.81861       -41.62897        12.04318
     2008.82135       -37.63529        11.56124
     2008.82409       -33.26262        11.59082
     2008.82683       -34.27195        11.47251
     2008.82956       -32.63527        11.58560
     2008.83230       -38.12460        11.24807
     2008.83504       -32.74779        11.26895
     2008.83778       -16.86725        11.23937
     2008.84052       -24.65057        11.31593
     2008.84325       -27.33590        11.20806
     2008.84599       -26.26022        11.14890
     2008.84873       -31.05155        11.22545
     2008.85147       -37.72687        17.58283
     2008.85420       -38.45620        13.91873
     2008.85694       -39.02153        11.37334
     2008.85968       -35.96285        11.09149
     2008.86242       -41.99418        11.49339
     2008.86516       -64.07250        15.60811
     2008.86789        -8.74383        14.21276
     2008.87063       -37.95415        12.71302
     2008.87337       -61.74748        12.00664
     2008.87611       -67.39480        11.68303
     2008.87885       -64.84913        11.70043
     2008.88158       -33.50945        11.34550
     2008.88432       -41.08178        11.35942
     2008.88706       -37.67511        11.55950
     2008.88980        -2.92743        14.16926
     2008.89253       -26.73576        11.99968
     2008.89527       -33.39108        11.46033
     2008.89801       -26.41641        11.74045
     2009.69569       -20.01544        24.03242
     2009.69746       -11.35744        11.46381
     2009.70020       -10.09976        11.59430
     2009.70294        -7.63509        11.51949
     2009.70568       -13.52641        11.48295
     2009.70841       -14.54174        11.50209
     2009.71115       -15.80006        11.71435
     2009.71389        -8.44239        11.87441
     2009.71663       -18.33271        11.57690
     2009.71937       -14.44504        11.49339
     2009.72210       -21.12836        11.67085
     2009.72484       -17.47969        11.74567
     2009.72758       -19.03602        11.74393
     2009.73032        -7.68734        11.55428
     2009.73305        -9.76067        11.81004
     2009.73579        -6.83199        11.89877
     2009.73853       -11.11332        11.55950
     2009.74127        -8.08664        11.77524
     2009.74401        -7.72197        11.91791
     2009.74674        -8.27429        11.55602
     2009.74949        -6.22749        11.61518
     2009.75222       -12.63094        11.74045
     2009.75496       -13.44727        11.54906
     2009.75770       -15.69160        11.61692
     2009.76043        -5.63992        11.59256
     2009.76317        -7.23325        11.82570
     2009.76591        -5.37357        11.74219
     2009.76865        -6.23990        12.15105
     2009.77138        -3.46622        11.98228
     2009.77412        -5.70455        11.95967
     2009.77686        -7.77987        12.02056
     2009.77960        -3.13120        11.93531
     2009.78234        -1.62552        11.97359
     2009.78507        -1.26685        11.67607
     2009.78781       -21.84017        12.39115
     2009.79055       -20.93750        12.37723
     2009.79329       -20.48983        12.72694
     2009.79603        -7.07315        12.27284
     2009.79876       -11.49048        12.23108
     2009.80150       -15.84980        12.27110
     2009.80424        -5.88113        12.46770
     2009.80698        -5.98245        12.26066
     2009.80971       -13.11478        12.25718
     2009.81245       -22.68610        12.39985
     2009.81519       -15.69843        12.37549
     2009.81793       -37.36475        13.08534
     2009.82067       -53.69208        14.01094
     2009.82340       -51.98641        13.91525
     2009.82614       -40.72473        16.50587
     2009.83162        33.78462        19.94380
     2009.83436        -3.10858        17.60893
     2009.96851       -10.24865        24.93888
     2009.97125        -0.36898        26.15155
     2009.97399       -26.80931        20.07776
     2009.97672       -24.06663        20.39963
     2009.97941       -33.51340        20.00121
     2009.98096        16.07643        68.60193
     2010.00410         3.83112        17.15309
     2010.00684         6.52279        16.39452
     2010.00958         3.68246        16.47803
     2010.01232        10.61414        16.21358
     2010.01505        11.74781        12.76347
     2010.01779         9.16649        12.59819
     2010.02053        -0.39284        15.54374
     2010.02327         3.17084        14.85302
     2010.02600         6.31051        14.96437
     2010.02874        12.22119        13.69255
     2010.03071        20.66958        23.84626
     2010.03422        17.92854        12.66952
     2010.03696        23.76121        12.94268
     2010.03969        15.92188        12.42768
     2010.04243         7.21456        12.52337
     2010.04517        19.41823        11.65345
     2010.04791        27.77391        11.41162
     2010.05065        31.49458        11.51079
     2010.05338        33.29026        11.83440
     2010.05612        27.94793        11.37334
     2010.05886        20.33261        11.45859
     2010.06160        17.64428        11.40988
     2010.06433        22.49596        11.55254
     2010.06707        19.15163        11.57168
     2010.06981        14.62030        11.77350
     2010.07255        11.24298        11.77176
     2010.07529        17.36065        12.06406
     2010.07802        13.42433        11.76132
     2010.08076        19.32900        11.33506
     2010.08350        25.92668        11.17848
     2010.08624        26.42448        11.41858
     2010.08898        34.11803        11.97359
     2010.09171        25.04170        11.62736
     2010.09445        25.90538        11.67259
     2010.09719        26.52705        11.79612
     2010.09993        16.73672        11.41336
     2010.10266        23.36640        11.65171
     2010.10540        24.65407        11.46207
     2010.10814        26.80175        11.56820
     2010.11088        27.72942        12.14409
     2010.11362        40.72110        13.06099
     2010.11635        26.53877        11.58734
     2010.11909        30.61945        12.19628
     2010.12183        36.25812        11.20284
     2010.12457        33.89480        11.21501
     2010.12731        39.43847        11.52471
     2010.13004        22.73215        11.83440
     2010.13278         3.87082        13.46637
     2010.13552         2.09249        12.71650
     2010.13826        11.18717        12.49380
     2010.14099         6.13984        12.18063
     2010.14373         7.38052        12.60689
     2010.14647        19.76319        12.18063
     2010.14921        27.91587        12.75999
     2010.15195        34.13154        11.65693
     2010.15468        23.79822        11.70913
     2010.15742        26.65389        11.79264
     2010.16016        22.61157        11.65171
     2010.16290        24.56037        11.44293
     2010.16564        40.88191        11.28809
     2010.16837        39.73859        11.48643
     2010.17111        40.79126        11.26373
     2010.17385        43.11194        11.39596
     2010.17659        46.49061        11.39422
     2010.17932        56.14029        11.22023
     2010.18206        55.98396        11.52645
     2010.18480        55.34764        11.51601
     2010.18754        56.82131        11.21675
     2010.19028        63.40399        11.26895
     2010.19301        62.54066        11.32984
     2010.19575        50.34333        11.78220
     2010.19849        49.41501        11.67955
     2010.20123        48.35468        11.69695
     2010.20397        56.46036        11.87267
     2010.20670        48.42603        12.27110
     2010.20944        49.45771        11.64302
     2010.21218        57.29438        11.54906
     2010.21423        56.00314        17.19659
     2010.21765        69.10473        11.14716
     2010.22039        60.89941        11.71957
     2010.22313        54.92008        11.83092
     2010.22587        57.34875        11.41858
     2010.22861        56.09543        11.39770
     2010.23134        56.95110        11.55602
     2010.23408        46.36178        11.94053
     2010.23956        56.81013        11.61866
     2010.24230        62.73180        12.57383
     2010.24503        50.00548        14.38500
     2010.24778        63.61628        11.70043
     2010.25051        69.30383        12.65908
     2010.25325        67.87650        12.59819
     2010.25598        46.81317        12.06580
     2010.25872        62.03985        11.39944
     2010.26146        73.51252        12.98791
     2010.26420        80.45620        13.12362
     2010.26694        74.77087        14.33977
     2010.26967        72.05455        13.81086
     2010.27182        78.70693        22.30650
     2010.59822        11.30249        11.02711
     2010.60095        53.46317        15.57158
     2010.62559         4.53924        11.02189
     2010.62833         3.62191        10.99231
     2010.63107         7.54659        11.31419
     2010.63381        14.03326        10.98884
     2010.63655        11.06794        10.99405
     2010.63928         5.40661        11.02363
     2010.64202         2.00229        10.94708
     2010.64476         2.22096        11.10192
     2010.64750         7.51764        11.05669
     2010.65023         9.37131        11.19240
     2010.65297         5.38399        11.30897
     2010.65571         4.14266        10.81485
     2010.65845         9.28833        10.78875
     2010.66119         9.64101        11.00971
     2010.66392        14.58068        11.08279
     2010.66667       -23.31951        11.55602
     2010.66940       -15.04797        11.27417
     2010.67214         9.14971        10.90880
     2010.67488        14.99238        10.96274
     2010.67761        15.60606        10.92446
     2010.68035        12.08473        11.03755
     2010.68309        10.76341        10.96796
     2010.68583         3.19408        10.84443
     2010.68856         0.66576        10.87053
     2010.69130         8.66043        10.82529
     2010.69404        11.41610        11.17326
     2010.69678         4.93578        10.91054
     2010.70225       -32.42987        13.74300
     2010.70499       -13.84320        10.98014
     2010.70773       -11.85452        11.79264
     2010.71047       -18.55785        11.00101
     2010.71321       -12.00517        11.06887
     2010.71594        -1.23750        10.92620
     2010.71868       -16.46182        11.16282
     2010.72142       -30.79715        11.23241
     2010.72416       -29.54348        11.60300
     2010.72788       -34.38747        22.01073
     2010.73032       -22.28221        16.03263
     2010.73306       -23.51440        16.22054
     2010.73580       -20.36460        16.24489
     2010.73853       -20.36618        16.36668
     2010.74127       -15.58238        16.08831
     2010.74401       -18.59783        15.87257
     2010.74674       -14.84816        16.43976
     2010.74948       -16.30049        16.35972
     2010.75222       -14.57481        15.85343
     2010.75496       -16.65214        15.73686
     2010.75770       -19.58346        15.64987
     2010.76043       -17.93779        15.37671
     2010.76317       -21.72811        15.35932
     2010.76591       -19.88844        15.64813
     2010.76865       -14.02576        15.39759
     2010.77138       -22.60809        15.78210
     2010.77412       -20.61541        16.08135
     2010.77686       -19.88974        15.64813
     2010.77960       -26.52207        15.58028
     2010.78234       -16.92639        15.81341
     2010.78507       -16.77372        16.02219
     2010.78781       -14.73204        15.69510
     2010.79055        -8.44037        15.82211
     2010.79329        -8.23369        15.62551
     2010.79603       -19.64602        15.66205
     2010.79876        -8.63934        15.66553
     2010.80150       -17.39167        15.71946
     2010.80424        -9.97499        15.85169
     2010.80698        -7.30532        15.83603
     2010.80971        -9.33465        15.70032
     2010.81245        -1.27897        15.41673
     2010.81519        -5.65030        15.46545
     2010.81793       -15.50162        16.65724
     2010.82067       -28.27795        15.94216
     2010.82340       -13.61827        15.61507
     2010.82614        -8.38460        15.77862
     2010.82888        -8.15992        15.39585
     2010.83162       -14.68525        15.86387
     2010.83436       -11.49457        15.90389
     2010.83709       -26.75290        16.27795
     2010.83983       -19.43723        16.30057
     2010.84257       -18.01755        15.92998
     2010.84531       -16.31888        15.70032
     2010.84804        -6.92420        15.87431
     2010.85078        -2.66553        16.04133
     2010.85352        -6.51485        16.23620
     2010.85626        -6.90118        16.23794
     2010.85900       -19.39350        16.03089
     2010.86173       -19.01983        15.64465
     2010.86447       -21.78415        15.74034
     2010.86721        -9.86648        15.92998
     2010.86995       -71.35681        24.09854
     2010.87269       -19.23313        28.11757
     2010.87542      -114.68546        37.27783
     2010.87816      -100.40578        25.72703
     2010.88090      -111.28511        29.36677
     2010.88364       -98.76543        27.98012
     2011.66425       -53.53525        25.40168
     2011.66699       -68.83831        25.07459
     2011.66971       -54.70516        24.40649
     2011.67245       -56.60462        23.89671
     2011.67517       -48.35021        23.49829
     2011.68064       -53.38912        23.50873
     2011.68337       -49.41171        23.76623
     2011.68617       -65.49820        27.74524
     2011.68884       -57.26349        24.12637
     2011.69157       -66.70408        23.15728
     2011.69425       -49.58198        24.28644
