# ================= DQRFIT RESULTS ================
# INPUT FILE: series/TERM.rad
# OUTPUT: LDETRENDED
# FILTER FUNCTION: f(t)
# f(t)=+line(t)
# line(t)=+P 1+P 2*t
# heav(t)=(t<0?0:1)
# TOTAL OBSERVATIONS MTOT=  160
# INITIAL TIME INTERVAL= 2018.6229 - 2006.4340 = 12.1889
# TOTAL OBSERVATIONS AFTER PREFILTER M=  159
# TIME-SPAN=    0.0000 -    0.0000 =  0.0000
# OBSERVATIONS: USED M=   159 REJECTED MTOT-M=     1 %USED=   99.3750
# N=  2 PARAMETERS
# MAXSIG= 175.00000
# MAXRES=  13.80062
# SCALE FACTOR FOR LENGTHS: SCL=  10.00000
# SCALE FACTOR FOR SIGMAS: SCLSIG=   1.00000
# CHI^2=    104.819 DOF=   157 CHI^2/DOF=   0.66764
# RMS=      4.703 SDEV=      4.718 MEAN=    0.05065
#  P #       PARAMETER +-    SIGMA %error PARAMETER NAME
# P 1 =      1503.19403 +-  184.165  12.25 YZERO                              
# P 2 =        -0.74544 +-    0.091  12.27 SLOPE                              
#       T            LDETRENDED       SIG_OBS
     2006.43395        -5.40726         4.83308
     2006.43669        -7.47421         4.81184
     2006.43943        -6.50017         4.73830
     2006.44217        -2.72213         4.78651
     2006.44491        -4.43309         4.89355
     2006.44764        -5.04105         4.79958
     2006.45038        -2.58901         4.76445
     2006.45312        -4.31997         4.75791
     2006.45586        -7.76693         4.71706
     2006.45859        -3.84689         4.78814
     2006.46133        -2.12385         4.85841
     2006.46407        -0.79881         4.86168
     2006.46681         0.09524         4.83063
     2006.46955        -1.49372         4.80530
     2006.47228        -0.30768         4.81674
     2006.47502        -8.25564         4.89682
     2006.47776        -4.41560         4.85760
     2006.48050       -11.53456         4.88701
     2006.48324        -9.11352         4.80857
     2006.48597        -3.11048         4.95892
     2009.88365        12.23729         4.78488
     2009.88638        13.10733         4.83063
     2009.88912        13.20137         4.79141
     2009.89186        10.92142         4.83390
     2009.89460        10.13346         4.74811
     2009.89734         2.13950         4.74484
     2009.90007         4.56954         4.72850
     2009.90281         6.12758         4.65741
     2009.90823        13.80062         5.07821
     2011.72896         6.80387         4.62554
     2011.73170         4.64291         4.76200
     2011.73443        -0.26005         4.63371
     2011.73717         2.43899         4.62473
     2011.73991        -0.60097         4.59368
     2011.74265         2.78207         4.62636
     2011.74538        -0.31689         4.77670
     2011.74812         8.38915         4.85351
     2011.75086         4.56719         4.81838
     2011.75360        10.72323         4.75955
     2011.75634         7.67728         4.73258
     2011.75907         8.15532         4.72850
     2011.76181         3.65836         4.67539
     2011.76455        -1.98560         4.74566
     2011.76729        -6.60256         4.60675
     2011.77003        -1.47852         4.64515
     2011.77276         2.46052         4.71624
     2011.77550        -6.57044         4.77344
     2011.77824         0.99460         4.71706
     2011.78098        -3.24336         4.67784
     2011.78371        -3.12832         4.67539
     2011.78645         4.26873         4.60103
     2011.78919         2.09477         4.68928
     2011.79193        -4.97119         4.64679
     2011.79467        -3.88315         4.60430
     2011.79740        -4.18811         4.60348
     2011.80014         3.46093         4.59204
     2011.80288        -0.02603         4.64597
     2011.80562        -1.99699         4.59776
     2011.80836        -1.07795         4.60348
     2011.81109        -1.37591         4.59695
     2011.81383        -1.80586         4.58877
     2011.81657        -0.18882         4.59368
     2011.81931         2.04622         4.59449
     2011.82204         1.34926         4.61819
     2011.82478         4.60530         4.59449
     2011.82752        -2.15566         4.61084
     2011.83026        -3.61162         4.61819
     2011.83300        -2.02758         4.57407
     2011.83573        -5.38854         4.56018
     2011.83847         0.18750         4.61656
     2011.84121         7.59854         4.53321
     2011.84395         3.05259         4.59449
     2011.84669        -1.79537         4.64842
     2011.84942        -3.70633         4.73422
     2011.85216        -7.93029         4.55691
     2011.85490        -7.28725         4.61656
     2011.85764        -2.50921         4.63045
     2011.86037         4.65083         4.61165
     2011.86311        -2.26513         4.59531
     2011.86585         4.81491         4.58959
     2011.86859         3.44395         4.55691
     2011.87133         1.17999         4.54057
     2011.87406        -3.36596         4.58224
     2011.87680        -1.99192         4.59123
     2011.87954        -0.08688         4.66721
     2011.88228         2.43816         4.59286
     2011.89597         1.99236         5.12560
     2011.89870         7.56240         5.30291
     2011.91513        -3.52835         4.61737
     2011.91787         2.18669         5.37481
     2011.92334         0.62177         5.49248
     2011.96441         1.19939         4.56508
     2011.98905         4.83875         5.35357
     2011.99179        -0.17221         4.81184
     2014.08351         7.14405         4.61084
     2014.10267         5.99534         4.68274
     2014.13005         5.69875         4.64107
     2014.15196         3.55307         4.67947
     2014.17933         4.41648         4.95238
     2014.18207         1.37652         4.78079
     2014.20124         1.91181         4.65986
     2014.20397        -2.82215         4.68029
     2014.22040         1.53510         4.67048
     2014.23683         4.61834         4.71215
     2014.25326         0.99359         4.64760
     2014.26968        -2.73517         4.70235
     2014.27242        -1.07713         4.81756
     2014.28885         0.14612         4.84289
     2018.48597        -2.65016         4.46703
     2018.48871        -4.09212         4.51605
     2018.49145        -2.02408         4.47683
     2018.49419        -0.75504         4.58959
     2018.49692        -1.83800         4.53893
     2018.49966        -2.62596         4.50870
     2018.50240        -2.37792         4.54302
     2018.50514        -1.67388         4.55037
     2018.50788         4.80816         4.54955
     2018.51061        -5.27480         4.52341
     2018.51335        -3.71776         4.57162
     2018.51609        -0.66171         4.56018
     2018.51883        -3.80867         4.51932
     2018.52157        -5.16563         4.47602
     2018.52430        -1.67159         4.48174
     2018.52704         1.03645         4.47275
     2018.52978        -4.11651         4.49236
     2018.53252        -7.94647         4.52749
     2018.53525        -3.34043         4.69908
     2018.53799         3.17261         4.56916
     2018.54073         4.79565         4.53240
     2018.54347        -2.26131         4.48664
     2018.54621        -2.61126         4.51115
     2018.54894         3.71178         4.53648
     2018.55168        -3.88218         4.56181
     2018.55442        -8.50914         4.49808
     2018.55716        -4.64210         4.49236
     2018.55990        -4.41606         4.61165
     2018.56263         1.44998         4.69826
     2018.56537         3.46002         4.60838
     2018.56811        -1.92494         4.51360
     2018.57085         0.63110         4.49317
     2018.57358        -2.86586         4.60430
     2018.57632        -7.57181         4.77017
     2018.57906        -3.53977         4.84126
     2018.58180         0.61927         4.63371
     2018.58454         2.65831         4.75219
     2018.58727         0.15235         4.47602
     2018.59001        -3.26061         4.49072
     2018.59275        -0.55957         4.49808
     2018.59549         2.18247         4.47520
     2018.59823        -0.35649         4.49236
     2018.60096         2.72455         4.43680
     2018.60370         0.30559         4.46131
     2018.60644        -1.28336         4.51687
     2018.60918         3.91368         4.50625
     2018.61191         4.90972         4.49726
     2018.61465         0.79376         4.51279
     2018.61739         2.88180         4.46866
     2018.62013         3.27784         4.48010
     2018.62287         0.79688         4.60185
