# ================= DQRFIT RESULTS ================
# INPUT FILE: series/TSEP.rad
# OUTPUT: LDETRENDED
# FILTER FUNCTION: f(t)
# f(t)=+line(t)+annual(t)
# line(t)=+P 1+P 2*t
# annual(t)=+P 3*sin(2*pi*t+P 4)
# heav(t)=(t<0?0:1)
# TOTAL OBSERVATIONS MTOT= 1128
# INITIAL TIME INTERVAL= 2017.1225 - 2012.5941 =  4.5284
# TOTAL OBSERVATIONS AFTER PREFILTER M= 1091
# TIME-SPAN= 2017.1225 - 2012.5941 =  4.5284
# OBSERVATIONS: USED M=  1091 REJECTED MTOT-M=    37 %USED=   96.7199
# N=  4 PARAMETERS
# MAXSIG= 175.00000
# MAXRES=  58.69393
# SCALE FACTOR FOR LENGTHS: SCL=  10.00000
# SCALE FACTOR FOR SIGMAS: SCLSIG=   1.00000
# CHI^2=   3510.136 DOF=  1087 CHI^2/DOF=   3.22920
# RMS=     14.342 SDEV=     14.333 MEAN=    0.66592
#  P #       PARAMETER +-    SIGMA %error PARAMETER NAME
# P 1 =     72394.67314 +-  670.644   0.93 YZERO                              
# P 2 =       -35.94474 +-    0.333   0.93 SLOPE                              
# P 3 =        10.62310 +-    0.574   5.41 ANNUAL AMPLITUDE                   
# P 4 =        -2.75479 +-    0.070   2.55 ANNUAL PHASE                       
#       T            LDETRENDED       SIG_OBS
     2012.59411        18.99964        12.45498
     2012.59685        21.01605        12.55741
     2012.59958        16.57246        12.57358
     2012.60232        19.96787        13.11448
     2012.60506        18.86928        12.41365
     2012.60780        16.46269        12.48194
     2012.61054        18.73610        12.70117
     2012.61327        13.65751        12.26630
     2012.61601        14.58893        12.53944
     2012.61875        21.38534        12.61491
     2012.62149        21.11875        12.54843
     2012.62423        20.21916        13.72905
     2012.62696        20.32457        12.48373
     2012.62970        14.18098        12.42264
     2012.63244        20.07539        12.75508
     2012.63518        19.16381        12.61312
     2012.63791        20.87722        12.36693
     2012.64065        24.48463        12.39927
     2012.64339        24.72204        12.30763
     2012.64613        19.51445        12.42982
     2012.64887        15.74686        12.37591
     2012.65160        24.01727        12.37052
     2012.65434        27.24268        12.61132
     2012.65708        34.18510        12.75328
     2012.65982        23.21551        12.77125
     2012.66256        20.16692        12.46037
     2012.66529        21.39433        12.37232
     2012.66803        24.40974        12.46756
     2012.67077        22.19515        12.32919
     2012.67351        22.74956        12.42443
     2012.67624        22.58498        12.39927
     2012.67898        27.01639        12.56999
     2012.68172        21.48080        12.31482
     2012.68446        21.50021        12.58077
     2012.68720        29.27662        12.60593
     2012.68993        20.92203        12.52686
     2012.69267        17.91344        12.89884
     2012.69541        20.73985        12.49452
     2012.69815        19.51727        12.66882
     2012.70089        22.29368        12.39388
     2012.70362        17.31209        12.45318
     2012.70636        22.70950        12.48194
     2012.70910        16.92691        12.44959
     2012.71184        20.98932        12.56100
     2012.71457        20.92473        12.33458
     2012.71731        26.21215        12.40467
     2012.72005        24.90656        12.49272
     2012.72279        18.55297        12.51249
     2012.72553        24.04538        12.56100
     2012.72826        19.55079        12.37052
     2012.73100        23.76820        12.57897
     2012.73374        29.02561        13.06596
     2012.73648        20.62102        12.42264
     2012.73921        19.93144        12.83594
     2012.74195        22.79285        12.70476
     2012.74469        27.59826        12.40107
     2012.74743        37.22967        12.37591
     2012.75017        23.96508        12.69937
     2012.75290        25.79149        12.48194
     2012.75564        17.06190        12.49631
     2012.75838        19.02232        12.46397
     2012.76112        28.72573        12.47295
     2012.76386        20.79414        12.54483
     2012.76659        27.63455        12.56100
     2012.76933        25.22096        12.49631
     2012.77207        27.32737        12.24833
     2012.77481        25.40578        12.57538
     2012.77754        22.15319        12.30224
     2012.78028        28.11861        12.60773
     2012.78302        20.04802        12.59694
     2012.78576        15.92443        12.51249
     2012.78850        24.20284        12.41006
     2012.79123        31.43325        12.44779
     2012.79397        22.53766        12.31841
     2012.79671        16.14707        12.33638
     2012.79945        24.99049        12.69937
     2012.80219         8.00890        12.34716
     2012.80492         1.68031        12.46037
     2012.80766         2.79972        12.52147
     2012.81040         6.77813        12.59515
     2012.81314         6.50054        12.55202
     2012.81587         4.68095        12.44959
     2012.81861        17.97036        12.90423
     2012.82135        20.87978        12.61851
     2012.82409        27.72019        12.83055
     2012.82683        21.02860        12.87728
     2012.82956         6.85201        12.58976
     2012.83230        -2.30858        12.30583
     2012.83778       -11.92576        12.57718
     2012.84052         5.90766        12.52506
     2012.84325         8.32907        12.49092
     2012.84599        13.92848        12.70117
     2012.84873        10.35489        12.68140
     2012.85147        26.60030        12.50530
     2012.85420        25.38371        12.63468
     2012.85694        17.02812        12.60413
     2012.85968         9.76853        12.56460
     2012.86242         7.71195        12.33818
     2012.86516        19.48036        12.43162
     2012.86789        13.47277        12.82516
     2012.87063        10.23418        12.35974
     2012.87337        10.77359        12.73172
     2012.87611        16.92900        12.44061
     2012.87885        22.41941        12.49991
     2012.88158         1.60183        12.71734
     2012.88432         2.38924        12.72273
     2012.88706         7.80565        13.14862
     2012.88980        17.15406        12.98150
     2012.89253        10.46447        12.73531
     2012.89527        -7.65712        13.00846
     2012.89801        -3.07571        13.12886
     2013.01300        17.04757        12.75149
     2013.01654         5.23886        19.53335
     2013.31266         0.53283        46.78660
     2013.31416         1.23982        12.33818
     2013.31690         7.05223        12.61851
     2013.31964         0.00664        12.43881
     2013.32238         2.51605        12.38310
     2013.32512        10.34546        12.47475
     2013.32785         5.83387        12.32380
     2013.33059        -3.00772        12.30583
     2013.33333        -7.34830        12.48014
     2013.33607        -4.75489        12.47475
     2013.33880         2.60752        12.54663
     2013.34154         7.53693        12.37052
     2013.34428         5.37234        12.54663
     2013.34702        -4.50425        12.69039
     2013.34976        -3.46484        12.62929
     2013.35249        -8.39542        12.43162
     2013.35523        -1.64201        12.85931
     2013.35797        -3.30660        12.65085
     2013.36071        -6.27419        12.66164
     2013.36344         2.57822        12.55202
     2013.36618         2.06763        12.69937
     2013.36892         2.31104        12.68140
     2013.37166        -0.13855        12.48373
     2013.37440         1.66387        12.50889
     2013.37713        -1.83872        12.62031
     2013.37987         6.11569        12.71016
     2013.38261        -8.25390        12.64367
     2013.38535         1.30951        12.88267
     2013.38809         5.24092        12.72633
     2013.39082        -5.49167        12.42443
     2013.39356         1.23875        12.53405
     2013.39630        -6.76184        12.65804
     2013.39904        -3.68743        12.69758
     2013.40177        -3.25002        12.64007
     2013.40451       -12.44861        12.57538
     2013.40725        -9.47220        12.87368
     2013.40999        -2.85279        12.73352
     2013.41273        -4.75738        12.67062
     2013.41546        -7.75996        13.15401
     2013.41820        -3.39755        12.66523
     2013.42094         6.91186        12.62929
     2013.42368        -9.71573        12.63288
     2013.59979       -14.00928        50.06072
     2013.60164        12.91501        12.46936
     2013.60318       -15.11664        42.30489
     2013.60866       -17.41247        42.92126
     2013.61160        -1.39706        23.62511
     2013.61533         7.31306        12.72273
     2013.61807        10.50947        12.50350
     2013.61956       -14.85671        50.66631
     2013.62225         8.97600        72.92750
     2013.62628         6.46271        12.54124
     2013.63053         3.34062        45.58800
     2013.63449         7.39994        12.67422
     2013.63606         6.43632        36.55091
     2013.64179         9.71737        20.17667
     2013.64818        12.17200        12.23036
     2013.65092        22.64341        12.28786
     2013.65246        -4.83006        40.76307
     2013.65913        11.58564        12.59694
     2013.66066        21.41166        40.01012
     2013.66461        -1.26953        12.21239
     2013.66640        21.02671        20.50013
     2013.66913        22.07095        20.60795
     2013.67282        18.23070        13.02104
     2013.67830        11.20652        12.21239
     2013.68925        10.26017        12.54303
     2013.69472         6.82699        12.48733
     2013.70020        15.30581        12.09199
     2013.70204        21.58111        21.26026
     2013.70751        12.64759        20.96376
     2013.71547        15.10559        30.48245
     2013.71937         8.54769        12.29145
     2013.72210        21.68711        12.40646
     2013.74032         6.82681        20.93141
     2013.74280         9.78917        35.73507
     2013.74852        15.61671        22.06532
     2013.75108       -31.75120        25.98996
     2013.75662       -10.26233        24.16780
     2013.76317         2.59128        12.47115
     2013.76468        28.89544        44.73802
     2013.77138        11.37151        12.61132
     2013.89027       -17.65429        26.80040
     2013.89185       -12.95839        12.52147
     2013.89459        -9.32398        12.64007
     2013.89733        -0.18040        12.39209
     2013.90006        -7.51816        12.46756
     2013.90280        -5.77475        12.63109
     2013.90554         0.33166        12.29864
     2013.90718        10.96978        31.66667
     2013.90983        26.14377        41.28779
     2013.91650         0.69648        12.53405
     2013.91823        21.38584        26.96752
     2013.92197        13.43413        12.81079
     2013.92470        11.52354        12.29325
     2013.92744         8.64396        12.44959
     2013.93018         7.35337        12.25372
     2013.93453        23.42570        36.42871
     2013.93839         9.08160        12.47834
     2013.94546        -2.46234        40.48453
     2013.95483         9.46924        12.27888
     2013.96303         8.39030        12.33099
     2013.96851         3.24413        12.49452
     2013.97277        51.18521        47.54852
     2013.97544        10.60440        56.92345
     2013.97946         4.22677        12.48373
     2013.98103        25.66832        36.99836
     2013.98767       -11.23700        12.39209
     2013.99208        13.72039        29.98827
     2013.99863        -7.75135        12.68140
     2014.00301        22.28235        32.16084
     2014.00684        -3.35312        12.74789
     2014.00958        -6.91270        12.53225
     2014.01233        -8.46295        12.82696
     2014.01381        -4.19965        59.28111
     2014.01655        16.58477        62.56602
     2014.02327         6.75735        12.96713
     2014.02874        25.32217        12.64906
     2014.03149        41.35493        12.53225
     2014.03422        36.52300        12.90962
     2014.03969        31.49682        12.48014
     2014.04243         7.09023        12.91142
     2014.04517        -3.07536        12.99588
     2014.04791       -11.99495        12.52327
     2014.05065       -10.07519        12.57897
     2014.05338       -17.30912        12.31841
     2014.05612       -15.38571        12.36693
     2014.05886        -5.28530        12.38490
     2014.06160        -1.96289        12.28247
     2014.06433       -11.72148        12.62570
     2014.06707        -6.19007        12.90962
     2014.06982        -1.61531        12.51428
     2014.07255        -7.37124        12.51788
     2014.07529        -5.76883        12.52686
     2014.07802       -27.15742        12.62031
     2014.08076       -29.16401        12.68140
     2014.08350       -29.33960        12.73352
     2014.08624       -31.46219        12.74070
     2014.08898       -39.84443        13.23128
     2014.09171       -40.48436        13.02643
     2014.09445       -49.67095        12.60952
     2014.09719       -54.64254        13.00486
     2014.09993       -53.40913        12.52147
     2014.10266       -48.38972        12.96353
     2014.10540       -46.80531        12.50530
     2014.10815       -32.31255        12.61132
     2014.11088       -32.32049        12.71195
     2014.11362       -21.78507        12.82516
     2014.11635         5.91834        12.39029
     2014.11909         5.86375        12.51788
     2014.12183        -1.00084        12.59874
     2014.12457         5.26457        12.41724
     2014.12756        -4.47696        16.82707
     2014.13004        19.30339        15.58355
     2014.13278         9.32181        16.80192
     2014.13552         6.23122        31.81402
     2014.13826        14.83963        21.90539
     2014.14099        13.54304        18.66540
     2014.14373        -0.92755        23.17586
     2014.14657        16.23862        18.38687
     2014.14921         6.52827        16.21969
     2014.15195       -26.66532        13.19534
     2014.15468        -2.15890        12.55202
     2014.15742        -6.05149        13.14503
     2014.16016         4.12992        15.41823
     2014.16290         0.64833        17.20804
     2014.16571        28.11330        22.24322
     2014.16852        48.15345        25.07349
     2014.17110        11.57022        23.35916
     2014.17387        31.53683        23.02491
     2014.17617        20.46252        71.98408
     2014.17903       -40.15979        25.03396
     2014.18200        31.99999        22.94585
     2014.18483       -17.29318        22.19830
     2014.18754       -10.50397        24.43915
     2014.19308        -5.78392        32.89222
     2014.19540         8.50845        26.71594
     2014.19849        11.98668        24.98903
     2014.20134        30.54719        45.37416
     2014.20473        12.92301        41.92392
     2014.20680        -5.81167        73.62833
     2014.21076       -33.78018       220.16619
     2014.22862        33.66889        42.44146
     2014.36550       -13.40223        12.95455
     2014.36824       -13.79482        13.21511
     2014.37097       -13.18841        13.25644
     2014.37371       -13.77800        12.84852
     2014.37652        -7.38202        13.04979
     2014.37919        -5.34817        12.73891
     2014.38193       -18.99576        12.70476
     2014.38466       -12.40435        12.78563
     2014.38740       -20.46294        12.88626
     2014.39014        -2.19653        12.72273
     2014.39288       -10.65912        12.81977
     2014.39569       -11.11414        12.92759
     2014.39835        -3.88130        12.80180
     2014.40109       -15.70588        12.73531
     2014.40383       -12.25147        12.78563
     2014.40657        -4.56906        12.93298
     2014.40930       -18.71065        12.90243
     2014.41204       -15.55524        13.12346
     2014.41485       -10.88426        13.17917
     2014.41752       -10.40942        12.67961
     2014.42026       -16.42900        12.89165
     2014.42299       -14.18459        12.98330
     2014.42573        -9.44518        12.78383
     2014.42847       -14.94177        12.70117
     2014.43121       -13.20636        12.71914
     2014.43402        -2.07439        12.78383
     2014.43668        -5.02754        13.03182
     2014.43942       -13.34713        12.79461
     2014.44216       -14.19071        12.73352
     2014.44490       -22.13730        13.20972
     2014.44763       -12.12289        13.01205
     2014.45037        -8.88748        12.65625
     2014.45318         7.31049        12.79641
     2014.45585        -3.65066        12.61312
     2014.45859        -6.35325        12.62390
     2014.46132        -2.30983        12.75328
     2014.46406       -12.81242        12.73352
     2014.46680        -8.81201        12.61312
     2014.46954       -12.27660        12.69039
     2014.47235       -12.73363        12.79641
     2014.47501       -17.36178        12.61491
     2014.47775        -0.54137        12.62390
     2014.48049        -3.50396        12.76766
     2014.48323         4.31546        12.71734
     2014.48596        -3.40613        12.81258
     2014.48870       -11.30572        12.77485
     2014.49151        -2.55975        12.79282
     2014.49418        -8.38090        12.54124
     2014.49692       -13.00549        12.39029
     2014.49965        -9.29308        12.53585
     2014.50239       -15.81766        12.67961
     2014.50513       -11.77225        12.60773
     2014.50787       -17.64884        12.52686
     2014.51068        -9.58687        12.82516
     2014.51334        -3.10002        12.47115
     2014.51608        -3.86961        12.70117
     2014.51882        -6.25520        12.67961
     2014.52156        -4.05379        12.92579
     2014.52429        -8.96837        12.62929
     2014.52703         5.32704        12.84313
     2014.52984        -5.63599        12.92759
     2014.53251        -2.50914        12.55202
     2014.53525        -8.50273        12.72813
     2014.53798        -2.77532        12.37591
     2014.54072        -0.91691        12.68500
     2014.54346        -1.42949        12.58257
     2014.54620         7.06992        12.43342
     2014.54901         5.63089        12.76047
     2014.55167        -6.22526        12.64007
     2014.55441        -0.80885        12.64726
     2014.55715        -0.67344        12.81797
     2014.55989       -13.94303        12.60952
     2014.56262         0.91038        12.57179
     2014.56536        -7.73820        12.46756
     2014.56817        -3.67423        12.75149
     2014.57084       -12.56938        12.62570
     2014.57357        -8.39097        12.65265
     2014.57631        -8.14756        12.55921
     2014.57905        -4.42815        12.50889
     2014.58179        -4.52174        12.91501
     2014.58354       -15.14086        23.99529
     2014.58734        -8.82435        13.46669
     2014.59000         2.96050        12.51249
     2014.59274         0.14991        12.56819
     2014.59548        -0.63868        12.52327
     2014.59822        -3.72727        12.60952
     2014.60095        -0.67686        12.78203
     2014.60369        -1.11544        12.72094
     2014.62567         2.47841        12.82337
     2014.62833        -2.72674        12.79821
     2014.63107         2.56267        12.73531
     2014.63381         3.18708        13.22410
     2014.63655         4.80749        12.77305
     2014.63915         3.28412        13.27441
     2014.64108       -10.83852        22.70145
     2014.64380        -5.41579        26.95674
     2014.64637         8.74964        32.98387
     2014.64901        36.23164        44.19713
     2014.66302        14.43214        24.52181
     2014.66560        11.53274        26.02770
     2014.66824        -0.63126        33.41515
     2014.67089        25.96390        49.66898
     2014.68224        -1.23310        23.44182
     2014.68482        -6.53333        24.17679
     2014.68747        -4.38816        27.99541
     2014.69011        -4.50417        36.26698
     2014.69276         9.07200        49.91157
     2014.70145         2.10349        22.61520
     2014.70404        -6.29757        21.92515
     2014.70669        -3.72506        25.66650
     2014.70934         0.49610        27.03222
     2014.71215        17.42125        26.03309
     2014.71463        23.95726       252.21383
     2014.72325         0.60102        21.25487
     2014.72591         8.08670        23.81739
     2014.72856        -5.81697        26.80759
     2014.73121        20.14820        30.84724
     2014.73385         7.27219        60.49588
     2014.74512        19.54629        23.44002
     2014.74880         8.38636        12.73531
     2014.75154        -3.03623        12.92220
     2014.75427        -4.83182        12.50170
     2014.75701        -4.79641        12.53944
     2014.75982         1.76056        12.85032
     2014.76249         3.14341        12.42982
     2014.76522        -3.66618        12.60413
     2014.76796        -1.59877        12.50889
     2014.77070        -0.30035        12.39029
     2014.77344        -2.97194        12.50350
     2014.77618         8.81647        12.77125
     2014.77899        17.89544        13.04619
     2014.78165         0.45529        12.46037
     2014.78439       -14.70230        12.76047
     2014.78713       -23.46789        12.56280
     2014.78987       -32.93447        12.67062
     2014.79260         2.55094        12.56640
     2014.79534         0.37435        12.49811
     2014.79815        25.17332        13.27261
     2014.80082         5.48417        12.51069
     2014.80629       -24.84501        13.04799
     2014.80903       -21.15160        12.66164
     2014.81177       -35.04718        12.65804
     2014.81451         1.11023        12.78563
     2014.81732        -8.84580        12.86110
     2014.81998         4.94505        12.71734
     2014.82272         6.49246        13.17917
     2014.82546       -35.07413        12.78383
     2014.82820        -2.43072        12.68140
     2014.83093       -21.43630        12.60413
     2014.83367       -16.60589        12.49631
     2014.83648         6.18608        13.03901
     2014.83915       -12.28407        12.66523
     2014.84188        -8.61766        12.65804
     2014.84462         0.63975        12.88267
     2014.84736         6.60516        12.89704
     2014.85010        -8.74642        12.94376
     2014.85284       -11.83001        12.52147
     2014.85557         8.48540        12.79641
     2014.85789        15.88060        15.26189
     2014.85979        -2.78006        53.51815
     2014.87104         7.71818        24.30078
     2014.87474       -12.36072        12.32560
     2014.87635        -4.82680        33.07372
     2014.87901         6.62587        40.61212
     2014.88166         2.20221        98.52931
     2014.88569        -1.33608        12.70836
     2014.88826        10.12235        14.01657
     2014.89390         7.28516        12.98150
     2014.89555        17.11344        30.50761
     2014.89822         4.97946        40.07302
     2014.90088        -2.66403        47.95464
     2014.91307       -12.87796        12.89704
     2014.91478        -1.90546        27.88220
     2014.91742        -7.07046        31.13296
     2014.92009        -7.12044        38.18977
     2014.92275        16.56206        52.45432
     2014.92950        -8.61650        12.41545
     2014.93223        -1.75808        12.81797
     2014.93497        -2.03867        12.55202
     2014.93771       -11.12726        12.47655
     2014.94045       -26.91585        12.66164
     2014.94318       -32.71644        12.85571
     2014.94592       -51.89103        12.46756
     2014.95414       -41.28679        12.50530
     2014.95687       -18.92338        12.87368
     2014.95961       -24.40597        12.80360
     2014.96235       -17.85856        12.78203
     2014.96509       -16.65415        13.11268
     2014.96783       -20.60474        12.70476
     2014.97064        -7.52259        12.81079
     2014.97330         2.55509        12.27708
     2014.97604       -14.21950        12.49452
     2014.97878       -15.81809        12.44600
     2014.98151        -6.04868        12.74070
     2014.98425        -9.12627        12.33638
     2014.98699       -11.56486        12.30583
     2014.98980         3.49929        12.66343
     2014.99247        -4.32004        12.33818
     2014.99520       -20.89962        12.46397
     2014.99794       -10.24221        12.27708
     2015.00068        -1.17380        12.37052
     2015.00342        -4.30339        12.33638
     2015.00616        -4.59298        12.20161
     2015.00897        -8.07883        12.91681
     2015.01163         1.79684        12.59874
     2015.01437       -15.05575        12.68500
     2015.01711       -17.94233        12.55022
     2015.01984       -12.48392        12.72633
     2015.02258        -8.27951        12.83594
     2015.02532        -7.95810        12.78024
     2015.02813       -11.43795        13.18995
     2015.03080        -9.94728        12.57718
     2015.03353       -23.91987        12.60413
     2015.03627       -13.44445        12.35076
     2015.03901        -6.43304        12.83415
     2015.04175         5.35537        12.67422
     2015.04449       -24.06622        12.87009
     2015.04730         1.07092        12.95095
     2015.04996        -0.10140        12.32560
     2015.05714        -1.08824        25.04654
     2015.05980        13.64844        28.42129
     2015.06249        20.79297        36.51497
     2015.06524        11.84772        61.11405
     2015.06788        -2.20345        42.37138
     2015.07636        -0.11248        23.95756
     2015.08008       -21.17687        13.24027
     2015.08167        -1.33547        29.77803
     2015.08444       -40.36720        67.16813
     2015.08703        31.35508        55.25404
     2015.09823       -11.95321        27.78695
     2015.10089       -20.93088        26.90643
     2015.10363       -25.91030        39.24999
     2015.10623         8.73233        38.98044
     2015.10891        -0.09465        58.72764
     2015.11841       -12.07511        12.30224
     2015.12115        -7.52270        12.39388
     2015.12361       -27.00520        15.34455
     2015.12542       -24.68894        34.17887
     2015.12811       -37.88240        57.87047
     2015.13078        33.61462       252.31446
     2015.13483       -12.54865        12.46217
     2015.13757         5.33877        12.22137
     2015.14031       -16.90982        12.17106
     2015.14312       -19.85768        12.87368
     2015.14579        -9.60400        12.55741
     2015.14852       -14.76959        12.61132
     2015.15126        -9.68318        12.48014
     2015.15400         9.34223        12.78383
     2015.15674       -15.65036        12.48553
     2015.15948        -5.65794        12.53225
     2015.16221       -11.14253        12.79102
     2015.16495        -8.73212        12.42623
     2015.16769       -10.52771        12.51788
     2015.17043       -12.91730        12.41724
     2015.17316       -16.57089        12.78922
     2015.17590       -14.02048        12.91861
     2015.17864        -8.76606        12.65804
     2015.18145        -8.46592        13.11987
     2015.18412        -7.44624        12.55202
     2015.18685       -12.55683        12.67601
     2015.18959        -1.61542        12.78383
     2015.19233       -21.73201        12.99767
     2015.19507       -13.70260        12.51069
     2015.19780       -28.92219        12.59335
     2015.20062       -66.03904        13.83148
     2015.20328        -2.14436        12.75867
     2015.20602       -15.29395        12.82516
     2015.20876       -15.40954        12.62390
     2015.21149       -23.63913        12.70836
     2015.21423       -23.40772        13.07315
     2015.21697       -30.64531        12.81438
     2015.21978       -16.61816        13.33551
     2015.22245       -12.03648        12.75867
     2015.22518        -8.96707        12.78383
     2015.22792        -7.98666        13.02104
     2015.23066        -6.86225        12.55382
     2015.23340       -10.02184        12.70656
     2015.23613         2.58257        12.80180
     2015.23895       -16.64228        13.62842
     2015.24161       -15.81260        13.26183
     2015.24435       -10.30919        13.30855
     2015.24709        -9.09278        12.89525
     2015.24982       -10.21037        12.52147
     2015.25256       -11.43796        12.56280
     2015.25530       -10.73255        12.56640
     2015.25804       -17.00914        12.73711
     2015.26078        -9.80272        12.44240
     2015.26351        -8.40431        12.52866
     2015.26625        -8.84290        12.44600
     2015.26899       -14.00149        12.63109
     2015.27173        -8.88908        12.95814
     2015.27446        -0.52867        12.95275
     2015.27728        -2.68152        12.69578
     2015.27994       -15.53885        12.69758
     2015.28268        -2.88043        12.67601
     2015.28542         6.30098        12.94197
     2015.28815       -19.80461        13.00127
     2015.29089       -14.30420        12.63109
     2015.29363       -13.69279        12.80180
     2015.29644       -16.79964        13.03361
     2015.29911        -6.46797        12.81438
     2015.30184         0.17345        12.71375
     2015.30458       -13.91914        12.64546
     2015.30732       -13.46173        12.63288
     2015.31006       -11.09332        12.27708
     2015.31279       -17.55391        12.45318
     2015.31561       -20.65176        12.96353
     2015.31827        -8.81409        12.50530
     2015.32101       -13.82968        12.62031
     2015.32375       -11.70226        12.35076
     2015.32648       -11.31785        12.58437
     2015.32922       -18.54644        12.73352
     2015.33196       -16.45803        12.40826
     2015.33477       -15.72089        12.69758
     2015.33744       -16.34321        12.49092
     2015.34017       -14.77680        12.40467
     2015.34291       -16.20438        12.45858
     2015.34565       -13.86197        12.33818
     2015.34839       -18.42156        12.56640
     2015.35112       -19.78415        12.64187
     2015.35394       -15.69401        12.49631
     2015.35660        -8.70833        12.51428
     2015.35934       -19.48992        12.96533
     2015.36208        -2.60951        12.55022
     2015.36481        -6.68109        12.47115
     2015.36755        -3.57968        12.33818
     2015.37029         0.82673        12.44600
     2015.37310        -5.48913        12.61851
     2015.37577       -15.30345        12.50530
     2015.37850        -6.91104        12.85032
     2015.38124        -3.27363        12.49811
     2015.38398       -10.22821        12.26989
     2015.38672        -9.97180        12.40107
     2015.38945        -4.49339        12.69039
     2015.39227        -6.79525        12.72453
     2015.39493       -12.25257        12.39927
     2015.39767       -11.04316        12.44240
     2015.40041       -11.02075        12.56999
     2015.40314       -14.92334        12.82516
     2015.40588       -11.86692        12.71555
     2015.40862       -16.61651        12.39209
     2015.41143       -14.29437        12.59155
     2015.41410        -5.55869        12.28966
     2015.41683       -22.81228        12.49272
     2015.41957        -6.04587        12.42443
     2015.42231        -1.01246        12.30583
     2015.42505       -19.61404        12.72453
     2015.42778       -13.00763        12.34716
     2015.43060        -1.35549        12.55741
     2015.43326        -9.52181        12.33638
     2015.43600        -9.22640        12.26630
     2015.43874        -8.81299        12.41545
     2015.44147       -15.37558        12.80719
     2015.44421        -9.55217        12.41724
     2015.44695       -11.06975        12.49092
     2015.44976        -9.82361        12.73531
     2015.45243       -10.02193        12.78383
     2015.45516        -9.98552        12.37052
     2015.45790       -11.21411        12.79282
     2015.46064        -3.86070        12.67422
     2015.46338        -0.44829        12.62929
     2015.46611        -2.36487        12.51069
     2015.46893        -7.31573        12.72453
     2015.47159        -5.48105        12.36154
     2015.47433       -10.97064        12.54124
     2015.47707        -9.41123        12.70117
     2015.47980        -7.22482        12.62749
     2015.48254        -5.23641        12.56640
     2015.48528        -5.50200        12.74430
     2015.48802        -4.83858        12.58796
     2015.49076        -2.89117        12.61671
     2015.49349        -3.96476        12.75149
     2015.49623        -3.82235        12.73711
     2015.49897        -6.94294        12.95095
     2015.50171        -4.50853        12.55741
     2015.50444         0.82288        12.49811
     2015.50718        -3.95170        12.71555
     2015.50992        -0.77929        12.43342
     2015.51266        -9.01188        12.37412
     2015.51540        -1.90747        12.53764
     2015.51813        -0.63406        12.64367
     2015.52087         5.32035        12.43521
     2015.52361         2.08176        12.96173
     2015.52635         3.87717        12.58796
     2015.52908        -2.51541        12.85212
     2015.53182        12.03700        12.71375
     2015.53456         6.30141        12.49631
     2015.53730        -0.55718        12.62031
     2015.54004        -4.66377        12.66164
     2015.54277        -4.69336        12.18903
     2015.54551         6.11005        12.48014
     2015.54825         4.63847        12.40107
     2015.55099         1.48688        12.25731
     2015.55373         9.80529        12.33818
     2015.55646         0.30170        12.29145
     2015.55920        -2.20389        12.28247
     2015.56194        17.55352        12.34716
     2015.56475        23.37667        12.70117
     2015.56741        11.02234        12.46037
     2015.57015        10.30276        12.71734
     2015.57289        -8.46783        12.65984
     2015.57563         4.36658        12.35974
     2015.57837         3.93199        12.36154
     2015.58110         7.43940        12.48194
     2015.58392         4.14955        12.81797
     2015.58658         4.91622        12.33638
     2015.58932         5.94464        12.83954
     2015.59206         1.81705        12.64726
     2015.59479         1.85846        12.70656
     2015.59753         4.77287        12.57179
     2015.60027         3.01828        12.88087
     2015.60308         6.16743        13.42536
     2015.60574         9.25510        12.72633
     2015.60848        10.48151        12.67781
     2015.61122         5.86993        12.35615
     2015.61396         8.12434        12.73172
     2015.61670         2.37775        12.29685
     2015.61943         8.15616        12.49811
     2015.62225         7.14230        12.73891
     2015.62491         3.87698        12.29864
     2015.62765         7.87639        12.13691
     2015.63039         6.79781        12.31661
     2015.63312        10.06522        12.48014
     2015.63586        12.35963        12.46576
     2015.63860        -2.43996        12.32919
     2015.64141         5.08218        12.75688
     2015.64407        -1.50214        12.43521
     2015.64681         1.24527        12.58257
     2015.64955         1.83268        12.47295
     2015.65229         0.34110        12.39748
     2015.65503        16.65551        12.69398
     2015.65776         6.73892        12.57718
     2015.66058        11.24106        13.42177
     2015.66324        13.92974        12.42443
     2015.66598        21.88615        12.53944
     2015.66872        19.96556        12.53764
     2015.67145         7.26398        12.27169
     2015.67419        14.35339        12.24833
     2015.67693        11.51480        12.23934
     2015.67974        -6.01106        12.95455
     2015.68240        14.58462        12.35255
     2015.68514         1.97703        12.45678
     2015.68788         1.74544        12.32380
     2015.69062         1.10785        12.46756
     2015.69336        -1.95073        12.87188
     2015.69609        -0.74132        12.59874
     2015.69891        11.90682        12.93298
     2015.70157         7.73050        12.34177
     2015.70431         2.32991        12.32739
     2015.70705         2.83932        12.29505
     2015.70978       -22.99527        12.65085
     2015.71526         5.21956        12.44061
     2015.71807        19.49070        12.38849
     2015.72073        16.65138        12.10097
     2015.72347        -3.97921        12.17106
     2015.72621         0.92920        12.29325
     2015.72895        -4.98639        12.26989
     2015.73169        14.33102        12.42623
     2015.73442        18.00644        12.31661
     2015.73716         3.87385        12.29145
     2015.73990        -1.28874        12.55921
     2015.74264        10.37767        12.37232
     2015.74538         6.74008        12.87907
     2015.74811        -0.24151        12.73891
     2015.75085         2.81690        12.10816
     2015.75359        11.56332        12.13512
     2015.75633        -1.44127        12.55202
     2015.75906         2.09514        12.08480
     2015.76180        -4.29945        12.14230
     2015.76454         9.76296        12.07941
     2015.76728         0.19437        12.16746
     2015.77002         6.97578        12.26270
     2015.77275        15.91919        12.17285
     2015.77549        12.72461        13.04080
     2015.77823         6.16002        12.55022
     2015.78097        13.58443        12.24294
     2015.78371         5.71284        12.26989
     2015.78584        -2.71345        16.01843
     2015.79473        17.86722        12.58616
     2015.79739        15.19090        12.29864
     2015.80013         6.45331        12.42623
     2015.80287        -2.71928        12.29505
     2015.80561         9.01313        12.51608
     2015.80835        -1.35046        12.22137
     2015.81108        -0.71405        12.29685
     2015.81382         1.02436        12.69578
     2015.81656         1.21378        12.51788
     2015.81930         7.89919        12.68140
     2015.82203        11.58760        12.60593
     2015.82477         4.44301        12.50889
     2015.82751        10.29542        12.46936
     2015.83025        14.92383        12.49452
     2015.83299        13.49024        12.73711
     2015.83572       -18.48234        12.48014
     2015.83846       -27.27893        12.43342
     2015.84120       -31.84352        12.56460
     2015.84394        -1.70811        12.50350
     2015.84668         4.42530        12.28786
     2015.84941        -1.72329        12.50530
     2015.85215       -29.90588        12.67601
     2015.86036       -25.01964        12.65625
     2015.86310       -31.04823        12.66882
     2015.86584       -22.74882        13.08752
     2015.86858       -30.39041        13.27980
     2015.87132        -2.77700        12.93658
     2015.87405        16.47841        12.72094
     2015.87679         7.31983        13.25644
     2015.87953        14.06624        12.59155
     2015.88227        -0.86735        12.65445
     2015.88501       -47.09594        12.74610
     2015.88774        -4.21253        12.80899
     2015.89048        -5.29012        12.76586
     2015.89322        -3.09571        12.54303
     2015.89596       -15.37930        12.61851
     2015.89869       -14.28188        12.72992
     2015.90143       -17.96947        12.69219
     2015.90417       -10.32906        12.65445
     2015.90691        -5.83265        12.47834
     2015.90973        -6.22033        12.94736
     2015.91238        -7.79483        12.66882
     2015.91512         6.68058        12.57358
     2015.91786        10.38400        13.08034
     2015.92060       -16.29159        12.82516
     2015.92334       -30.79618        12.61491
     2015.92607       -28.37477        12.57358
     2015.92889       -21.22745        12.87188
     2015.93155       -43.52795        13.50622
     2015.93429        -3.61454        13.29777
     2015.93702        -4.07413        12.88626
     2015.93976       -13.79271        13.14323
     2015.94250        -8.31330        12.94376
     2015.94524       -14.14189        12.71375
     2015.94806        -1.86358        13.32652
     2015.95071        17.75893        12.51249
     2015.95345        11.85534        12.47475
     2015.95619        23.42975        12.53225
     2015.95893        10.49417        12.90962
     2015.96167        27.35158        13.16300
     2015.96419        28.67630        14.00759
     2015.96722        20.08630        13.10729
     2015.96988        25.34981        12.80899
     2015.97262        40.17822        13.35887
     2016.10677        -8.12462        12.98150
     2016.10951        -3.80321        12.76047
     2016.11225         2.91420        12.66882
     2016.11498        -0.74839        12.92400
     2016.11772       -24.38698        12.76946
     2016.12046       -19.84857        12.92220
     2016.12320        -6.88815        12.63468
     2016.12594       -21.05774        12.84313
     2016.12867         8.47167        12.76227
     2016.13141        10.87008        12.76766
     2016.13415        -0.00351        12.67242
     2016.13689         5.61890        12.67781
     2016.13963        -1.16469        12.62929
     2016.14236        -9.97928        12.76047
     2016.14510        -3.70786        12.70297
     2016.14784        -1.95045        12.73172
     2016.15058        -0.99604        12.68140
     2016.15331        -4.00363        12.81618
     2016.15605       -21.10822        12.71016
     2016.15879         2.97519        13.18995
     2016.16153         2.46260        13.10549
     2016.16427         1.91802        12.66164
     2016.16700         3.55043        13.08034
     2016.16974        -8.09416        12.76047
     2016.17248        -8.79775        12.96173
     2016.17522         7.84566        12.69758
     2016.17796         3.70007        12.69758
     2016.18069         1.00248        13.23847
     2016.18343        -2.52111        13.35707
     2016.18617         5.68731        12.74969
     2016.18891        19.98172        12.38310
     2016.19164        12.96213        12.54483
     2016.19438         5.68254        12.56280
     2016.19986        31.86536        13.29418
     2016.21902        36.81924        12.85571
     2016.22724        25.68848        13.18456
     2016.25462         5.40259        12.92400
     2016.25735       -11.77500        13.01744
     2016.26283        -9.78618        12.74070
     2016.26557        -4.47177        12.70656
     2016.26830         3.20965        12.72273
     2016.27104         1.23706        12.56640
     2016.27378         4.11847        12.48912
     2016.27652         1.05688        12.59874
     2016.27926         2.69529        12.79821
     2016.28199        -4.37330        12.53225
     2016.28473        -1.53689        12.68320
     2016.28747         5.47153        12.54303
     2016.29021        -0.37606        12.69398
     2016.29295         1.03035        12.66882
     2016.29568         0.82776        12.43162
     2016.29842         8.34817        12.87188
     2016.30116         2.05158        12.71016
     2016.30390        -3.87701        12.24473
     2016.30663        -0.56860        12.16567
     2016.30937        -3.43118        12.12433
     2016.31211        -8.83277        12.27349
     2016.31485         9.44064        12.40287
     2016.31759         6.57205        12.42264
     2016.32032        -0.29654        12.21958
     2016.32306        -4.03513        12.35076
     2016.32580        -6.01672        12.21778
     2016.32854         0.31270        12.35794
     2016.33128         3.07611        12.29505
     2016.33401         4.10152        12.28247
     2016.33675         8.01293        12.35255
     2016.33949        -1.67966        12.36333
     2016.34223         2.92075        12.43881
     2016.34496        -0.22784        12.89704
     2016.34770         9.59858        12.60593
     2016.35044         8.01099        12.49452
     2016.35318         5.57740        12.10277
     2016.35592        -1.26019        12.03089
     2016.35865        -5.46878        12.04167
     2016.36139         5.27963        12.29864
     2016.36413        13.72804        12.49631
     2016.36687        17.78945        12.39927
     2016.36961         0.69687        12.32021
     2016.37234        19.59328        12.10457
     2016.37508        14.78569        12.21059
     2016.37782         1.63310        12.17645
     2016.38056         3.98551        12.38670
     2016.38329         6.81292        12.49092
     2016.38603         2.69033        12.25552
     2016.38877        15.57275        12.34357
     2016.39151       -13.14284        12.25012
     2016.39425        -6.18343        12.17824
     2016.39698        14.98398        12.28966
     2016.39972        20.36339        12.50709
     2016.40246         2.45580        12.42264
     2016.40520        -2.73079        12.27888
     2016.40794         1.09462        12.37052
     2016.41067         3.17204        12.39388
     2016.41341         3.08745        12.43701
     2016.41615         5.89186        12.30763
     2016.41889        -5.19673        12.14770
     2016.42162        13.25368        12.46037
     2016.42436         7.11609        12.30044
     2016.42710         8.62650        12.32739
     2016.42984         6.21891        12.34536
     2016.43258         7.52733        12.48553
     2016.43531        11.46574        12.16926
     2016.43805        10.81215        12.24473
     2016.44079       -28.01244        12.51428
     2016.44353        -8.87503        12.42264
     2016.44626         2.30038        12.37591
     2016.44900         7.39279        12.39388
     2016.45174       -16.95179        12.11355
     2016.45448         9.56162        12.12793
     2016.45722         6.10003        12.22676
     2016.45995        10.83844        12.15668
     2016.46269         7.27085        12.12254
     2016.46543         5.39326        12.39388
     2016.46817        13.04867        12.52686
     2016.47091        18.12408        12.12613
     2016.47364        11.01450        12.28427
     2016.47638        19.07491        12.77664
     2016.47912        -4.59168        12.58437
     2016.48186         5.26073        12.00933
     2016.48459        12.93214        12.25731
     2016.48733         4.21955        12.05425
     2016.49007        15.19296        12.37591
     2016.49281        10.39738        12.27888
     2016.49555        15.34979        12.55741
     2016.49828        15.66820        12.22137
     2016.50102        10.15861        12.23934
     2016.50376        19.10302        12.45139
     2016.50650        11.00043        12.26989
     2016.50924        16.06884        11.91768
     2016.51197         7.75025        12.16207
     2016.51471        15.03067        12.34536
     2016.51745        12.77408        12.77125
     2016.52019        -6.57851        12.44240
     2016.52292        -1.38910        12.51249
     2016.52566        10.63131        12.18184
     2016.52840        17.67572        12.19262
     2016.53114         3.06113        12.07761
     2016.53352        17.15673        13.80273
     2016.54209        13.74978        12.17465
     2016.54493        22.55095        12.91861
     2016.54757         8.09660        12.09738
     2016.56918        25.18847        16.33829
     2016.57192        23.30988        19.01761
     2016.57466        17.75864        17.88730
     2016.57735        28.36317        16.38681
     2016.57995        26.28779        14.57364
     2016.58281        16.57648        17.56025
     2016.58660         9.37565       110.09478
     2016.58828        23.63713        16.26282
     2016.59264        57.51980        55.20193
     2016.59383        24.75269        17.51532
     2016.59655        27.55641        18.57735
     2016.60734        13.08825        14.45144
     2016.61038        18.91060        20.03471
     2016.61301         1.10108        16.64378
     2016.61581        13.74971        18.67978
     2016.61829        25.31890        21.14166
     2016.62142        24.57715        23.72035
     2016.62415        23.41356        22.45706
     2016.62687        21.20111        21.35910
     2016.62949        19.91843        16.72464
     2016.63223        12.98384        18.65462
     2016.63490        20.67368        18.05622
     2016.64158        35.36807        23.32501
     2016.64339        21.16300        12.02550
     2016.64613        19.05341        12.10097
     2016.64887        24.77682        12.28067
     2016.65160        34.19823        12.30044
     2016.65434        23.83864        12.49092
     2016.65708        15.08906        12.14770
     2016.65982        20.76447        12.39388
     2016.66256        19.98888        12.34896
     2016.66529        24.16729        12.14770
     2016.66803        22.59770        12.38130
     2016.67077        12.01711        12.58976
     2016.67351        24.31052        12.05785
     2016.67624        21.10094        12.03988
     2016.67898        33.51735        12.12973
     2016.68172        28.76176        12.04347
     2016.68446        27.71317        12.55022
     2016.68720        20.87758        12.55022
     2016.68993        22.91599        12.19262
     2016.69267        23.81940        12.03448
     2016.69541        24.30581        12.00753
     2016.69815        28.72423        12.21958
     2016.70089        29.44564        11.96620
     2016.70362        28.35005        12.31122
     2016.70636        27.09646        13.03182
     2016.70910        22.31687        12.49272
     2016.71184        23.07128        11.56727
     2016.71457        27.71169        11.87275
     2016.71731        33.97610        11.87635
     2016.72005        27.22952        11.80087
     2016.72279        23.76493        11.68946
     2016.72553        19.30534        12.03808
     2016.72826        24.62475        12.19442
     2016.73100        20.36416        11.75056
     2016.73374        18.47257        11.81525
     2016.73648        22.22098        11.93026
     2016.73921        27.55240        12.13871
     2016.74195        22.10081        11.82244
     2016.74469        16.59922        11.99136
     2016.74743        21.64663        12.21598
     2016.75017        23.10404        12.20520
     2016.75290        28.27445        12.22856
     2016.75564        25.83586        12.05605
     2016.75838        23.90327        11.99495
     2016.76112       -26.99131        12.14590
     2016.76386         9.99510        11.97339
     2016.76659        19.26051        12.49092
     2016.76933        14.29892        11.86377
     2016.77207         8.59633        11.83861
     2016.77481        11.21474        11.91409
     2016.77754        17.86515        12.01651
     2016.78028        18.85757        11.91409
     2016.78302         1.22798        11.72720
     2016.78576        12.19939        11.86736
     2016.78850         4.41480        12.50889
     2016.79123        14.92521        12.14770
     2016.79397        23.19162        12.19082
     2016.79671       -14.60597        12.83774
     2016.79945       -10.43855        12.23395
     2016.80219         3.57986        12.10636
     2016.80492        15.64827        11.98956
     2016.80766        13.16968        12.05245
     2016.81040        13.59809        12.07761
     2016.81314        13.40650        11.93206
     2016.81587        11.87091        12.11355
     2016.81861         0.09532        11.96979
     2016.82517        -0.27907        25.40773
     2016.82804        -0.36987        32.60111
     2016.84159        33.32523        24.40141
     2016.84433        28.11864        23.34478
     2016.84982       -17.69503        24.92793
     2016.85264        20.73446        35.19058
     2016.85322        27.90513        25.80846
     2016.85694        13.67208        12.30224
     2016.85968        30.08749        12.49631
     2016.86242        19.31891        11.88354
     2016.86516        11.54832        12.22317
     2016.86789        14.85873        12.23215
     2016.86991         8.23134        17.57822
     2016.87439        26.95028        21.89820
     2016.87713        29.91770        23.94677
     2016.87885         6.13937        12.06324
     2017.08529        27.28686        29.09337
     2017.08802        13.32027        28.44286
     2017.09076        24.43168        29.54262
     2017.09149        -6.29535        23.04828
     2017.10447        24.29125        30.87240
     2017.11541        19.11073        31.45103
     2017.12085        -1.25382        30.49143
     2017.12251         6.39998        12.99947
