# ================= DQRFIT RESULTS ================
# INPUT FILE: series/V096.rad
# OUTPUT: LDETRENDED
# FILTER FUNCTION: f(t)
# f(t)=+line(t)+annual(t)
# line(t)=+P 1+P 2*t
# annual(t)=+P 3*sin(2*pi*t+P 4)
# heav(t)=(t<0?0:1)
# TOTAL OBSERVATIONS MTOT= 1430
# INITIAL TIME INTERVAL= 2017.8690 - 2010.4175 =  7.4515
# TOTAL OBSERVATIONS AFTER PREFILTER M= 1420
# TIME-SPAN= 2017.8690 - 2010.4175 =  7.4515
# OBSERVATIONS: USED M=  1420 REJECTED MTOT-M=    10 %USED=   99.3007
# N=  4 PARAMETERS
# MAXSIG= 175.00000
# MAXRES=  58.19607
# SCALE FACTOR FOR LENGTHS: SCL=  10.00000
# SCALE FACTOR FOR SIGMAS: SCLSIG=   1.00000
# CHI^2=   1551.475 DOF=  1416 CHI^2/DOF=   1.09567
# RMS=      7.341 SDEV=      7.344 MEAN=   -0.02122
#  P #       PARAMETER +-    SIGMA %error PARAMETER NAME
# P 1 =      7058.04958 +-  130.347   1.85 YZERO                              
# P 2 =        -3.50329 +-    0.065   1.85 SLOPE                              
# P 3 =         8.40223 +-    0.249   2.96 ANNUAL AMPLITUDE                   
# P 4 =        -2.47184 +-    0.033   1.33 ANNUAL PHASE                       
#       T            LDETRENDED       SIG_OBS
     2010.41753         5.06150         6.24488
     2010.42026         1.26009         6.20720
     2010.42300         0.63368         6.15067
     2010.42574        -5.08173         6.16428
     2010.42848        -5.84013         6.17893
     2010.43122        -0.34254         6.15695
     2010.43395         1.68805         6.36525
     2010.43669         2.60064         6.49191
     2010.43943         4.38623         6.26895
     2010.44217        -3.23118         6.12346
     2010.44491         1.49841         6.09101
     2010.44764         0.96401         6.22290
     2010.45038         2.96060         6.26267
     2010.45312        -1.68581         6.18312
     2010.45586        -1.74322         6.22708
     2010.45859         3.06437         6.27209
     2010.46133         3.57396         6.34432
     2010.46407         0.25355         6.18103
     2010.46680        -2.65087         6.13183
     2010.46955        -0.55826         6.19463
     2010.47228        -5.10969         6.14962
     2010.47502        10.59792         6.34223
     2010.47776         2.01851         6.42178
     2010.48050         6.39710         6.31292
     2010.48324         8.29970         6.20196
     2010.48597         6.64429         6.13497
     2010.48871         4.07788         6.19673
     2010.49144         2.21445         6.34641
     2010.49418         4.36404         6.12032
     2010.49692         7.54162         6.19568
     2010.49966         3.07923         6.23755
     2010.50220         7.24612         6.66358
     2010.50513         6.51341         6.16219
     2010.50787        -0.70900         6.31082
     2010.51061         5.63061         6.18312
     2010.51335         7.00320         6.21766
     2010.51609         4.80779         6.23546
     2010.51883         3.19238         6.10776
     2010.52156        15.61296         6.27733
     2010.52430        11.17057         6.13288
     2010.52704        10.91314         6.26791
     2010.52977         6.97573         6.12346
     2010.53251         7.02433         6.20196
     2010.53525         9.92293         6.41026
     2010.53799         8.82653         6.20406
     2010.54073         0.65612         6.12660
     2010.54346         5.29669         6.15800
     2010.54621         3.94130         6.23546
     2010.54894         5.15789         6.17056
     2010.55168         1.53948         6.27942
     2010.55441        13.32806         6.63636
     2010.55716         8.03467         6.06693
     2010.55990         5.44326         6.91166
     2010.56263         8.05683         6.18207
     2010.56537         8.33544         6.21034
     2010.56811         6.82603         6.21348
     2010.57085         2.48462         6.15067
     2010.57358         3.90521         6.30140
     2010.57632         5.22281         6.43643
     2010.57906         3.76240         6.27105
     2010.58179         1.77096         6.35060
     2010.58451         6.17250         6.32338
     2010.58726         6.49414         6.45737
     2010.59000        -0.57027         6.49086
     2010.59274         8.83132         6.41969
     2010.59548        10.38491         6.53797
     2010.59822        14.08850         6.37572
     2010.60095         6.58210         6.27000
     2010.60369         6.94369         6.27105
     2010.60643        10.49528         6.34013
     2010.60917        10.96287         6.29722
     2010.61190         9.27746         6.41969
     2010.61464         5.65305         6.42387
     2010.61738        10.25765         6.28361
     2010.62012         6.98624         6.33804
     2010.62286         8.96083         6.35479
     2010.62559         2.76942         6.39247
     2010.62833         5.81001         6.36944
     2010.63107         8.59460         6.62903
     2010.63381        11.33819         6.38305
     2010.63655        12.80079         6.36839
     2010.63928         8.22238         6.47098
     2010.64202         8.45497         6.41445
     2010.64476         8.68556         6.52331
     2010.64750         6.83915         6.26477
     2010.65023         9.18674         6.41550
     2010.65297         7.37533         6.67823
     2010.65571         4.52693         6.20615
     2010.65845        10.09952         6.31396
     2010.66119         8.35811         6.33804
     2010.66392         8.72970         6.45632
     2010.66666         6.46929         6.40294
     2010.66940         7.94188         6.39980
     2010.67214         6.18748         6.31396
     2010.67488         7.85207         6.35583
     2010.67761        12.90066         6.25221
     2010.68035         7.34625         6.41026
     2010.68309         9.80084         6.39770
     2010.68583         8.95543         6.39561
     2010.68846         6.93764         6.48249
     2010.69131         1.89263         6.42387
     2010.69404         5.93021         6.44271
     2010.69678         3.54580         6.27523
     2010.69952         7.23439         6.49924
     2010.70225         1.74098         6.25116
     2010.70499         3.51157         6.31187
     2010.70773        -2.70984         7.45073
     2010.71047         7.11376         6.54006
     2010.71321         7.64335         6.47307
     2010.71594        -0.46606         6.42073
     2010.71868        12.09553         6.36421
     2010.72142        17.39912         6.46365
     2010.72416         9.21271         6.32862
     2010.72689         4.75231         7.24138
     2010.72963         4.37890         6.58926
     2010.73237         2.72549         6.55995
     2010.73511         6.90708         6.53483
     2010.73785         3.88767         6.69603
     2010.74058         3.11626         6.91061
     2010.74332         5.04485         6.30454
     2010.74606         8.32745         6.50552
     2010.74880        10.38504         6.54215
     2010.75154        11.95763         6.28256
     2010.75427         3.18522         6.33909
     2010.75701         5.25981         6.34327
     2010.75975         6.13740         6.27628
     2010.76249         4.04599         6.24279
     2010.76522         6.74459         6.37886
     2010.76796         6.12018         6.58612
     2010.77070        -1.98723         6.48249
     2010.77344        -2.22364         6.77348
     2010.77618         7.45495         6.31396
     2010.77891        -3.29846         6.28047
     2010.78165         3.28714         6.32862
     2010.78439         9.06473         6.37886
     2010.78713        -1.22268         6.53169
     2010.78987         6.07291         6.26372
     2010.79260         6.50550         6.19463
     2010.79534         3.21409         6.33281
     2010.79808         2.39368         6.33176
     2010.80082         3.76528         6.32024
     2010.80355         2.36487         6.37991
     2010.80629         3.07846         6.47621
     2010.80903         5.92405         6.35897
     2010.81177        -0.06236         6.70126
     2010.81451        11.04423         6.27105
     2010.81723         8.36777         6.35793
     2010.81998         6.00742         6.29512
     2010.82272         2.99901         6.32234
     2010.82546         4.41660         6.43853
     2010.82820        -1.15481         6.36421
     2010.83093         4.60878         6.63531
     2010.83367        -0.10664         6.77662
     2010.83641         1.64696         6.53901
     2010.83915         2.00256         6.37258
     2010.84188         1.43015         6.35269
     2010.84462        10.32874         6.54425
     2010.84736         6.81433         6.25430
     2010.85010         2.83892         6.36839
     2010.85284         9.74251         6.21138
     2010.85559         4.87617         6.32548
     2010.85831        -0.72930         6.21138
     2010.86105        -1.91171         6.28465
     2010.86379       -12.26812         6.24383
     2010.86653        -2.20353         6.16742
     2010.86926        -2.60994         6.27209
     2010.87200        -2.61735         6.25744
     2010.87474         3.02125         6.29617
     2010.87748         1.67184         6.35479
     2010.88021         4.01243         6.32234
     2010.88295         2.24502         6.36107
     2010.88569         2.14361         6.15800
     2010.88843        -0.32180         6.39456
     2010.89117         4.02979         6.59344
     2010.89390         3.34239         6.22604
     2010.89651         2.03353         6.50552
     2010.90485        -1.10025         6.20615
     2010.90759         4.09834         6.15695
     2010.91033         3.01494         6.27523
     2010.91307        -8.06347         6.26581
     2010.91581        -2.68588         6.25535
     2010.91854        -0.26029         6.17161
     2010.92128        -5.66670         6.12136
     2010.92402         0.93589         6.14020
     2010.92676         7.73848         6.14125
     2010.92950         2.07208         6.18207
     2010.93223        -4.35633         6.32129
     2010.93497        -3.91174         6.37677
     2010.93771        -0.21915         6.33281
     2010.94045        -1.29456         6.22394
     2010.94318        -0.95097         6.12032
     2010.94592       -12.66738         6.43853
     2010.94866        -4.98978         6.27419
     2010.95140        12.32281         6.44271
     2010.95414        -2.69960         6.35374
     2010.95687        -3.82901         6.28256
     2010.95961        -3.47142         6.31815
     2010.96235        -1.23283         6.20196
     2010.96509         0.18077         6.21034
     2010.96783        -2.32364         6.18940
     2010.97056        -3.56405         6.31396
     2010.97330         0.76354         6.27628
     2010.97604        -3.64687         6.35793
     2010.97878        -6.30128         6.18103
     2010.98151        -5.27169         6.29303
     2010.98425        -1.31009         6.17998
     2010.98699         1.98950         6.25953
     2010.98973        -2.05691         6.28780
     2010.99247         4.75868         6.49714
     2010.99520         0.19427         6.37991
     2010.99794        -5.62514         6.13706
     2011.00342         0.57705         6.12974
     2011.00616         0.48664         6.24593
     2011.00889         2.45123         6.28256
     2011.01163        -1.35018         6.23964
     2011.01437        -2.52559         6.27523
     2011.01711        -1.23100         6.41131
     2011.01984         0.02360         6.25011
     2011.02258        -8.64281         6.18103
     2011.02532        -3.07422         6.35479
     2011.02806        -5.63963         6.51075
     2011.03353        -9.21645         6.28256
     2011.03627       -12.02586         6.31082
     2011.03901         0.32974         6.38200
     2011.04175        -0.88567         6.24697
     2011.04449        -2.30908         6.20092
     2011.04722        -0.98549         6.34432
     2011.04996        -3.68590         6.37886
     2011.05270        -4.09531         6.33176
     2011.05544        -5.16172         6.42911
     2011.05817         2.13488         6.21034
     2011.06091        -1.31653         6.12241
     2011.06365        -6.28394         6.08682
     2011.06639        -5.58235         6.34641
     2011.06913        -8.66776         6.63113
     2011.07186       -14.34217         6.47098
     2011.07460       -10.35557         6.36316
     2011.07734       -10.87898         6.18521
     2011.08008        -2.95139         6.23441
     2011.08282        -5.34480         6.25221
     2011.08555       -10.69821         6.29722
     2011.08829        -6.60862         6.26058
     2011.09103        -6.64103         6.17056
     2011.09377         0.87957         7.12938
     2011.09650        -6.37084         6.28465
     2011.09924        -5.92825         6.25744
     2011.10198        -5.03666         6.31396
     2011.10472        -4.67407         6.38096
     2011.10746        -7.64948         6.23336
     2011.11019        -3.57889         6.22708
     2011.11293         2.08971         6.43643
     2011.11567         9.78430         6.48982
     2011.11841        -1.11311         6.49924
     2011.12115       -12.29452         6.36839
     2011.12388        -7.50193         6.49296
     2011.12662        -3.34634         6.64997
     2011.12936        -1.56774         6.58193
     2011.13210        -6.96115         6.31501
     2011.13483        -5.56056         6.16219
     2011.13757        -0.01697         6.24488
     2011.14031        -1.93838         6.35269
     2011.14305        -1.55479         6.44585
     2011.14579        -9.37720         6.33490
     2011.14852        -2.98160         6.15486
     2011.15126         0.02399         6.21138
     2011.15400         4.85458         6.17789
     2011.15674         4.19017         6.20092
     2011.15948         2.05576         6.25221
     2011.16221        -4.89265         6.28570
     2011.16495        -4.65406         6.32548
     2011.16769        -8.33746         6.27628
     2011.17043        -4.93787         6.52436
     2011.17316       -15.84428         6.35583
     2011.17590       -12.60169         6.21452
     2011.17864         0.63890         6.23650
     2011.18138        -5.37651         6.17056
     2011.18412        -8.73092         6.35479
     2011.18685         0.70668         6.42073
     2011.18959        -4.22073         6.27942
     2011.19233        -9.75014         6.28989
     2011.19507        -8.67755         6.15277
     2011.19780        -7.28396         6.36421
     2011.20054        -3.67337         6.37153
     2011.20328        -7.53477         6.51389
     2011.20602        -4.05718         6.35269
     2011.20876        -3.55959         6.24593
     2011.21149        -9.03600         6.25744
     2011.21423        -4.21141         6.29198
     2011.21697        -3.94682         6.53587
     2011.21971        -0.58223         6.47516
     2011.22245        -1.68763         6.28047
     2011.22518         2.94696         6.16533
     2011.22792        -1.29145         6.18731
     2011.23066        -2.02386         6.17684
     2011.23340         0.79373         6.21766
     2011.23613        -0.16568         6.15381
     2011.23887        -8.25109         6.20301
     2011.24161        -3.94949         6.19673
     2011.24435        -1.07090         6.21452
     2011.24709        -9.85431         6.25639
     2011.24982        -4.17972         6.21557
     2011.25256        -1.27413         6.23755
     2011.25530        -8.72354         6.50656
     2011.25804        -5.14094         6.39770
     2011.26078        -4.81835         6.51285
     2011.26351        -9.69776         6.21243
     2011.26625        -7.65417         6.28465
     2011.26899         1.62342         6.20824
     2011.27173        -6.86899         6.38096
     2011.27446         2.85760         6.54425
     2011.27720        -2.36880         6.47830
     2011.27994        -3.18621         6.24593
     2011.28268        -9.90362         6.27105
     2011.28542        -7.00703         6.25744
     2011.28815       -10.53644         6.16637
     2011.29089         1.52915         6.12660
     2011.29363        -1.61826         6.19568
     2011.29637        -1.62866         6.30350
     2011.29911        -5.55807         6.19568
     2011.30184        -1.48648         6.44795
     2011.30458        -1.58089         6.19254
     2011.30732         2.68470         6.21452
     2011.31006         0.33129         6.16742
     2011.31279        -5.70011         6.14753
     2011.31553         0.26248         6.21348
     2011.31827        -1.95493         6.23022
     2011.32101        -3.13834         6.30559
     2011.32375        -7.79775         6.18835
     2011.32648       -13.46316         6.17370
     2011.32922        -8.57357         6.16114
     2011.33196       -13.12097         6.39666
     2011.33470       -10.49738         6.28465
     2011.33744        -6.85679         6.37258
     2011.34017        -7.00620         6.41654
     2011.34291         1.10439         6.35165
     2011.34565        -4.24202         6.29094
     2011.34839        -7.58943         6.24907
     2011.35112        -2.40083         6.26163
     2011.35386        -1.80824         6.35269
     2011.35660        -8.73265         6.36630
     2011.35934       -13.27306         6.24907
     2011.36208       -13.08347         6.24697
     2011.36481        -7.17188         6.32548
     2011.36755       -11.19128         6.37677
     2011.37029        -5.65169         6.39666
     2011.37303        -7.83110         6.41759
     2011.37577        -2.30751         6.44690
     2011.37850        -8.31892         6.38933
     2011.38124        -3.02533         6.37572
     2011.38398        -7.99174         6.30245
     2011.38672        -9.31114         6.41654
     2011.38945        -0.38255         6.53587
     2011.39219        -2.00696         6.39666
     2011.39493       -10.98737         6.40922
     2011.39767        -8.59878         6.37782
     2011.40041        -4.37419         6.41131
     2011.40314        -4.13860         6.29512
     2011.40588        -1.10100         6.34537
     2011.40862        -0.82941         6.29826
     2011.41136        -7.84882         6.42073
     2011.41410        -5.12723         6.37991
     2011.41683        -2.61164         6.38724
     2011.41957        -6.12605         6.42911
     2011.42231        -7.25445         6.28884
     2011.42505        -1.84286         6.34013
     2011.42778        -1.16627         6.57356
     2011.43052        -0.78968         6.53692
     2011.43326        -3.47309         6.41759
     2011.43600        -5.76650         6.37467
     2011.43874        -2.95691         6.40712
     2011.44147        -4.00031         6.33909
     2011.44421        -1.90872         6.36316
     2011.44695        -5.90613         6.45946
     2011.44969        -5.13954         6.32443
     2011.45243        -9.69195         6.37572
     2011.45516        -1.00136         6.41236
     2011.45790        -0.72177         6.39142
     2011.46064        -2.04817         6.41131
     2011.46338        -4.29558         6.36735
     2011.46611        -3.45199         6.34223
     2011.46885         3.44460         6.36316
     2011.47141         5.11656         7.17439
     2011.47433         2.40578         6.40503
     2011.47707        -3.91563         6.45737
     2011.47980         1.77297         6.39142
     2011.48254         0.85856         6.30978
     2011.48528         4.36715         6.44585
     2011.48802         6.85874         6.36735
     2011.49076         7.95033         6.37363
     2011.49349         0.51792         6.35374
     2011.49623         4.57152         6.42597
     2011.49897         6.01911         6.31815
     2011.50171         7.85670         6.48458
     2011.50445         3.91532         6.34432
     2011.50718         7.16388         6.36316
     2011.50992         3.54647         6.37886
     2011.51266         6.72906         6.49819
     2011.51540         2.41866         6.27105
     2011.51813         8.98325         6.35583
     2011.52087        10.25384         6.41445
     2011.52361        -0.04957         6.32966
     2011.52635         1.91802         6.47202
     2011.52908        13.55261         6.36316
     2011.53182         6.95420         6.39770
     2011.53456         6.46180         6.46365
     2011.53730         3.35539         6.50447
     2011.54004         3.11098         6.33281
     2011.54277         1.50457         6.40084
     2011.54551         6.11016         6.43643
     2011.54825         3.18075         6.38828
     2011.55099         4.06435         6.44167
     2011.55373        -1.00606         6.51703
     2011.55646         6.14853         6.36525
     2011.55920         3.49112         6.36525
     2011.56194         9.94571         6.63217
     2011.56468         4.70830         6.37467
     2011.56741         6.65089         6.31292
     2011.57015         0.41749         6.37258
     2011.57289         8.91708         6.37258
     2011.57563        11.43067         6.29931
     2011.57837        10.64526         6.57460
     2011.58110         6.68985         6.32443
     2011.58384        14.04744         6.60810
     2011.58658         2.15803         6.72952
     2011.58933         2.31266         6.38305
     2011.59206         3.29122         6.43015
     2011.59479         7.94981         6.38619
     2011.59753         7.82740         6.48877
     2011.59955         0.95948         8.98944
     2011.65800         3.88923         7.44864
     2011.66050        10.76701         6.56623
     2011.66324        11.32260         6.51913
     2011.66598        11.67020         6.63950
     2011.66872        10.01478         6.67928
     2011.67145         9.94337         6.36525
     2011.67419        11.12396         6.33909
     2011.67693        15.90455         6.37572
     2011.67967         8.61815         6.35165
     2011.68240         7.45974         6.61543
     2011.68514        10.73833         6.58193
     2011.68788        11.36792         6.55053
     2011.69062         6.58451         6.47307
     2011.69336        10.02710         6.43539
     2011.69609         8.34769         6.43329
     2011.69883        13.16129         6.53483
     2011.70157         7.64388         6.45109
     2011.70431         8.70849         6.50133
     2011.70705        14.01206         6.64369
     2011.70978         5.36765         6.63845
     2011.71252         8.92624         6.63741
     2011.71526         8.96484         6.55576
     2011.71800        16.26543         6.59763
     2011.72073        12.28202         6.59449
     2011.72347        12.62861         6.86036
     2011.72621         6.04520         6.38619
     2011.72895        15.84379         6.30140
     2011.73169        19.90138         6.82792
     2011.73442        11.46798         6.43957
     2011.73716        10.36657         6.57146
     2011.73990         6.79516         6.37572
     2011.81108         1.50454         6.30559
     2011.81382         0.67613         6.40817
     2011.81656        -1.85328         6.26895
     2011.81930         3.54331         6.36316
     2011.82203         8.22690         6.44795
     2011.82477         8.47049         6.23232
     2011.82751        -0.55591         6.41026
     2011.82910         1.81466        15.52741
     2012.78694       -33.07874        17.28280
     2012.78850        14.56170         6.81221
     2012.79123        21.82529         7.60983
     2012.79285        25.11694        19.09786
     2012.81915        -4.82689         9.10144
     2012.86913        -3.45080        24.14003
     2012.87068         0.16461         7.36804
     2012.87337         7.57504         7.13356
     2012.87609        -3.19644         7.40572
     2012.87885         1.36725         6.37467
     2012.88158         3.35081         6.21871
     2012.88432         5.13840         7.17648
     2012.88706        13.66100         7.01110
     2012.88980         3.42059         6.64892
     2012.89256        -0.41672         6.41236
     2012.89527        -9.83723         6.68346
     2012.89801        -7.07764         7.01947
     2012.90075         3.42295         6.72010
     2012.90348         2.73253         6.94096
     2012.90615         1.53287         7.26022
     2012.90896         6.66573         7.69357
     2012.91174         9.06147         7.56796
     2012.91444         4.87191         7.11891
     2012.91718         5.19950         7.67264
     2012.91988        -3.95801         6.66462
     2012.92263        -2.43038         7.42665
     2012.92537         1.86519         7.30000
     2012.92813        -4.26713         8.69635
     2012.93086        -3.68054         7.59204
     2012.93360         0.25505         7.73230
     2012.93634         2.25664         6.81221
     2012.93908        -8.16577         6.90328
     2012.94182         2.63083         7.13042
     2012.94452        14.13628         7.40677
     2012.94729         6.10501         7.31151
     2012.95000         8.24250         7.42979
     2012.95277         6.50919         6.97865
     2012.95549         5.62873         6.98702
     2012.95804        -0.23633         8.81882
     2013.01958         5.80127        16.55950
     2013.02121         2.84998         6.78500
     2013.02395        -4.80743         6.99121
     2013.02669         6.78716         6.83629
     2013.02943         2.28175         6.42178
     2013.03214        -1.35574         6.64264
     2013.03491        -3.52405         6.44899
     2013.03764        -2.65047         6.45423
     2013.04038        -8.29488         7.41409
     2013.04312        -9.86727         6.72743
     2013.04585        -7.53370         7.29267
     2013.04859        -4.47511         7.54180
     2013.05133        -4.25753         7.26441
     2013.05414        -4.64867         7.50202
     2013.05673         5.28742         6.86769
     2013.05955        -2.43572         7.23824
     2013.06228         6.72885         9.72112
     2013.06498         3.88531         7.11158
     2013.06776        -0.98897         6.79128
     2013.07049        -1.11537         7.32721
     2013.07323         4.40622         7.17334
     2013.07597        -5.35019         6.34851
     2013.07875        -2.85747         7.13566
     2013.08145         2.35299         6.48982
     2013.08418        -7.09842         6.71277
     2013.08692        -0.71083         6.68660
     2013.08964        -3.76332         6.49714
     2013.09241        -0.15061         6.43539
     2013.09514         4.22995         6.82582
     2013.09787         9.39354         7.29790
     2013.10061         8.86013         7.91130
     2013.10335        -5.58628         7.20788
     2013.10609         4.39631         6.66148
     2013.10882         5.08191         6.48982
     2013.11156        -5.50550         6.61752
     2013.11430        -0.12891         6.32966
     2013.11704       -17.89132         9.72007
     2013.11973       -14.23989        11.71621
     2013.12279       -11.57615         9.80381
     2013.12512       -17.07001        10.62341
     2013.12799         1.30505         6.64892
     2013.13073        -0.88336         6.39561
     2013.13347         1.39023         6.81640
     2013.13618         4.65574         7.29372
     2013.13894         3.27141         6.98807
     2013.14168         0.69900         7.03203
     2013.14445         0.37573         6.97865
     2013.14715         5.27419         7.62344
     2013.14989        -4.36322         6.27942
     2013.15381        10.91750        17.52774
     2013.15537       -10.42704         6.84780
     2013.15811       -10.61545         7.00900
     2013.16084       -11.33386         6.73161
     2013.16358       -15.02426         6.68242
     2013.16632        -6.13667         6.36002
     2013.16906         2.48592         6.40398
     2013.17180        -0.73849         7.58157
     2013.17451         1.23202         6.34641
     2013.17726         0.73064         7.58995
     2013.18002       -11.13368         6.78919
     2013.18273        -2.59917         6.89281
     2013.18554       -10.53135         6.50761
     2013.18827        -4.61979         6.93364
     2013.19096       -10.07135         6.71801
     2013.19370        -6.54076         6.54006
     2013.19649       -10.99198         6.93259
     2013.19924       -11.94634         7.27697
     2013.20199       -18.46272         7.80453
     2013.20465        -8.43639         6.51180
     2013.20739         3.28520         6.68451
     2013.21013        -0.51921         6.99016
     2013.21286        -5.30262         6.36944
     2013.21565        -0.34886         6.54320
     2013.21833        -1.16745         6.85932
     2013.22108        -1.27684         7.75847
     2013.22381        -5.85025         7.83070
     2013.22655        -3.39366         6.66776
     2013.22913        -5.71763         9.17367
     2013.23203        -5.39248         6.69812
     2013.23473        -2.72902         7.09798
     2013.23750        -8.48129         7.44864
     2013.24019        -5.40087         7.49888
     2013.24304        -7.78689         7.08751
     2013.24572         2.87148         6.36525
     2013.24846         3.37207         6.93468
     2013.25119        -0.74134         6.56728
     2013.25393        -3.94274         6.89491
     2013.25667        -0.40215         7.66845
     2013.25941         3.67244         6.52227
     2013.26214        -6.56497         7.28534
     2013.26488         0.63862         6.65730
     2013.26761        -3.27084         6.93259
     2013.27036       -12.14620         7.58785
     2013.27310       -13.79660         7.63077
     2013.27581        -6.62408         6.84152
     2013.27858        -0.42639         6.86560
     2013.28131         0.86017         6.87607
     2013.28377        -5.52420         7.81814
     2013.28694         0.74589         7.19323
     2013.28957        -3.16291         8.67437
     2013.29228        -3.90638         7.71974
     2013.29500        -3.77787         6.72010
     2013.29771       -10.33638         6.76092
     2013.30048       -11.59067         6.83838
     2013.30321       -13.16110         6.56204
     2013.30589        -5.57271         7.72079
     2013.30873       -12.63476         7.06762
     2013.31147        -5.66716         6.95771
     2013.31372         0.19372         9.05120
     2013.31707         3.97344         9.20612
     2013.31964         4.17645         6.59344
     2013.32238         3.00204         6.39038
     2013.32513        -7.99130         7.12205
     2013.32791        -1.04957         6.85827
     2013.33059        -9.52318         6.92108
     2013.33333        -5.62959         6.78919
     2013.33611        -5.48683         7.05087
     2013.33880         2.26459         6.67823
     2013.34151        -0.87393         6.76197
     2013.34427         0.51472         6.79023
     2013.34702         0.52037         6.70231
     2013.34976         2.54596         6.49610
     2013.35250        -0.71742         6.78814
     2013.35523        -0.26786         6.60391
     2013.35797         1.77773         7.12519
     2013.36071        -1.07068         6.85722
     2013.36341        -9.63222         6.75150
     2013.36595        -9.14529         7.96782
     2013.37829        -3.46606        23.30158
     2013.37987        -0.24054         6.31396
     2013.38259        -4.50203         6.68870
     2013.38538         0.97676         7.36385
     2013.38809        -0.44576         6.98702
     2013.39087        -1.03002         6.80907
     2013.39356        -2.24258         7.61402
     2013.39606         1.19018        12.60595
     2013.39896         0.60232        22.43383
     2013.40166        -0.91422        10.00060
     2013.40402        10.26706        33.43930
     2013.40735       -18.76729        17.69731
     2013.40967       -15.22113        25.85250
     2013.41280         9.27983        13.68619
     2013.41510        10.76789        14.89727
     2013.41942       -22.98499       151.65969
     2013.42092         7.98727        34.42953
     2013.42322        -5.36367         9.90325
     2013.42664         9.03832        22.07480
     2013.42868        10.23245        14.97682
     2013.43140        -9.67201        26.15396
     2013.43445         8.33168        13.91124
     2013.43730        -5.12136        30.18707
     2013.44009        16.71641        23.24506
     2013.44260         7.15622        84.27969
     2013.44508        20.19291        29.13823
     2013.44826       -13.53095        19.04133
     2013.45163         8.55586        67.30673
     2013.45394        -6.88405        15.52636
     2013.45651        -5.50004        15.13802
     2013.45917        -1.12773        12.77028
     2013.46147        -1.41269        21.59539
     2013.46757        -3.87731        26.93065
     2013.46991        -6.73712        10.23298
     2013.47301        13.83374        17.93388
     2013.47547         1.29738        14.98834
     2013.47816         1.30179        10.71343
     2013.48097       -11.01137        17.01797
     2013.48716         9.17933        64.08380
     2013.48918       -10.68659        21.82986
     2013.49179        33.39055        36.93857
     2013.49424       -22.47687        24.37554
     2013.49637       -33.69341       113.28394
     2013.49979         2.88256        20.72868
     2013.50247        -5.71303        43.92455
     2013.50582        -2.63529        34.75506
     2013.50805        22.11952        21.39023
     2013.51122        18.82061        50.79747
     2013.51401         0.93940        17.93492
     2013.51663       -10.26543        29.45539
     2013.51909        11.54920        13.65897
     2013.52220        21.42507        35.76308
     2013.52443        21.18890        13.53546
     2013.52753        -0.14424        18.53889
     2013.53080         1.29520        11.60945
     2013.53323        14.14872        11.48488
     2013.53536        15.19320        13.39624
     2013.53799        21.58341        24.94079
     2013.54096        17.66781        22.57828
     2013.54394        24.89825        23.91812
     2013.54692         6.98070        22.96872
     2013.54921         9.95270        12.04070
     2013.55246        15.83908        15.00718
     2013.55447        -7.67386        19.61809
     2013.55775         3.55063        21.68960
     2013.56004         0.04764        18.66869
     2013.56296        21.43588        28.64940
     2013.56636       -23.08822        55.58319
     2013.56851        65.68631        69.44837
     2013.57152         8.76587        16.97820
     2013.57426         3.90446        24.19446
     2013.57654        -4.38656        22.51548
     2013.57914         4.63756        17.92236
     2013.58235        10.22980        20.60936
     2013.58517         7.20068        16.91435
     2013.58800         4.48560        10.00060
     2013.59070        13.07106        12.63316
     2013.59279       -12.96761        46.86485
     2013.59578        -2.54714       132.45821
     2013.59852        10.52144        15.42378
     2013.60117        14.50374        17.63869
     2013.60365        -1.79458        19.49248
     2014.26195         3.49766         9.65517
     2014.26415        -3.85565         8.63250
     2014.26680        -1.66036         8.54353
     2014.26968        -9.35527         8.66181
     2014.27244        -5.08459         8.80417
     2014.27530        -4.32858         9.40186
     2014.27787         3.72242         7.48632
     2014.28063         0.97308         7.55854
     2014.28282         1.85674         9.56829
     2014.28565        -3.47232        12.50127
     2014.28861        -1.32698        13.28214
     2014.29132         4.03553        16.04974
     2014.29373         1.83499        12.48662
     2014.29717         4.64403         8.94234
     2014.29981        -7.60371         8.31011
     2014.30199        -8.47710        11.10596
     2014.30488       -12.45496         9.44687
     2014.30770        -8.36608         9.74833
     2014.31016        -7.19346         9.33382
     2014.31293        -3.63675        14.35296
     2014.31619        -2.73533         8.56342
     2014.31893        -9.26675         9.00410
     2014.32114       -15.37299        10.39417
     2014.32413        12.95746        30.12112
     2014.32667       -10.01361        15.52218
     2014.32937        -8.32215        10.05922
     2014.33245       -26.52238       106.50208
     2014.33570        -5.90099         9.28148
     2014.33808        -9.22565         7.74486
     2014.34036        -6.29965         9.21345
     2014.34309        -7.08511        10.42767
     2014.34611        -1.62554        28.76873
     2014.34900       -21.90340       120.39238
     2014.35136        -8.59512         8.97479
     2014.35459        -2.01080        11.03269
     2014.35728       -11.05837         8.01074
     2014.35943       -10.02785        10.87254
     2014.36222       -17.18909        52.76535
     2015.82044        -2.71152        13.65374
     2015.82203        -4.22192         6.18207
     2015.82477        -7.83233         6.28465
     2015.82751       -11.37974         6.31710
     2015.83025        -2.18515         6.27419
     2015.83299       -16.56456         6.32652
     2015.83572       -11.54496         6.23127
     2015.83846        -9.90237         6.25849
     2015.84120       -13.85178         6.11299
     2015.84394        -7.34719         6.16533
     2015.84668       -13.25060         6.21976
     2015.84941       -10.13701         6.23650
     2015.85215       -18.17542         6.18835
     2015.85489        -7.71682         6.25744
     2015.85763       -14.65323         6.21976
     2015.86036       -12.34164         6.33909
     2015.86311       -12.05103         6.32757
     2015.86584        -8.53646         6.37467
     2015.86858       -19.93087         6.15277
     2015.87132       -18.80927         6.10985
     2015.87405       -21.60068         6.27523
     2015.87679       -17.09509         6.47098
     2015.87953       -18.00450         6.40712
     2015.88227       -13.92691         6.20196
     2015.88501       -22.04132         6.24697
     2015.88774       -19.15673         6.08682
     2015.89048        -8.54513         6.13916
     2015.89322       -13.01054         6.11194
     2015.89596       -13.98195         6.21452
     2015.89869       -12.15436         6.16847
     2015.90143       -21.10377         6.00727
     2015.90417       -20.32718         6.08891
     2015.90691       -14.44359         6.11927
     2015.90965       -20.35599         6.40817
     2015.91238       -23.26040         6.24069
     2015.91512       -24.85281         6.10252
     2015.91786       -18.29522         6.24174
     2015.92060       -16.82463         6.22185
     2015.92334       -15.19504         6.26686
     2015.92607       -23.39044         6.12869
     2015.92881       -22.20685         6.12764
     2015.93155       -20.51026         6.42597
     2015.93429        -9.21867         6.34641
     2015.93702       -14.38508         6.34746
     2015.93976       -11.05649         6.50656
     2015.94250       -10.09890         6.40817
     2015.94524       -20.13730         6.38514
     2015.94798       -13.29571         6.34118
     2015.95071       -14.60012         6.18731
     2015.95345       -20.33553         6.08577
     2015.95619       -15.77594         6.15800
     2015.95893       -22.89835         6.46574
     2015.96167       -18.01476         6.38200
     2015.96440       -14.18916         6.11194
     2015.96714       -16.85557         6.17579
     2015.96988       -18.13398         6.11718
     2015.97262        -2.38339         6.86036
     2015.97535       -11.81380         6.12974
     2015.97809       -14.36121         6.16114
     2015.98083       -16.75262         6.21034
     2015.98357       -22.20902         6.57460
     2015.98631       -21.16343         6.26267
     2015.98904       -24.03084         6.09833
     2015.99178       -15.79625         6.10252
     2015.99452       -20.73866         6.17475
     2015.99724       -18.13013         6.21976
     2016.00005       -19.06327         6.21557
     2016.00273       -19.84488         6.09415
     2016.00547       -19.93829         6.09624
     2016.00821       -23.66970         6.21034
     2016.01095       -10.04111         6.22604
     2016.01368       -19.82252         6.25221
     2016.01642       -17.74593         6.26686
     2016.01916       -16.54333         6.42806
     2016.02190       -19.02774         6.24488
     2016.02464       -12.44615         6.07321
     2016.02737       -19.31856         6.26686
     2016.03011       -23.64197         6.13497
     2016.03285       -15.10738         6.10671
     2016.03559       -16.24479         6.09938
     2016.03833       -15.03319         6.26058
     2016.04106       -13.24760         6.22813
     2016.04380       -13.31401         6.20720
     2016.04654       -14.28242         8.49329
     2016.04928       -15.06383         6.04600
     2016.05201       -23.37424         5.97168
     2016.05475       -24.56564         6.23546
     2016.05749       -17.72605         6.32862
     2016.06023       -20.19146         6.04600
     2016.06297       -20.41087         5.98005
     2016.06570       -18.87028         6.14439
     2016.06844       -21.09369         6.33385
     2016.07118       -21.55410         6.28047
     2016.07392       -25.50350         6.39456
     2016.07666       -10.19991         6.39456
     2016.07939        -7.14632         6.26686
     2016.08213       -12.14173         6.31501
     2016.08487       -16.38714         6.25744
     2016.08761       -18.08555         6.24174
     2016.09034       -20.02596         6.70021
     2016.09308       -17.57436         6.57042
     2016.09582       -23.24977         6.20510
     2016.09856       -19.01918         6.22394
     2016.10130       -26.23959         6.12450
     2016.10403       -20.81400         6.22290
     2016.10677       -18.43041         7.73440
     2016.10951       -17.48281         6.32338
     2016.11170       -13.11814         7.80557
     2016.11435       -30.32185        10.58782
     2016.13689       -15.80790         6.07426
     2016.13958       -11.37246         6.31815
     2016.14221       -20.13625         7.90502
     2016.14529       -15.73448         6.51285
     2016.17579        -9.79862         8.12065
     2016.17796        -9.01403         6.07635
     2016.17948        -5.93470        20.63134
     2016.18658       -18.24680        18.43003
     2016.18891       -10.07466         6.34537
     2016.19164       -10.08107         5.99366
     2016.19438        -6.73448         6.14020
     2016.19712        -9.66089         5.96749
     2016.19986        -9.22530         6.27209
     2016.20260       -13.77770         6.22918
     2016.20533       -11.01511         6.75255
     2016.20807        -8.09552         6.52122
     2016.21081       -15.75793         6.24488
     2016.21355       -11.09234         6.14020
     2016.21629       -13.24175         6.35583
     2016.21902       -14.92115         7.24766
     2016.22176        -3.16656         5.93295
     2016.22450       -11.14397         6.27942
     2016.22724       -27.35538         6.14125
     2016.22997        -9.11179         6.05332
     2016.23271        -9.30320         5.95807
     2016.23545       -17.54561         6.08682
     2016.23819       -11.72601         6.00727
     2016.24093        -8.46342         6.06589
     2016.24366       -12.34583         6.09519
     2016.24640        -6.46224         5.96749
     2016.24914        -7.60765         6.03762
     2016.25188        -1.19006         6.10252
     2016.25462        -5.26947         6.13811
     2016.25735       -14.72687         5.97587
     2016.26009       -11.57428         6.07007
     2016.26283       -12.98969         6.10357
     2016.26541        -5.25965         6.38410
     2016.27766         7.72026        16.00891
     2016.27926       -11.30014         6.13497
     2016.28199       -17.03055         6.44062
     2016.28473        -3.05496         5.99471
     2016.28747        -9.98337         6.15486
     2016.29021       -12.18178         6.04914
     2016.29295        -6.52518         6.02820
     2016.29568        -7.85359         6.13706
     2016.29842        -1.47300         6.18940
     2016.30116        -7.64241         6.67614
     2016.30390       -10.00782         6.10357
     2016.30663        -2.67023         6.18312
     2016.30937        -3.42464         5.94446
     2016.31211        -8.16904         6.00203
     2016.31485        -6.21045         6.02192
     2016.31759        -5.49786         6.08787
     2016.32032        -4.98727         6.02611
     2016.32306       -10.34668         6.17998
     2016.32580       -10.93509         6.00203
     2016.32854        -6.81550         5.98947
     2016.33128        -4.56190         5.98215
     2016.33401        -1.43531         6.17370
     2016.33675        -2.32572         6.14648
     2016.33949        -0.25813         6.09729
     2016.34223         0.14946         6.05646
     2016.34496        -0.72395         6.02506
     2016.34770         0.64665         6.08682
     2016.35044        -0.35776         6.40294
     2016.35318        -2.15917         6.05856
     2016.35592        -8.99458         7.31779
     2016.35865        -4.82499         5.92039
     2016.36139        -5.94740         6.06484
     2016.36413         5.45219         6.28361
     2016.36687         2.33079         6.13916
     2016.36961        10.09338         6.00622
     2016.37234         5.33897         7.25708
     2016.37508         0.21056         6.08577
     2016.37782        -4.71985         6.16637
     2016.38056        -0.56226         6.17789
     2016.38329         6.57933         6.02716
     2016.38603        -0.19607         5.96958
     2016.38877        12.78552         6.04181
     2016.39151         3.85811         5.98110
     2016.39425        -0.79830         5.97901
     2016.39698         5.90929         5.93086
     2016.39972        10.81488         6.01145
     2016.40246        -1.87552         6.12764
     2016.40520        -0.07493         6.04181
     2016.40794        -6.98734         6.07635
     2016.41067        -6.05575         6.08054
     2016.41341        -1.75816         6.12555
     2016.41615        -0.07557         5.95702
     2016.41889        -3.09898         6.12869
     2016.42162         3.94662         6.10357
     2016.42436        -3.31479         5.98947
     2016.42710         2.88480         5.93504
     2016.42984         0.86539         6.06170
     2016.43258        10.42598         6.03134
     2016.43531         2.89857         6.14230
     2016.43805        10.75516         6.14544
     2016.44079         5.28876         6.19359
     2016.44354         0.29540         5.93295
     2016.44626        -5.09506         6.01669
     2016.44900         6.11753         6.12136
     2016.45174         0.81412         6.02716
     2016.45448         6.99471         6.03134
     2016.45722         2.90931         5.94342
     2016.45995         8.78290         6.03658
     2016.46269         0.74549         6.07112
     2016.46543         2.62308         6.10880
     2016.46817         6.58667         5.98005
     2016.47091         1.88326         6.04495
     2016.47364         4.48385         6.02506
     2016.47638         4.75145         6.04914
     2016.47912         3.74204         6.15695
     2016.48186         3.03363         6.32234
     2016.48459         6.95022         6.17789
     2016.48733        -0.29119         6.03448
     2016.49007         6.89140         6.09519
     2016.49281         9.97899         6.01250
     2016.49555         0.59259         6.06484
     2016.49828         5.41018         6.11822
     2016.50102         5.02877         6.14230
     2016.50376        -0.09664         6.23022
     2016.50650         4.91395         6.17579
     2016.50924         8.47354         6.01669
     2016.51197         3.25114         6.11194
     2016.51471         8.13373         6.22394
     2016.51745         9.89832         6.38410
     2016.52019         6.04491         6.06484
     2016.52292         3.91250         6.10566
     2016.52566        11.04809         6.11299
     2016.52840         7.93468         6.37991
     2016.53108         4.76308         6.28675
     2016.53388         6.74887         6.22394
     2016.53662         8.91048         6.72115
     2016.53935         9.35705         6.05856
     2016.54209         7.55964         5.98738
     2016.54483        14.31923         6.00308
     2016.54757         4.00182         6.06484
     2016.55030         6.70642         6.29722
     2016.55304        11.29101         6.18103
     2016.55578         5.09160         6.35374
     2016.55852         8.34819         6.17998
     2016.56125         5.29678         6.09938
     2016.56399        14.68337         6.24069
     2016.56673         7.28996         6.20929
     2016.56947         5.65456         6.57356
     2016.57221        18.21815         6.19359
     2016.57494        11.14074         5.99994
     2016.57768        15.21933         6.16847
     2016.58042        14.09092         5.93295
     2016.58316         8.17951         5.96644
     2016.58590        11.00411         6.14962
     2016.58863         8.25870         6.15591
     2016.59129        10.29899         6.54320
     2016.60345        10.25462        14.92867
     2016.60506        10.11125         6.10461
     2016.60780         5.51284         6.07112
     2016.61054        10.08643         6.07635
     2016.61327         8.27702         6.15486
     2016.61601        11.01561         6.05542
     2016.61875         7.43420         6.19987
     2016.62149        12.80979         6.09310
     2016.62423        11.83139         6.07531
     2016.62696        11.98098         6.21034
     2016.62970        11.06257         6.24383
     2016.63244         9.30616         6.24697
     2016.63518        14.65675         6.02506
     2016.63791        22.72934         6.18521
     2016.64065        18.59094         6.15591
     2016.64339        12.56953         6.13078
     2016.64613        12.00812         6.04390
     2016.64887        10.12171         6.17475
     2016.65100        20.37119         8.48596
     2016.66656         3.33969        23.23982
     2016.66803        11.25685         6.20301
     2016.67077        15.62344         6.30559
     2016.67351        11.47703         6.03553
     2016.67624        13.73062         6.05751
     2016.67898        12.38622         6.19882
     2016.68172        13.04181         6.12974
     2016.68446        17.45540         6.41236
     2016.68721        10.11206         6.45946
     2016.68993         9.94058         6.26267
     2016.69267         7.35217         6.17684
     2016.69541        15.85477         6.14858
     2016.69815        13.88236         6.03762
     2016.70089        12.48295         6.14648
     2016.70362        12.54354         6.19254
     2016.70636        11.14813         6.46679
     2016.70910        12.72272         6.41969
     2016.71184        18.96531         6.16009
     2016.71457        12.48691         6.08891
     2016.71731        16.40750         6.17161
     2016.72005        12.72409         6.06379
     2016.72279        14.10968         6.09938
     2016.72553        15.65627         6.22185
     2016.72826         9.00186         6.34537
     2016.73100         6.27345         5.97796
     2016.73374         8.05905         6.01878
     2016.73648        14.49764         6.18835
     2016.73921         5.86123         6.35688
     2016.74195        15.94882         6.06798
     2016.74469        12.20241         6.10671
     2016.74743        12.46100         6.03239
     2016.75017        12.83560         5.97587
     2016.75290        12.62619         6.04076
     2016.75564        16.06678         6.19778
     2016.75838        15.38537         6.11822
     2016.76112        12.98996         6.06065
     2016.76386         6.02055         6.03867
     2016.76659        11.17514         6.16323
     2016.76933        13.90174         6.11508
     2016.77207        10.47633         6.18103
     2016.77481         9.94292         6.22813
     2016.77754         5.92651         6.05542
     2016.78028         4.15610         6.10880
     2016.78302         3.55969         6.16219
     2016.78576         9.67128         6.57670
     2016.78850        11.06588         6.22604
     2016.79123        12.04747         6.24697
     2016.79397         5.26506         6.04076
     2016.79671         5.00465         6.18521
     2016.79945         4.71024         6.14020
     2016.80217        -5.28322         6.41131
     2016.80492         3.61543         6.16951
     2016.80766         3.25602         6.09833
     2016.81040        -1.44239         6.21662
     2016.81314         7.64320         6.15486
     2016.81587         5.33079         6.16742
     2016.81861        -1.96862         6.14020
     2016.82135         3.93397         6.31501
     2016.82409         4.42257         6.12346
     2016.82683         2.11416         6.14230
     2016.82956        -0.18525         5.90259
     2016.83230         3.82134         6.19882
     2016.83504         0.11893         6.11718
     2016.83778        -0.25248         6.13078
     2016.84052        -2.73489         6.15486
     2016.84325         4.11071         7.51563
     2016.84599        -6.09870         6.21452
     2016.84873         5.97989         6.75255
     2016.85147         3.39848         6.14230
     2016.85420         8.56807         6.06065
     2016.85694         0.05066         6.47307
     2016.85968         0.61925         6.33804
     2016.86242         0.65885         6.13811
     2016.86516         6.84844         6.36211
     2016.86789         1.70203         6.07531
     2016.87063         3.99262         6.28256
     2016.87337         8.65821         6.25953
     2016.87611         2.88580         6.06275
     2016.87885         3.40040         6.10776
     2016.88158         1.34999         6.16742
     2016.88432        11.74858         6.21138
     2016.88706        -0.07883         6.19359
     2016.88980         4.89776         6.16428
     2016.89253         3.71035         6.14125
     2016.89527        -1.92106         6.13916
     2016.89801        -4.42646         6.08577
     2016.90075        -2.00787         6.19568
     2016.90349        -0.39228         6.23336
     2016.90622         2.41631         6.29303
     2016.90896         3.90190         6.34537
     2016.91170         3.25849         6.17893
     2016.91444        -4.76792         6.32966
     2016.91718        -4.29432         6.37991
     2016.91991        -5.72773         6.34118
     2016.92265        -0.47214         6.15067
     2016.92539         0.04345         6.07531
     2016.92813        -4.06796         6.14334
     2016.93086        -1.04637         6.25849
     2016.93360        -1.92377         6.15277
     2016.93908        -5.81159         6.55053
     2016.94182        -4.76600         6.15591
     2016.94455        -3.48741         8.38547
     2016.94729        -1.30982         6.22708
     2016.95003        -3.52723         7.05192
     2016.95277         1.34037         6.41969
     2016.95551        -0.60204         6.20301
     2016.95824         1.90955         6.12346
     2016.96098         6.14914         7.69043
     2016.96372        -3.55727         6.15591
     2016.96646        -0.10568         6.07321
     2016.96919         1.82591         6.42911
     2016.97193        -0.54849         6.80070
     2016.97467         4.46210         6.25849
     2016.97741         2.15869         6.36735
     2016.98015         2.17428         6.10671
     2016.98288         0.48387         6.10566
     2016.98562         6.33646         6.23127
     2016.98836        -0.83694         6.27942
     2016.99110         6.19465         6.07949
     2016.99384        10.33824         6.97027
     2016.99657         2.08183         6.33699
     2016.99931         5.35942         6.13078
     2017.00211         4.02721         6.19987
     2017.00479         5.39760         6.16428
     2017.00752        -1.70580         6.07949
     2017.01026        -2.28321         6.26267
     2017.01300         4.92538         6.03239
     2017.01574         6.52797         6.15067
     2017.01848         2.33756         6.26372
     2017.02121         1.75715         6.06589
     2017.02395        -0.71426         6.19673
     2017.02669         1.37734         6.21138
     2017.02943         5.95793         6.16428
     2017.03216         0.15052         6.12764
     2017.03490        -2.72289         6.08263
     2017.03764        -4.88630         5.95388
     2017.04038        -0.45171         6.08577
     2017.04312         4.90789         6.06903
     2017.04585         0.08048         6.46260
     2017.04859         0.13807         6.55576
     2017.05133         8.28866         6.15695
     2017.05407        11.26425         6.17475
     2017.05681        16.41984         6.08159
     2017.05954        -0.88057         6.21976
     2017.06228         5.44203         6.07112
     2017.06502         0.79762         6.15172
     2017.06776        -1.46979         6.23232
     2017.07049        -0.34320         6.11299
     2017.07323        -4.12761         6.06379
     2017.07597         0.00598         6.25953
     2017.07871        -2.38043         6.26477
     2017.08145        -4.25683         6.25639
     2017.08418        -5.27724         6.09833
     2017.08692        -5.97565         6.21662
     2017.08966        -2.08006         6.05228
     2017.09240        -7.59447         6.17893
     2017.09514        -2.34588         6.12032
     2017.09787        -1.48828         6.16428
     2017.10061        -6.27269         6.50552
     2017.10335        -3.31510         6.13497
     2017.10609        -5.55851         6.13497
     2017.10882        -8.60192         6.23546
     2017.11156        -0.08633         6.26477
     2017.11430        -3.92674         6.02506
     2017.11704        -7.95014         6.05332
     2017.11978        -6.53155         5.94028
     2017.12251        -8.77896         6.25011
     2017.12525        -3.05437         6.13602
     2017.12799        -1.63978         6.18835
     2017.13620         2.28800         5.99366
     2017.13894        -2.82541         6.06379
     2017.14168        -4.88982         6.09938
     2017.14442        -5.77323         6.15486
     2017.14715        -5.85964         6.17265
     2017.14989        -2.82505         6.17998
     2017.15263         1.61855         6.03134
     2017.15537         0.71114         6.16742
     2017.15811        -3.32627         6.28151
     2017.16084        -2.81368         6.32757
     2017.16358        -9.84309         6.04181
     2017.16632        -4.18450         6.06903
     2017.16906        -7.46791         6.20301
     2017.17180        -1.18831         6.25011
     2017.17453        -5.10372         6.12974
     2017.17727        -2.66913         6.22708
     2017.18001        -7.22854         6.25011
     2017.18275        -1.97695         6.45423
     2017.18548       -12.95836         6.20929
     2017.18822        -3.94177         6.18103
     2017.19096        -5.66417         6.43120
     2017.19370        -2.33458         6.03972
     2017.19644        -9.01399         6.09624
     2017.19917        -4.85740         6.10985
     2017.20191        -8.48281         6.21766
     2017.20465       -10.28122         6.20301
     2017.20739        -4.34063         6.13497
     2017.21013         0.80097         6.23546
     2017.21286        -2.90444         6.02716
     2017.21560        -5.01385         6.20929
     2017.21834        -5.03026         6.09519
     2017.22108        -4.83867         6.17998
     2017.22381        -4.01508         6.34118
     2017.22655        -4.08348         6.28151
     2017.22929        -6.37989         6.03972
     2017.23203        -9.23330         6.09938
     2017.23477        -7.47071         6.12346
     2017.23750        -9.76912         6.00308
     2017.24024       -10.86453         6.15591
     2017.24298        -5.96294         6.11822
     2017.24572        -3.40134         6.17684
     2017.24846        -8.20075         6.07007
     2017.25119        -6.44916         6.27733
     2017.25393        -7.46557         6.08682
     2017.25667        -4.13398         6.09101
     2017.25941       -14.28039         6.09310
     2017.26214        -9.18780         6.14439
     2017.26488         1.03580         6.09519
     2017.26762        -8.92361         6.03448
     2017.27036        -4.14102         6.04495
     2017.27310       -10.85143         6.54006
     2017.27583        -5.21784         6.17265
     2017.27857        -7.41125         6.08159
     2017.28131       -10.18765         6.15277
     2017.28405        -8.25306         6.17684
     2017.28679        -5.02447         6.02192
     2017.28952        -4.32788         6.05646
     2017.29226         0.52971         6.25325
     2017.29500       -12.18070         7.30732
     2017.29774        -8.00811         6.19778
     2017.30047       -11.78951         6.08054
     2017.30321        -7.42792         6.06589
     2017.30595        -2.09633         6.29094
     2017.30869        -9.71574         6.14962
     2017.31143        -3.63515         6.13916
     2017.31416        -6.44556         6.19463
     2017.31690       -11.13297         6.29198
     2017.31964        -9.38137         6.14230
     2017.32238        -8.37478         6.40503
     2017.32512       -10.73919         6.00517
     2017.32785        -8.27160         6.08159
     2017.33059       -10.96101         6.10043
     2017.33324        -9.52173         6.36421
     2017.43830         0.08434        11.92556
     2017.44010         4.43065         6.02192
     2017.44283         5.71321         6.21034
     2017.44558        -0.78017         6.27000
     2017.44832         1.82043         6.07007
     2017.45106        10.58602         6.27733
     2017.45379         2.96261         6.27733
     2017.45653         5.59320         6.77767
     2017.45927         1.24479         6.15277
     2017.46201         3.89038         6.24279
     2017.46475         3.39098         6.31082
     2017.46748         0.21357         6.54425
     2017.47024        -0.13177         6.44271
     2017.47296         1.19075         6.34432
     2017.47570         5.53934         6.24488
     2017.47843        -1.41607         6.12241
     2017.48117         4.39352         6.18417
     2017.48391         7.62912         6.19987
     2017.48665         4.61571         6.44062
     2017.48939         8.57230         6.27837
     2017.49212        -1.41211         6.11090
     2017.49486         2.25348         6.14544
     2017.49760         9.43607         6.18835
     2017.50034         8.96466         6.11822
     2017.50308         9.17426         6.16219
     2017.50581         8.41485         6.04495
     2017.50853         7.76536         6.38514
     2017.51129        -0.31497         6.29722
     2017.51403         6.19262         6.23964
     2017.51676        10.26121         6.29512
     2017.51950         5.43481         6.25430
     2017.52224         6.53240         6.46051
     2017.52498         7.20099         6.28256
     2017.52772         2.31958         6.56518
     2017.53045         8.86017         6.20406
     2017.53319         6.34076         6.20929
     2017.53593         6.18135         6.37886
     2017.53867         3.22895         6.31606
     2017.54142        14.35560         6.25221
     2017.54414        11.13813         6.20615
     2017.54688         9.31672         6.19463
     2017.54962         4.22731         6.41445
     2017.55236         1.96390         6.27209
     2017.55509        11.16549         6.20824
     2017.55783         7.62409         6.39142
     2017.56057         6.83868         6.36525
     2017.56331         5.16627         6.30664
     2017.56605         3.07286         6.14648
     2017.56879        -1.06851         6.40503
     2017.57152        13.88004         6.25953
     2017.57426         4.81764         6.24383
     2017.57697         9.75614         6.60810
     2017.57974         1.25882         6.65520
     2017.58247         7.44341         6.34223
     2017.58521         1.19900         6.13392
     2017.58795         4.60659         6.36525
     2017.59069        11.31618         6.35897
     2017.59342         4.07078         6.22499
     2017.59616         3.20837         6.31501
     2017.59891         5.31799         6.18312
     2017.60164         5.98255         6.26372
     2017.60438         7.15014         6.22080
     2017.60711        10.23973         6.37677
     2017.60985        16.52332         6.41654
     2017.61259         7.21192         6.30245
     2017.61533         8.75351         6.27419
     2017.61807        10.77413         6.24383
     2017.62080        14.75169         6.52855
     2017.62354        13.46528         6.54948
     2017.62628        11.46687         6.63950
     2017.62902        13.63247         6.65206
     2017.63175         9.56406         6.50971
     2017.63447         4.16858         6.41969
     2017.63725         6.64631         6.34641
     2017.63997        12.65083         6.41864
     2017.64271         8.49442         6.47412
     2017.64542        15.68795         6.51180
     2017.64818         9.11061         6.40503
     2017.65091         6.68015         6.41026
     2017.65366        13.65779         6.21871
     2017.65639         7.24338         6.22185
     2017.65913        14.43197         6.53692
     2017.66187         8.74556         6.41131
     2017.66461        14.53915         6.42701
     2017.66735        14.73075         6.51075
     2017.67008        20.12834         6.18626
     2017.67282        16.84093         6.24383
     2017.67556        13.65054         6.28675
     2017.67830        12.38111         6.29408
     2017.68104        12.29670         6.71068
     2017.68377        14.95130         6.36735
     2017.68651        14.71889         6.51913
     2017.68925        14.75048         6.34223
     2017.69200        11.13212         6.13602
     2017.69472        19.30166         6.26895
     2017.69746         9.91725         6.44376
     2017.70020        13.27584         6.40294
     2017.70293        12.69440         6.76511
     2017.70568        10.54903         6.28884
     2017.70841        19.91262         6.11822
     2017.71115        14.47521         6.39875
     2017.71389         7.08080         6.44271
     2017.71610        19.94653         8.72252
     2017.76443         8.21684        26.73386
     2017.76591        14.37404         6.32548
     2017.76865        15.96763         6.08159
     2017.77138         4.68122         6.24174
     2017.77412        10.61581         6.25430
     2017.77686        12.29741         6.17893
     2017.77960        11.88200         6.30873
     2017.78234         9.00259         6.22185
     2017.78507         6.49918         5.99261
     2017.78781        10.33977         6.20196
     2017.79055         5.81636         6.23964
     2017.79329        11.07495         6.47412
     2017.79603        17.02555         6.62066
     2017.79876        13.73114         6.39875
     2017.80150        10.30173         6.35479
     2017.80424         9.62632         6.18312
     2017.80698        14.80691         6.57460
     2017.80971         7.49250         6.24697
     2017.81245         6.32210         6.61647
     2017.81519         7.41469         6.49400
     2017.81793        10.33028         6.20301
     2017.82065         3.79982         6.72429
     2017.82340         4.31046         6.01041
     2017.82614         8.56005         6.08368
     2017.82888         6.36164         6.22604
     2017.83162        10.62724         6.17684
     2017.83436         9.68583         6.15486
     2017.83709        10.16542         6.47412
     2017.83983        -4.93599         6.37363
     2017.84257         5.98760         5.99889
     2017.84531        -4.98381         6.30664
     2017.84804         0.03478         6.23022
     2017.85078         6.73238         6.23755
     2017.85352         9.85197         6.19463
     2017.85900         3.36415         6.33804
     2017.86173         8.41874         6.23336
     2017.86447         7.86133         6.31710
     2017.86721        12.11893         6.41550
     2017.86901        12.64122        11.32368
