# ================= DQRFIT RESULTS ================
# INPUT FILE: series/VLMY.rad
# OUTPUT: LDETRENDED
# FILTER FUNCTION: f(t)
# f(t)=+line(t)
# line(t)=+P 1+P 2*t
# heav(t)=(t<0?0:1)
# TOTAL OBSERVATIONS MTOT=  240
# INITIAL TIME INTERVAL= 2018.6939 - 2011.4935 =  7.2004
# TOTAL OBSERVATIONS AFTER PREFILTER M=  240
# TIME-SPAN=    0.0000 -    0.0000 =  0.0000
# OBSERVATIONS: USED M=   240 REJECTED MTOT-M=     0 %USED=  100.0000
# N=  2 PARAMETERS
# MAXSIG= 175.00000
# MAXRES=  14.03968
# SCALE FACTOR FOR LENGTHS: SCL=  10.00000
# SCALE FACTOR FOR SIGMAS: SCLSIG=   1.00000
# CHI^2=    230.246 DOF=   238 CHI^2/DOF=   0.96742
# RMS=      5.544 SDEV=      5.555 MEAN=    0.09611
#  P #       PARAMETER +-    SIGMA %error PARAMETER NAME
# P 1 =     -3827.66259 +-  281.589   7.36 YZERO                              
# P 2 =         1.90262 +-    0.140   7.35 SLOPE                              
#       T            LDETRENDED       SIG_OBS
     2011.49350        -8.11062         5.51097
     2011.49624        -5.32883         5.49917
     2011.49898        -2.40404         5.52572
     2011.50172         1.29475         5.55031
     2011.50445         0.51454         5.53949
     2011.50719        -3.37667         5.55523
     2011.50993        -5.34988         5.59949
     2011.51267        -1.32509         5.59162
     2011.51541         3.65270         5.72834
     2011.51814         3.67849         5.58080
     2011.52088         3.67329         5.52572
     2011.52362        -2.93092         5.50408
     2011.52636        -1.44513         5.52671
     2011.52909        -1.36034         5.51687
     2011.53183        -1.83555         5.50408
     2011.53457        -3.57476         5.50998
     2011.53731         1.19103         5.55228
     2011.54005        -4.02818         5.42835
     2011.54278        -1.65439         5.43818
     2011.54552         0.15540         5.47851
     2011.54826        -1.73081         5.48441
     2011.55100         2.36399         5.51589
     2011.55374         3.84578         5.48048
     2011.55647        -0.42743         5.46867
     2011.55921        -1.48764         5.51785
     2011.56195         1.54215         5.55720
     2011.56469         2.62594         5.48146
     2011.56742         6.24673         5.50507
     2011.57016        -2.32248         5.56408
     2011.57290        -3.21869         5.50310
     2011.57564        -0.36490         5.55228
     2011.57838         6.16089         5.60047
     2011.58111        -4.11831         5.65654
     2011.58385        -1.66952         5.62211
     2011.58659         2.30427         5.80112
     2011.58933         0.19906         5.62015
     2011.59206        -0.25715         5.56506
     2011.59480         4.65164         5.46769
     2011.59754         5.39643         5.55326
     2011.60028         1.68122         5.49425
     2011.60302         8.78901         5.55818
     2011.60575         6.03180         5.48736
     2011.60849        10.93459         5.83161
     2011.61123         4.78639         5.79424
     2011.61397         4.30118         5.64178
     2011.61671         5.39397         5.67719
     2011.61944        10.94976         5.80604
     2011.62218         2.37255         5.61719
     2011.62492        -0.03566         5.57785
     2011.62766         3.38613         5.55129
     2011.63039         1.92592         5.52375
     2011.63313         8.50471         5.52572
     2011.63587         2.95750         5.51392
     2011.63834         3.19881         6.00177
     2012.49008        -3.26973         5.37917
     2012.49282        -1.98394         5.33688
     2012.49556        -3.69715         5.35655
     2012.49829         0.72564         5.44605
     2012.50103         2.12843         5.48835
     2012.50377         0.75822         5.39294
     2012.50651        -4.39598         5.39884
     2012.50924         2.75681         5.46671
     2012.51198        -5.78240         5.53851
     2012.51472        -3.21361         5.46671
     2012.51746        -8.14182         5.43818
     2012.52020         0.49597         5.41261
     2012.52293        -5.23424         5.35458
     2012.52567         4.43655         5.42146
     2012.53115        -2.56187         5.52474
     2012.53389         0.39092         6.31553
     2012.53936         0.53751         5.46474
     2012.54484         0.34409         5.36737
     2013.31144        -6.15545         5.48638
     2013.31417        -1.79366         5.47753
     2013.31691        -4.52287         5.45097
     2013.31965        -5.88308         5.49326
     2013.32239        -1.34429         5.44605
     2013.32512        -3.20450         5.48736
     2013.32786         0.25129         5.49130
     2013.33060        -2.74292         5.45884
     2013.33334        -9.86813         5.47163
     2013.33608        -5.45734         5.45884
     2013.33881        -3.02355         5.47851
     2013.34155        -0.07075         5.45982
     2013.34429        -5.23196         5.40179
     2013.34703        -4.72917         5.49130
     2013.34977       -13.19838         5.54736
     2013.35250        -5.80459         5.48835
     2013.35524        -6.23880         5.63392
     2013.35798        -5.08101         5.49228
     2013.36072        -5.06622         5.42146
     2013.36345        -1.99943         5.52277
     2013.36619        -5.81164         5.49326
     2013.36893        -2.88985         5.51884
     2013.37167        -4.26505         5.54638
     2013.37441        -7.69226         5.47064
     2013.37714        -7.94847         5.54244
     2013.37988       -10.13268         5.54343
     2013.38262       -12.35889         5.48638
     2013.38536        -6.03210         5.52867
     2013.38810         2.54569         5.46179
     2013.39083        -2.36352         5.44015
     2013.39357       -10.13373         5.43327
     2013.39631        -4.81294         5.49720
     2013.39905       -14.85715         5.53162
     2013.40178        -7.81535         5.46966
     2013.40452       -12.24756         5.51490
     2013.40726        -9.63977         5.55425
     2013.41000        -8.42598         5.46671
     2013.41274        -5.52819         5.49130
     2013.41547        -8.30040         5.56113
     2013.41821        -7.77261         5.44999
     2013.42095        -2.70482         5.50212
     2013.42369        -9.23303         5.50015
     2013.42643        -6.67824         5.49326
     2013.42916         1.30755         5.55326
     2013.43190        -8.14165         5.54146
     2013.43464        -7.28786         5.53556
     2013.43738        -7.94807         5.46474
     2013.44011         5.98572         5.68604
     2013.44285        -8.11549         5.55916
     2013.44536         7.07974         6.24373
     2015.11294         1.85797         5.65359
     2015.11568         0.85676         5.57195
     2015.11842         1.56355         5.54638
     2015.12115         6.36834         5.58179
     2015.12389         9.54613         5.59654
     2015.12663         3.60892         5.61621
     2015.12937         3.40371         5.53064
     2015.13211         2.40450         5.51589
     2015.13484         3.06130         5.62211
     2015.13758        11.67609         5.71850
     2015.14032         8.70588         5.60638
     2015.14306        10.27367         5.58375
     2015.14580         5.46646         5.54539
     2015.14853         5.41625         5.53162
     2015.15127         4.61604         5.51097
     2015.15401         2.76083         5.50408
     2015.15675        -5.34138         5.61916
     2015.15948         8.49941         5.68014
     2015.16496         7.33100         5.49425
     2015.16770         7.37979         5.55326
     2015.17044         8.11258         5.50802
     2015.17317         3.05337         5.66539
     2015.17591         0.75816         5.65260
     2015.17865         4.86395         5.52080
     2015.18139         5.28974         5.47851
     2015.18413         5.54253         5.62801
     2015.18686         4.51832         5.59359
     2015.18960         3.47111         5.60834
     2015.19234         7.43790         5.75588
     2015.19508         3.30270         5.53261
     2015.19781         5.52349         5.59949
     2015.20055         1.85828         5.62801
     2015.20329         2.67707         5.62408
     2015.20603         2.53986         5.58080
     2015.20877         5.64665         5.58572
     2015.21150         0.59244         5.53261
     2015.21424        -1.07677         5.59261
     2015.21698         5.18302         5.60047
     2015.21972         4.48181         5.52671
     2015.22246         7.92960         5.56605
     2015.22519        -3.57960         5.58965
     2015.22793        -0.06581         5.52474
     2015.23067         7.02998         5.50408
     2015.23341         7.54677         5.65359
     2015.23614         5.02156         5.71654
     2015.23888         6.99235         5.66342
     2015.24162        10.19114         5.71260
     2015.24436         9.90093         5.71063
     2015.24710         5.50972         5.57392
     2015.24983         8.58651         5.46277
     2015.25257         9.30530         5.53556
     2015.25531         3.32010         5.50998
     2015.25805        10.97389         5.55031
     2015.26079        14.03968         5.53949
     2015.26352        10.76147         5.52671
     2015.26626         8.31126         5.48540
     2015.26900         6.36105         5.52277
     2015.27174        11.20684         5.66539
     2015.27447         8.52363         5.72440
     2015.27721        10.95142         5.65457
     2015.27995         9.06021         5.55818
     2015.28269        10.70000         5.66539
     2015.28543        -0.57820         5.69981
     2015.28787         7.34115         6.57716
     2018.54894        -2.64143         5.37819
     2018.55168        -9.07164         5.39196
     2018.55442        -0.71685         5.53556
     2018.55716        -5.64306         5.35163
     2018.55990        -3.56227         5.59457
     2018.56263        -5.44348         5.56703
     2018.56537        -6.60369         5.40179
     2018.56811        -1.38590         5.43032
     2018.57085        -1.63310         5.44605
     2018.57358         1.06269         5.59556
     2018.57632        -5.80152         5.68900
     2018.57906        -5.25073         5.62408
     2018.58180        -1.63494         5.57884
     2018.58454        11.15185         5.81096
     2018.58727        -1.38236         5.38999
     2018.59001         1.72443         5.40474
     2018.59275        -8.16978         5.47359
     2018.59549        -4.13599         5.38114
     2018.59823        -0.02220         5.39294
     2018.60096         0.48960         5.38015
     2018.60370         0.31539         5.39097
     2018.60644        -2.40782         5.36737
     2018.60918        -1.43903         5.39786
     2018.61191        -3.74724         5.37327
     2018.61465         1.53155         5.41950
     2018.61739        -0.74566         5.40966
     2018.62013         0.47213         5.43818
     2018.62287        -1.30708         5.54244
     2018.62560        -2.84729         5.62015
     2018.62834        -5.93050         5.36540
     2018.63108         0.19030         5.36638
     2018.63382        -8.74991         5.54441
     2018.63656        -3.03512         5.44212
     2018.63929        -0.73633         5.71162
     2018.64203        -1.96654         5.69686
     2018.64477         0.16225         5.40278
     2018.64751        -3.25496         5.38212
     2018.65024        -1.22417         5.41261
     2018.65298        -0.12038         5.46474
     2018.65572         1.12341         5.38114
     2018.65846         0.70621         5.43327
     2018.66120         1.89800         5.36933
     2018.66393        -1.12321         5.35851
     2018.66667         0.50158         5.34868
     2018.66941        -0.93263         5.32015
     2018.67215        -2.87184         5.39884
     2018.67488         0.62995         5.37524
     2018.67762        -3.22126         5.40278
     2018.68036        -4.75747         5.44507
     2018.68310        -7.63168         5.47458
     2018.68584        -0.69489         5.53064
     2018.68857         0.10991         5.43622
     2018.69131         0.10070         5.42343
     2018.69393        -3.09528         5.69096
