# ================= DQRFIT RESULTS ================
# INPUT FILE: series/WASQ.rad
# OUTPUT: LDETRENDED
# FILTER FUNCTION: f(t)
# f(t)=+line(t)+annual(t)
# line(t)=+P 1+P 2*t
# annual(t)=+P 3*sin(2*pi*t+P 4)
# heav(t)=(t<0?0:1)
# TOTAL OBSERVATIONS MTOT= 2070
# INITIAL TIME INTERVAL= 2021.2457 - 2015.0034 =  6.2423
# TOTAL OBSERVATIONS AFTER PREFILTER M= 2069
# TIME-SPAN= 2021.2457 - 2015.0034 =  6.2423
# OBSERVATIONS: USED M=  2069 REJECTED MTOT-M=     1 %USED=   99.9517
# N=  4 PARAMETERS
# MAXSIG= 175.00000
# MAXRES=  40.01468
# SCALE FACTOR FOR LENGTHS: SCL=  10.00000
# SCALE FACTOR FOR SIGMAS: SCLSIG=   1.00000
# CHI^2=   1571.358 DOF=  2065 CHI^2/DOF=   0.76095
# RMS=      4.988 SDEV=      4.989 MEAN=    0.02664
#  P #       PARAMETER +-    SIGMA %error PARAMETER NAME
# P 1 =      2963.94745 +-  121.443   4.10 YZERO                              
# P 2 =        -1.47067 +-    0.060   4.09 SLOPE                              
# P 3 =         4.01934 +-    0.150   3.72 ANNUAL AMPLITUDE                   
# P 4 =         3.07184 +-    0.053   1.71 ANNUAL PHASE                       
#       T            LDETRENDED       SIG_OBS
     2015.00342        -2.03964         4.63465
     2015.00616        -9.02961         4.62942
     2015.00889        -6.86859         4.72886
     2015.01163        -3.77456         4.74369
     2015.01437        -4.90153         4.72276
     2015.01711        -2.96351         4.81261
     2015.01984         0.46652         4.69223
     2015.02258         0.04255         4.86233
     2015.02532         0.12257         4.71142
     2015.02806        -1.54440         4.72625
     2015.03080         2.00063         4.68438
     2015.03353        -3.30335         4.71927
     2015.03627         1.32368         4.68699
     2015.03901         2.52571         4.79516
     2015.04175         6.76773         4.70444
     2015.04449        -2.84424         4.72101
     2015.04722        -4.06922         4.82395
     2015.04996         1.21481         4.71927
     2015.05270        -2.31916         4.72886
     2015.05544        -4.39114         4.72974
     2015.05817         3.03989         4.71055
     2015.06091        -2.32108         4.72014
     2015.06365        10.58594         5.15107
     2015.06639         2.91597         4.71491
     2015.06913         2.50100         4.67740
     2015.07186        -0.68198         4.73410
     2015.07460        -1.89795         4.66431
     2015.07734        -9.14092         4.65908
     2015.08008        -7.59790         4.68263
     2015.08282        -3.40687         4.69310
     2015.08555        -0.91884         4.76027
     2015.08829         0.71418         4.74980
     2015.09103         6.45821         4.65908
     2015.09377         1.39123         4.66344
     2015.09650        -5.70274         4.77771
     2015.09924        -7.15771         4.84925
     2015.10198        -7.81469         4.75242
     2015.10472        -1.71266         4.73759
     2015.10746        -0.47663         4.74021
     2015.11019        -6.55561         4.78731
     2015.11293        -1.65158         4.80650
     2015.11567        -1.31855         4.82569
     2015.11841        -3.46353         4.72538
     2015.12115        -0.70050         4.75416
     2015.12388         0.76653         4.66519
     2015.12662        -2.24345         4.73584
     2015.12936        -2.29642         4.73235
     2015.13210         0.39561         4.74718
     2015.13483        -4.30837         4.79080
     2015.13757        -5.19134         4.73933
     2015.14031        -0.95232         4.73672
     2015.14305        -4.19029         4.67740
     2015.14579        -1.97226         4.66170
     2015.14852        -3.62324         4.71491
     2015.15126        -4.12821         4.65210
     2015.15400        -0.56018         4.68001
     2015.15674        -0.80516         4.69223
     2015.15948         1.83287         4.66082
     2015.16221        -1.30610         4.68699
     2015.16495         1.18792         4.65733
     2015.16769        -1.27505         4.68263
     2015.17043         0.60798         4.66431
     2015.17316         0.70600         4.77859
     2015.17590        -3.15597         4.80476
     2015.17864        -1.71994         4.66780
     2015.18138         1.79408         4.64687
     2015.18412         0.36011         4.65472
     2015.18685        -0.67187         4.66257
     2015.18959        12.22116         4.82395
     2015.19233        -5.17181         4.78644
     2015.19507        -2.12979         4.63989
     2015.19780        -4.72676         4.72712
     2015.20054        -6.22873         4.66955
     2015.20328        -5.60171         4.63116
     2015.20602        -1.05268         4.84139
     2015.20876        -3.11465         4.70793
     2015.21149        -8.08463         4.71316
     2015.21423        -1.60960         4.82482
     2015.21697        -5.98757         4.73497
     2015.21971        -0.93355         4.75416
     2015.22245         2.22648         4.70182
     2015.22518        -2.06649         4.65559
     2015.22792        -0.95647         4.65646
     2015.23066         2.75356         4.73148
     2015.23340         9.65858         4.86669
     2015.23613         4.67161         4.85535
     2015.23887         4.36364         4.89024
     2015.24161        -0.48934         4.88414
     2015.24435        -0.50031         4.90246
     2015.24709        -1.67328         4.78557
     2015.24982        -4.13826         4.68961
     2015.25256         2.29077         4.66693
     2015.25530        -1.59820         4.65559
     2015.25804        -6.03118         4.65646
     2015.26078         4.82685         4.68176
     2015.26351         2.02888         4.69135
     2015.26625         4.14590         4.66780
     2015.26899         2.32993         4.67565
     2015.27173         4.60496         4.77510
     2015.27572        10.35083        16.07954
     2015.27720         3.72901         4.65210
     2015.27994         2.39103         4.69921
     2015.28268        -5.25594         4.66606
     2015.28542        -4.46691         4.81348
     2015.28815        -6.92689         4.79778
     2015.29089         2.95714         4.73584
     2015.29363        -2.13383         4.72014
     2015.29637        -5.42381         4.69921
     2015.29911        -0.50678         4.71229
     2015.30184         4.29425         4.83442
     2015.30458         1.47227         4.66519
     2015.30732        -0.50670         4.64425
     2015.31006        -8.62767         4.62593
     2015.31279        -0.24665         4.62157
     2015.31553        -8.24062         4.55353
     2015.31827        -4.02259         4.55266
     2015.32101        -2.11657         4.71665
     2015.32375        -7.65754         4.58755
     2015.32648        -4.14552         4.66606
     2015.32922        -9.05649         4.67391
     2015.33196         3.80354         4.54917
     2015.33470        -1.92744         4.57097
     2015.33744        -3.35441         4.59976
     2015.34017        -7.37938         4.60151
     2015.34291        -7.21936         4.61285
     2015.34565        -1.64033         4.59365
     2015.34839        -4.12130         4.56574
     2015.35112        -1.77128         4.54219
     2015.35386        -3.30725         4.58319
     2015.35660        -4.37422         4.60238
     2015.35934        -6.00820         4.63989
     2015.36208        -2.54317         4.63116
     2015.36481        -3.17815         4.54742
     2015.36755        -1.56912         4.54132
     2015.37029         0.61091         4.54132
     2015.37303        -4.61307         4.55091
     2015.37577        -3.88704         4.56836
     2015.37850        -7.86301         4.70270
     2015.38124        -1.15299         4.52474
     2015.38398        -5.08096         4.58929
     2015.38672        -4.75993         4.54655
     2015.38945        -4.46891         4.54044
     2015.39219         0.92612         4.56923
     2015.39493        -0.60785         4.54480
     2015.39767        -4.58783         4.51253
     2015.40041        -0.28980         4.56661
     2015.40314        -4.10777         4.68874
     2015.40588        -3.52075         4.61023
     2015.40862         0.60928         4.70270
     2015.41136         2.47630         4.59017
     2015.41410         2.43833         4.65036
     2015.41683        -3.80964         4.57446
     2015.41957        -3.79662         4.59453
     2015.42231         1.60541         4.56836
     2015.42505        -3.47156         4.74195
     2015.42778         0.32346         4.54917
     2015.43052         0.09849         4.59802
     2015.85763         3.29062         4.68350
     2015.86031        -4.14244         4.91031
     2015.86310         4.33967         4.69484
     2015.86584        -0.74030         4.74108
     2015.86858        -3.73928         4.73323
     2015.87132         3.16875         4.68350
     2015.87405        -2.99922         4.70618
     2015.87679        -7.51220         4.76027
     2015.87953         1.15783         4.76725
     2015.88227         6.92586         4.70793
     2015.88501        -3.10812         4.66693
     2015.88774        -3.85709         4.69135
     2015.89048         3.48194         4.68089
     2015.89322         6.24596         4.69746
     2015.89596         7.77399         4.70182
     2015.89869         4.47002         4.67042
     2015.90143         0.86104         4.68263
     2015.90417        -3.25593         4.64861
     2015.90691        -1.91690         4.65472
     2015.90965         2.49412         4.66170
     2015.91238         6.06715         4.80388
     2015.91512         5.35317         4.72712
     2015.91786         3.94520         4.67740
     2015.92060        -4.64877         4.80214
     2015.92334         9.59825         4.65995
     2015.92607        -1.64272         4.70357
     2015.92881        -8.86669         4.74457
     2015.93155        -1.19067         5.04814
     2015.93429         1.59436         4.84663
     2015.93702        -3.22361         5.04465
     2015.93976         4.20541         4.87367
     2015.94250         6.80244         4.89024
     2015.94524         1.65247         4.77423
     2015.94798         5.14549         4.83093
     2015.95071         6.34052         4.64250
     2015.95345        -1.28746         4.63814
     2015.95619         3.74357         4.76289
     2015.95893         1.52960         4.90682
     2015.96167        -0.67838         4.93037
     2015.96440         5.91665         4.68699
     2015.96714         1.25768         4.69659
     2015.96988         4.39870         4.67304
     2015.97262         4.02273         4.69048
     2015.97535         7.23176         4.68438
     2015.97809         4.23278         4.67653
     2015.98083        -0.43719         4.67914
     2015.98357        -7.99816         4.67391
     2015.98631        -2.90714         4.79778
     2015.98904        -8.10611         4.70008
     2015.99178        -3.54508         4.67653
     2015.99452        -0.56806         4.79516
     2015.99726        -5.26603         4.68699
     2016.00000         0.08099         4.70182
     2016.00273         0.63102         4.71578
     2016.00547        -8.15195         4.70793
     2016.00821        -3.35993         4.71404
     2016.01095         2.49510         4.76027
     2016.01368         2.28513         4.75503
     2016.01642         0.08915         4.78731
     2016.01916        -3.76582         5.04465
     2016.02190         0.75921         4.81959
     2016.02464        -1.07577         4.76376
     2016.02737        -4.57474         4.69048
     2016.03011         0.47029         4.74108
     2016.03285        -3.86069         4.62942
     2016.03559        -5.36566         4.64687
     2016.03833        -0.86363         4.76637
     2016.04106        -1.58261         4.72799
     2016.04380        -2.21458         4.85012
     2016.04654         0.30144         4.63989
     2016.04928         1.09547         4.62855
     2016.05201        -3.19750         4.66082
     2016.05475        -8.82948         4.65908
     2016.05749        -8.29145         4.63465
     2016.06023        -1.81742         4.74369
     2016.06297        -2.36840         4.58929
     2016.06570        -6.52337         4.71055
     2016.06844        -2.08834         4.82133
     2016.07118        -5.30232         4.76812
     2016.07392        -2.93029         4.78382
     2016.07666         0.64374         4.86233
     2016.07939         1.93076         4.83965
     2016.08213        -1.72021         4.95392
     2016.08487        -2.64418         4.80040
     2016.08761        -4.32716         4.71665
     2016.09034        -8.88713         4.73497
     2016.09308        -0.56511         4.86146
     2016.09582       -11.58108         4.72625
     2016.09856       -17.15505         4.96178
     2016.10130       -12.89903         4.72450
     2016.10403        -7.18800         5.53140
     2016.10677        -9.21297         4.72363
     2016.10951        -7.16595         4.90507
     2016.11225        -4.80992         4.75329
     2016.11498       -11.79589         4.98707
     2016.11772       -11.90287         4.93386
     2016.12046       -10.49684         4.86844
     2016.12320        -8.41281         4.70618
     2016.12594        -5.95779         4.69746
     2016.12867         2.69724         4.69310
     2016.13141         5.50827         4.70793
     2016.13415        -3.63971         4.71840
     2016.13689        -5.93068         4.63291
     2016.13963        -3.19466         4.75329
     2016.14236        -7.05063         4.63989
     2016.14510        -7.31360         4.63465
     2016.14784        -6.48358         4.68176
     2016.15058        -6.78055         4.64687
     2016.15331        -1.64352         4.75591
     2016.15605        -3.24550         4.59714
     2016.15879       -10.85747         4.80912
     2016.16153        -7.56644         4.73846
     2016.16427        -7.71942         4.83180
     2016.16700       -12.50939         4.68612
     2016.16974       -18.96536         4.93473
     2016.17248        -6.15334         4.79603
     2016.17522        -2.32631         4.80563
     2016.17796        -0.23028         4.89286
     2016.18069         3.71474         4.74369
     2016.18343        -6.19723         4.82133
     2016.18617        -2.60321         4.66955
     2016.18891        -6.49918         4.69048
     2016.19164        -3.81415         4.69746
     2016.19438         3.15287         4.67129
     2016.19712        -3.37410         4.62506
     2016.19986        -1.29607         4.72276
     2016.20260        -7.61005         4.71316
     2016.20533        -5.90802         4.83354
     2016.20807        -4.48999         4.74631
     2016.21629        -0.47691         4.61634
     2016.21902        -0.57689         4.68263
     2016.22176        -5.69186         4.55876
     2016.22450        -5.88284         4.56574
     2016.22724       -11.53681         4.58144
     2016.22997        -5.55878         4.70095
     2016.23271        -5.47076         4.62331
     2016.23545        -8.13073         4.70531
     2016.23819        -4.21070         4.59802
     2016.24093        -2.25968         4.62419
     2016.24366        -7.59565         4.57359
     2016.24640        -0.41862         4.57534
     2016.24914        -2.72660         4.56574
     2016.25188        -0.33957         4.65646
     2016.25462        -2.91254         4.67129
     2016.25735       -11.63552         4.64250
     2016.26009       -10.18049         4.63814
     2016.26283        -9.33346         4.61023
     2016.26557        -0.93544         4.61634
     2016.26830        -2.56941         4.61982
     2016.27104        -3.59739         4.59453
     2016.27378        -3.28436         4.57621
     2016.27652        -4.16733         4.61895
     2016.27926        -2.74831         4.64425
     2016.28199        -7.72728         4.59627
     2016.28473        -2.25625         4.69310
     2016.28747       -11.81323         4.59627
     2016.29021        -9.91920         4.62331
     2016.29295        -6.69217         4.61895
     2016.29568        -0.83015         4.67827
     2016.29842        -2.69112         4.71578
     2016.30116        -7.25909         4.71491
     2016.30390        -5.36707         4.73061
     2016.30663        -1.68004         4.67391
     2016.30937        -2.38001         4.65123
     2016.31211        -4.94599         4.66955
     2016.31485        -3.64196         4.64250
     2016.31759        -2.71694         4.63029
     2016.32032        -1.40291         4.66780
     2016.32306        -9.94388         4.62244
     2016.32580        -5.87286         4.65297
     2016.32854        -5.68083         4.63204
     2016.33128        -8.12280         4.67740
     2016.33401        -0.01578         4.76986
     2016.33675        -0.52375         4.74282
     2016.33949        -2.66372         4.67478
     2016.34223        -3.21870         4.64948
     2016.34496        -4.01067         4.75678
     2016.34770        -7.06464         4.71055
     2016.35044        -0.45062         4.81348
     2016.35318        -2.73559         4.62593
     2016.35592       -11.07656         4.62157
     2016.35865       -12.09554         4.68438
     2016.36139        -5.37851         4.65733
     2016.36413        -6.29549         4.64774
     2016.36687         7.15154         4.68089
     2016.36961         5.12957         4.60761
     2016.37234         5.80459         4.61023
     2016.37508        -3.21638         4.62244
     2016.37782       -13.58035         4.65995
     2016.38056         1.03667         4.65123
     2016.38329         3.05470         4.59365
     2016.38603        -4.68127         4.60761
     2016.38877         9.14375         4.65908
     2016.39151        -1.14822         4.62157
     2016.39425        -3.78619         4.58493
     2016.39698         8.45083         4.73846
     2016.39972         7.40586         4.62331
     2016.40246       -11.12811         4.66257
     2016.40520        -0.92709         4.60674
     2016.40794       -10.20206         4.63116
     2016.41067        -9.51604         4.62419
     2016.41341        -5.00701         4.63727
     2016.41615        -5.17198         4.66344
     2016.41889         0.57704         4.67391
     2016.42162         3.52607         4.71142
     2016.42436        -4.37790         4.65733
     2016.42710         2.97612         4.64861
     2016.42984        -2.68985         4.70444
     2016.43258        -4.99782         4.61285
     2016.43531         2.41220         4.71840
     2016.43805         2.50923         4.65123
     2016.44079        -5.79274         4.65908
     2016.44353        -7.41772         4.57883
     2016.44626       -12.37069         4.63291
     2016.44900        -7.31166         4.62419
     2016.45174        14.18136         4.67827
     2016.45448        -1.98761         4.60587
     2016.45722         2.39541         4.62244
     2016.45995         8.27244         4.62070
     2016.46269        -0.94453         4.61285
     2016.46543        -3.88551         4.63553
     2016.46817         2.95652         4.68001
     2016.47091         1.56055         4.65472
     2016.47364        -2.22843         4.63291
     2016.47638         3.64460         4.62506
     2016.47912        -1.47237         4.75155
     2016.48186        -1.77935         4.63291
     2016.48459         4.55268         4.69746
     2016.48733         1.20271         4.58755
     2016.49007         4.53073         4.59714
     2016.49281         3.48476         4.63204
     2016.49555        -2.97921         4.69223
     2016.49828        -4.46219         4.68263
     2016.50102         0.89284         4.65559
     2016.50376         7.84086         4.79778
     2016.50650         6.00489         4.69310
     2016.50924         4.24692         4.62419
     2016.51197        -1.28306         4.64250
     2016.51471         1.70697         4.65821
     2016.51745        -2.82600         4.78208
     2016.52019         0.34702         4.71578
     2016.52292         2.52205         4.58057
     2016.52566         0.95208         4.55963
     2016.52840         1.93610         4.63291
     2016.53114         4.88213         4.64599
     2016.53388         2.00916         4.59889
     2016.53661         7.58518         4.63465
     2016.53935         3.73721         4.54829
     2016.54209         3.79123         4.58231
     2016.54483         8.06526         4.64948
     2016.54757         2.15629         4.61721
     2016.55030         1.06931         4.73061
     2016.55304         2.52034         4.59976
     2016.55578         6.72137         4.71927
     2016.55852         8.11239         4.64163
     2016.56125         7.97842         4.65036
     2016.56399         6.21045         4.61546
     2016.56673         5.04847         4.74806
     2016.56947        -0.27350         4.67740
     2016.57221         5.00453         4.56225
     2016.57494         6.52055         4.71142
     2016.57768        14.76258         4.62768
     2016.58042         8.43061         4.56661
     2016.58316         4.00063         4.56400
     2016.58590         6.61366         4.64948
     2016.58863         5.01868         4.59889
     2016.59137         8.74871         4.63029
     2016.59411        13.04774         4.74631
     2016.59685         9.91576         4.62855
     2016.59958         6.86779         4.62680
     2016.60232         2.53682         4.62157
     2016.60506         5.77784         4.62157
     2016.60780        11.57287         4.59191
     2016.61054         3.62090         4.57883
     2016.61327         7.95892         4.60238
     2016.61601        -0.48105         4.64861
     2016.61875         2.79498         4.67129
     2016.62149         2.81100         4.59802
     2016.62423         3.74403         4.68874
     2016.62696         8.44206         4.57359
     2016.62970         3.88608         4.63902
     2016.63244        -2.36489         4.68525
     2016.63518         4.55713         4.58231
     2016.63791        10.54516         4.68438
     2016.64065        18.65119         4.59017
     2016.64339         8.33321         4.58580
     2016.64613         3.70724         4.60325
     2016.64887         3.71527         4.59453
     2016.65160         8.07629         4.70270
     2016.65434         5.32232         4.67478
     2016.65708         7.74735         4.63465
     2016.65982        -0.30563         4.64861
     2016.66256        -0.65760         4.60761
     2016.66529         8.32843         4.71316
     2016.66803         1.07445         4.67914
     2016.67077        11.52148         4.79865
     2016.67351        10.28151         4.58493
     2016.67624         9.59053         4.56923
     2016.67898         9.44456         4.57446
     2016.68172        11.14358         4.59017
     2016.68446        12.96961         4.75591
     2016.68720         3.07164         4.86495
     2016.68993         7.76066         4.62244
     2016.69267         9.47269         4.60325
     2016.69541        10.57672         4.64512
     2016.69815         8.11674         4.57359
     2016.70089         9.09377         4.56749
     2016.70362         9.27780         4.70618
     2016.70636         4.50782         4.83180
     2016.70910         7.26985         4.82133
     2016.71184        11.18988         4.72189
     2016.71457         9.42490         4.68438
     2016.71731        12.48093         4.71316
     2016.72005         6.05996         4.56923
     2016.72182        10.85656         8.31499
     2016.76933         4.51143         4.64076
     2016.77207         6.72146         4.74195
     2016.77481         6.51448         4.58929
     2016.77754         6.32851         4.55266
     2016.78028         5.00054         4.59540
     2016.78302         3.62356         4.64163
     2016.78576        -9.66841         4.78295
     2016.78850        12.10362         4.65297
     2016.79123        10.24464         4.64250
     2016.79397        15.35567         4.60848
     2016.79671         1.58370         4.61459
     2016.79945        -1.57728         4.58319
     2016.80219         5.07075         4.73148
     2016.80492         5.38178         4.60936
     2016.80766         4.96380         4.61197
     2016.81040        -2.00917         4.69048
     2016.81314        -0.99615         4.66693
     2016.81587        -2.05012         4.72276
     2016.81861        -5.09909         4.63029
     2016.82135         0.98393         4.64250
     2016.82409         5.14196         4.56836
     2016.82683         8.13699         4.60412
     2016.82956         4.49901         4.55963
     2016.83230        10.21704         4.59714
     2016.83504         5.86707         4.60151
     2016.83778         0.98009         4.63727
     2016.84052        -2.12288         4.66344
     2016.84325         4.88715         4.61721
     2016.84599        -1.78683         4.66780
     2016.84873         6.86420         4.63902
     2016.85147         6.01323         4.65733
     2016.85420         4.30025         4.57185
     2016.85694         8.49428         4.68089
     2016.85968        -2.16670         4.75067
     2016.86242        11.95233         4.63989
     2016.86516         5.81736         4.79952
     2016.86789         5.50938         4.62593
     2016.87063        -2.19559         4.64250
     2016.87337         8.15644         4.65821
     2016.87611         5.88146         4.58755
     2016.87885         3.30649         4.54917
     2016.88158        -2.02648         4.63378
     2016.88432        -2.55046         4.63204
     2016.88706        -1.70843         4.61982
     2016.88980         7.60760         4.61982
     2016.89253         3.50862         4.58406
     2016.89527         6.91265         4.59365
     2016.89801        -4.41132         4.59802
     2016.90075        -6.67130         4.65210
     2016.90349         2.58173         4.74108
     2016.90622         4.54375         4.67042
     2016.90896         8.65078         4.58144
     2016.91227         4.51165         6.07050
     2016.91444         4.26383         4.68612
     2016.91718         1.26086         4.70357
     2016.91991        -5.26811         4.71316
     2016.92265         0.61291         4.63029
     2016.92539        -1.30806         4.58406
     2016.92813        -4.97103         4.60412
     2016.93086         0.28299         4.59104
     2016.93360        -4.54198         4.61546
     2016.93634         5.38705         4.58929
     2016.93908        -0.97293         4.68961
     2016.94182         2.05210         4.62942
     2016.94455        -3.05387         4.63989
     2016.94729        -0.85885         4.67129
     2016.95003        -1.32182         4.72625
     2016.95277         2.90220         4.69223
     2016.95551         5.64723         4.62419
     2016.95824         4.41926         4.64687
     2016.96098         3.01228         4.62855
     2016.96372        -0.74669         4.60499
     2016.96646        -0.09566         4.62855
     2016.96919        -0.93464         4.73410
     2016.97193        -2.58861         4.64338
     2016.97467         8.02642         4.73672
     2016.97741         6.32944         4.76550
     2016.98015         1.18247         4.61634
     2016.98288         4.36050         4.58755
     2016.98562         1.70552         4.60761
     2016.98836        -0.43645         4.63902
     2016.99110         6.19358         4.64250
     2016.99384         1.76160         4.62593
     2016.99657         4.02963         4.61982
     2016.99931         4.70965         4.64687
     2017.00205         1.43268         4.57534
     2017.00479        -0.20029         4.70357
     2017.00752        -2.06227         4.58406
     2017.01026        -7.40324         5.02894
     2017.01300         2.44679         4.57970
     2017.01574         0.59281         4.70095
     2017.01848         2.44084         4.70793
     2017.02087         1.11936         5.65876
     2017.02446         2.32665         6.29120
     2017.02669        -1.54308         4.66170
     2017.02943         8.47995         4.57272
     2017.03216        -0.82703         4.59714
     2017.03496        -1.30992         4.83267
     2017.03764        -6.40997         4.59104
     2017.04038        -5.13495         4.62855
     2017.04312        -3.62792         5.06471
     2017.04585        14.49810         6.22926
     2017.04859         0.48213         4.94171
     2017.05133         8.97516         5.95448
     2017.05407        11.57218         5.54100
     2017.05686        10.65829         4.80650
     2017.05954         3.12124         5.88120
     2017.06188         8.35668         5.79833
     2017.07323        -3.05863         6.91316
     2017.07591        -8.83669         4.98446
     2017.07802        -1.94558         6.90269
     2017.08139        -1.99264         5.23045
     2017.08458        -3.56194        23.01189
     2017.08629        33.16658       147.38863
     2017.09320        -2.66327         6.98905
     2017.09514        -2.51842         4.63465
     2017.09787        -2.54539         4.54393
     2017.10061        -4.58337         6.29556
     2017.10341         0.93574        12.69492
     2017.10882       -10.53129         4.92601
     2017.11156        -4.31126         4.97137
     2017.11419        -3.87140         4.81871
     2017.11704       -13.82521         4.98620
     2017.11978        -5.45918         6.71863
     2017.12234        -6.31241        13.11276
     2017.12588        37.35979        52.97271
     2017.14168        -7.28997         4.61285
     2017.14442       -11.15494         7.65377
     2017.14727       -23.95975        34.11918
     2017.14995       -43.55881        46.81498
     2017.16084        -3.15778         4.62244
     2017.16358        -9.36276         4.79778
     2017.16632        -6.79673         4.56661
     2017.16906       -11.00270         4.64948
     2017.17180        -6.10368         4.62506
     2017.17453         2.78335         4.64687
     2017.17727        -1.96163         4.67914
     2017.18001        -4.84760         4.57446
     2017.18275        -7.22857         4.59540
     2017.18548        -7.42555         4.60587
     2017.18822       -14.73252         4.71404
     2017.19096        -3.65849         4.71229
     2017.19370        -1.24047         4.62593
     2017.19644        -6.16044         4.63291
     2017.19917        -9.38241         4.60587
     2017.20191        -7.35039         4.60499
     2017.20465        -7.51736         4.80388
     2017.20739        -0.88033         4.63465
     2017.21013        -4.27131         4.64948
     2017.21286        -4.24928         4.59365
     2017.21560        -3.13725         4.59889
     2017.21834         3.33777         4.63204
     2017.22108         2.08280         4.68961
     2017.22381         0.52582         4.75242
     2017.22655        -5.07515         4.72712
     2017.22929       -11.02912         4.62244
     2017.23203        -2.65610         4.59714
     2017.23477        -0.32007         4.62070
     2017.23750        -8.08904         4.58929
     2017.24024        -7.46402         4.66519
     2017.24298        -9.82099         4.58842
     2017.24572        -6.29596         4.55614
     2017.24846        -6.91894         4.61285
     2017.25119        -4.11291         4.61634
     2017.25393        -6.84388         4.61546
     2017.25667        -5.17286         4.60674
     2017.25941       -12.70083         4.57795
     2017.26214        -6.97480         4.63116
     2017.26488         0.26422         4.68961
     2017.26762         2.58725         4.64948
     2017.27036        -3.67473         4.63727
     2017.27310        -0.72570         4.69048
     2017.27583        -6.65667         4.64076
     2017.27857       -13.91165         4.63291
     2017.28131        -6.98262         4.62157
     2017.28405       -10.14059         4.62768
     2017.28679       -12.74757         4.61285
     2017.28952        -4.57454         4.64250
     2017.29226        -5.75051         4.62593
     2017.29500        -8.17449         4.65646
     2017.29774        -4.68046         4.63204
     2017.30047       -14.34443         4.61721
     2017.30321        -7.62241         4.58755
     2017.30595        -8.40038         4.75155
     2017.30869        -9.71335         4.60587
     2017.31143        -3.54333         4.59802
     2017.31416        -4.08730         4.57446
     2017.31690         0.48072         4.65733
     2017.31964        -7.32625         4.67653
     2017.32238       -12.30722         4.69484
     2017.32512       -13.36220         4.58668
     2017.32785       -12.32517         4.62419
     2017.33059       -13.90014         4.59365
     2017.33333        -8.71312         4.56400
     2017.33607        -8.77009         4.62157
     2017.33880        -8.64006         4.62157
     2017.34154         6.47296         4.95567
     2017.34428       -15.85301         4.62768
     2017.34702       -12.27798         4.58144
     2017.34976        -8.12596         4.57097
     2017.35249        -6.73793         4.56225
     2017.35523        -7.24990         4.62506
     2017.35797        -8.45588         4.66867
     2017.36071       -12.43585         4.65733
     2017.36344        -6.48483         4.57272
     2017.36618       -12.52380         4.65036
     2017.36892        -5.79077         4.58493
     2017.37166        -5.10875         4.65210
     2017.37440        -9.87972         4.61110
     2017.37713        -4.72169         4.60761
     2017.37987       -14.65467         4.64425
     2017.38261        -7.55264         4.62942
     2017.38535        -6.68961         4.60412
     2017.38809        -9.01659         4.62419
     2017.39082        -5.73956         4.64076
     2017.39356        -4.49153         4.66693
     2017.39630        -4.79551         4.56487
     2017.39904        -5.81948         4.61197
     2017.40177        -6.84346         4.63640
     2017.40451        -8.25643         4.81522
     2017.40725        -1.84240         4.58144
     2017.40999        -5.30538         4.62070
     2017.41273        -5.24135         4.60587
     2017.41546        -7.06332         4.62593
     2017.41820       -11.13330         4.78469
     2017.42094        -1.99327         4.68001
     2017.42368        -6.82424         4.59365
     2017.42642        -9.09422         4.59278
     2017.42915        -5.96419         4.62855
     2017.43189         1.65984         4.69484
     2017.43463         0.05686         4.61197
     2017.43737        -4.32711         4.63989
     2017.44010         0.81392         4.58755
     2017.44284        -4.03706         4.61110
     2017.44558        -4.04803         4.64338
     2017.44832        -3.89501         4.65733
     2017.45106        -0.51198         4.63902
     2017.45379        -1.63495         4.72799
     2017.45653        -1.29593         4.83529
     2017.45927        -6.46990         4.72363
     2017.46201        -4.73787         4.64861
     2017.46475        -4.11785         4.62942
     2017.46748        -1.78182         4.71229
     2017.47022         0.91921         4.76376
     2017.47296        -8.96977         4.64250
     2017.47570        -9.53774         4.66519
     2017.47843       -10.29271         4.61634
     2017.48117        -1.85269         4.66344
     2017.48391         2.63234         4.75242
     2017.48665        -0.18263         4.64774
     2017.48939        -4.54361         4.62244
     2017.49212        -3.49858         4.61372
     2017.49486        -1.93356         4.68525
     2017.49760        -1.50753         4.69397
     2017.50034         2.80250         4.68089
     2017.50308        -0.84648         4.61459
     2017.50581        -3.34645         4.63291
     2017.50855        -5.62042         4.68525
     2017.51129        -4.68040         4.69659
     2017.51403         0.10963         4.75852
     2017.51676        -4.27334         4.61197
     2017.51950        -3.46432         4.62942
     2017.52224         3.88671         4.64076
     2017.52498         0.51074         4.62855
     2017.52772        -1.46424         4.78295
     2017.53045         1.16979         4.65036
     2017.53319        -6.77218         4.59976
     2017.53593        -0.43616         4.74282
     2017.53867        -1.65813         4.67129
     2017.54141         6.21889         4.59017
     2017.54414        -2.17608         4.59627
     2017.54688        -5.95605         4.73584
     2017.54962        -5.18103         4.64076
     2017.55236        -0.35000         4.63378
     2017.55509        -2.17397         4.64512
     2017.55783        -0.03295         4.61634
     2017.56057        -1.07692         4.64512
     2017.56331        -6.15989         4.61546
     2017.56605        -6.70987         4.66867
     2017.56878        -4.30684         4.60412
     2017.57152        -1.36881         4.61634
     2017.57426        -6.08779         4.62593
     2017.57700       -10.29876         4.61023
     2017.57974        -7.09373         4.61459
     2017.58247        -6.31271         4.60325
     2017.58521        -7.77468         4.62680
     2017.58795        -9.66666         4.67914
     2017.59069       -10.89963         4.69659
     2017.59342        -1.93460         4.59889
     2017.59616        -5.82658         4.63378
     2017.59890         0.25445         4.59714
     2017.60164        -2.31152         4.64338
     2017.60438        -5.54650         4.68001
     2017.60711        -4.39247         4.62331
     2017.60985         0.17356         4.77335
     2017.61253        -2.43350         4.77161
     2017.61516        -4.97564         5.09088
     2017.61772        -3.34887         5.47296
     2017.62023        -5.41118         6.07399
     2017.62354         1.51169         4.77248
     2017.62628        -2.15628         4.79167
     2017.62902        -1.06626         4.94520
     2017.63175        -6.04323         4.72101
     2017.63335         6.33612        10.96685
     2017.63723        -6.59318         4.66519
     2017.63997         0.12185         4.71142
     2017.64271        -2.72813         4.90595
     2017.64544         1.62990         4.69048
     2017.64818        -3.52707         4.72450
     2017.65092        -3.40005         4.63989
     2017.65366        -0.69002         4.58755
     2017.65639        -9.68799         4.66955
     2017.65913         1.01603         4.66519
     2017.66187         3.34006         4.73148
     2017.66461         3.29609         4.84488
     2017.66735        -3.86089         4.72014
     2017.67008         5.69414         4.61372
     2017.67282         3.70417         4.80825
     2017.67556         1.37919         4.61459
     2017.67830         3.10422         4.59540
     2017.68104         3.68724         4.65559
     2017.68377         5.71227         4.75329
     2017.68651         7.72430         4.91903
     2017.68925        10.01532         4.73323
     2017.69199         8.24235         4.63029
     2017.69472         5.97438         4.62331
     2017.69746         4.01640         4.76986
     2017.69963        12.31959         6.48223
     2017.70294         5.44346         4.92427
     2017.70568         2.17448         4.83005
     2017.70840         3.75949         4.62942
     2017.71115         2.43254         4.79778
     2017.71389         6.34156         4.72799
     2017.71663         7.66459         4.64512
     2017.71937        12.03461         4.70531
     2017.72210         7.37264         4.64338
     2017.72484         1.70867         4.62768
     2017.72758         2.91869         4.66519
     2017.73032         3.45072         4.67042
     2017.73305         3.39475         4.63553
     2017.73579         2.27977         4.62593
     2017.73853        -0.21020         4.65123
     2017.74127         2.30683         4.64338
     2017.74401        10.94585         4.87193
     2017.74674         0.80088         4.66780
     2017.74948         5.16891         4.68089
     2017.75222         1.68993         4.62768
     2017.75496         1.30696         4.83616
     2017.75770        -4.03801         4.75416
     2017.76043         1.39101         4.67740
     2017.76317         7.17204         4.70706
     2017.76591         6.88506         4.65821
     2017.76865         5.45009         4.61372
     2017.77138        -4.71388         4.61982
     2017.77412         5.55614         4.69484
     2017.77686         5.03017         4.61372
     2017.77960         5.70320         4.67391
     2017.78234         1.13322         4.60499
     2017.78507         0.63825         4.57621
     2017.78781         0.25628         4.59976
     2017.79055         4.57030         4.64338
     2017.79329        19.08333         4.79603
     2017.79597         2.69027         4.77423
     2017.79876         0.08538         4.68176
     2017.80150         6.48541         4.72974
     2017.80424         9.72744         4.61285
     2017.80698        -1.76554         4.80127
     2017.80971        -1.47951         4.65733
     2017.81245        -2.65049         4.60674
     2017.81519         4.56854         4.68089
     2017.81793        -3.74843         4.57708
     2017.82067         2.95159         4.70270
     2017.82340         5.39662         4.59278
     2017.82614         1.51865         4.58580
     2017.82888         2.21367         4.65733
     2017.83162         7.08870         4.61372
     2017.83436         1.89173         4.60761
     2017.83709         2.18875         4.72799
     2017.83983         1.08778         4.57534
     2017.84257         1.36581         4.53957
     2017.84531        -5.70917         4.59453
     2017.84804        -6.58814         4.57708
     2017.85078         1.13589         4.61197
     2017.85352         4.26991         4.65821
     2017.85626        -3.70406         4.71752
     2017.85900         2.17796         4.67565
     2017.86173         5.66599         4.68525
     2017.86447        -1.12198         4.92165
     2017.86603         6.86931        12.35210
     2017.90925         8.17687         8.45369
     2017.91102         7.64847         4.64774
     2017.91375         3.51849         4.70967
     2017.91649        -0.51348         4.61372
     2017.91923        -0.68145         4.61023
     2017.92197         3.99857         4.60499
     2017.92470         3.98260         4.58755
     2017.92744        -0.75837         4.62680
     2017.93018        -1.27735         4.60151
     2017.93292         1.11268         4.59714
     2017.93566        -0.73029         4.61285
     2017.93839         2.60773         4.62855
     2017.94113         0.13576         4.64774
     2017.94387         5.92179         4.65908
     2017.94661         4.99581         4.67827
     2017.94935         5.66684         4.58580
     2017.95208         4.05586         4.72974
     2017.95482         6.03489         4.68787
     2017.95756         1.70592         4.60499
     2017.96030         8.65994         4.59802
     2017.96303         2.83997         4.57883
     2017.96577        -1.83100         4.70967
     2017.96851         1.99002         4.59540
     2017.97125        -0.30095         4.62593
     2017.97399         1.29308         4.58580
     2017.97672         2.43810         4.58580
     2017.97946        -3.98787         4.55963
     2017.98220        -3.45984         4.54393
     2017.98494        -1.76382         4.55614
     2017.98767        -4.06579         4.58406
     2017.99041        -0.10476         4.59453
     2017.99315         3.59726         4.59540
     2017.99589        -7.47771         4.64599
     2017.99863        -1.02869         4.57097
     2018.00136        -3.98566         4.57185
     2018.00410        -3.75663         4.59540
     2018.00684         1.29739         4.59365
     2018.00958        -2.11158         4.58406
     2018.01232        -5.25755         4.60936
     2018.01505        -0.88053         4.58231
     2018.01779         2.52750         4.57359
     2018.02053         0.57253         4.63814
     2018.02327         1.49255         4.59365
     2018.02600         4.60058         4.60499
     2018.02874         0.02861         4.58319
     2018.03148        -0.63237         4.68612
     2018.03422        -4.74434         4.59889
     2018.03696        -7.10832         4.56923
     2018.03969         4.68571         4.67129
     2018.04243        -5.49226         4.62768
     2018.04517        -5.77724         4.65646
     2018.04791        -5.42421         4.74108
     2018.05065         1.37982         4.61634
     2018.05338         0.84884         4.60848
     2018.05612        -5.72713         4.63553
     2018.05886        -7.40910         4.63029
     2018.06160        -2.42908         4.56923
     2018.06433        -5.76605         4.73672
     2018.06707        -1.51602         4.68612
     2018.06981        -5.64500         4.65646
     2018.07255       -10.80597         4.71055
     2018.07529       -11.10494         4.68525
     2018.07802       -15.06092         4.78208
     2018.08076       -12.97189         4.69659
     2018.08350       -10.86787         4.67304
     2018.08624        -2.79884         4.65123
     2018.08898         3.01919         4.80040
     2018.09171        -4.23179         4.67914
     2018.09445        -1.02376         4.72538
     2018.09719        -7.64173         4.79080
     2018.09993         0.95829         4.66867
     2018.10266        -8.54068         4.70706
     2018.10540        -2.85165         4.82831
     2018.10814        -3.68063         4.68001
     2018.11088        -5.01960         4.65210
     2018.11362        -1.94657         4.66955
     2018.11635        -3.20655         4.63204
     2018.11909        -5.86052         4.84837
     2018.12183         1.27551         4.75067
     2018.12457        -4.85547         4.67740
     2018.12731        -5.42344         4.63116
     2018.13004         0.41358         4.65733
     2018.13278         3.52461         4.69223
     2018.13552         3.78064         4.64163
     2018.13826        -2.48834         4.65559
     2018.14099        -3.03031         4.65821
     2018.14373        -2.26228         4.61721
     2018.14647         2.31074         4.87716
     2018.14921        -1.97123         4.79691
     2018.15195        -3.98620         4.70793
     2018.15468         0.09582         4.67740
     2018.15742        -0.16315         4.63989
     2018.16016       -15.59912         4.65908
     2018.16290        -5.95110         4.75765
     2018.16564        -1.42107         4.89461
     2018.16837        -4.78704         4.66519
     2018.17111        -2.86102         4.64512
     2018.17265        13.38825        14.21276
     2018.19849         0.82025         4.69310
     2018.20123         4.25827         4.72625
     2018.20397         7.48030         4.63029
     2018.20670         0.05033         4.63814
     2018.20944         3.53935         4.65995
     2018.21218        -1.65962         4.64512
     2018.21492       -14.79759         4.66082
     2018.21765        -0.08957         4.58406
     2018.22039         0.90046         4.58406
     2018.22313        -3.34752         4.60151
     2018.22587        -2.51449         4.55963
     2018.22861        -1.90246         4.57708
     2018.23134        -7.03544         4.56400
     2018.23408        -6.84641         4.60587
     2018.23682        -3.67638         4.55527
     2018.23956        -4.35036         4.56661
     2018.24230        -2.97933         4.56661
     2018.24503        -3.78230         4.58231
     2018.24777       -11.66528         4.64687
     2018.25051       -10.15225         4.54829
     2018.25325         0.82678         4.58668
     2018.25598        -1.33120         4.55091
     2018.25872        -2.33917         4.71229
     2018.26146        -2.11514         4.73933
     2018.26420        -5.52812         4.63640
     2018.26694        -6.92609         4.54655
     2018.26967        -4.13307         4.55527
     2018.27241        -7.40304         4.64163
     2018.27515         4.34299         4.61023
     2018.27789         2.90001         4.68612
     2018.28062        -7.71996         4.71491
     2018.28336       -11.44693         4.54219
     2018.28610        -2.61791         4.56138
     2018.28884         0.46012         4.52649
     2018.29158         2.38115         4.74108
     2018.29431        -9.34983         4.57795
     2018.29705        -5.84480         4.50032
     2018.29979        -5.16677         4.55091
     2018.30253        -4.31575         4.61285
     2018.30527        -6.45572         4.53521
     2018.30800        -4.45970         4.52910
     2018.31074        -1.93067         4.56487
     2018.31348        -4.47764         4.54568
     2018.31622        -3.11262         4.54480
     2018.31895         0.53741         4.79952
     2018.32169        -2.17856         4.57621
     2018.32443        -3.70554         4.55178
     2018.32717        -2.56651         4.56138
     2018.32991        -1.41048         4.70531
     2018.33264        -1.55046         4.54480
     2018.33538        -8.20743         4.73323
     2018.33812        -7.69340         4.69572
     2018.34086        -1.28738         4.55789
     2018.34360        -3.34735         4.59802
     2018.34633        -2.41132         4.54655
     2018.34889        -4.43956         4.78906
     2018.35181        -7.19727         4.78644
     2018.35455        -5.82025         4.62419
     2018.35728         2.79778         4.62680
     2018.36002        -2.42919         4.52387
     2018.36276        -3.00817         4.61808
     2018.36550         0.99386         4.59540
     2018.36824        -3.56011         4.56836
     2018.37097        -2.04109         4.57970
     2018.37371        -1.28306         4.54393
     2018.37645        -0.01703         4.71229
     2018.37919         0.76699         4.61895
     2018.38193        -2.85898         4.58057
     2018.38466         2.96805         4.51427
     2018.38740         0.99207         4.54044
     2018.39014         0.50110         4.55353
     2018.39288        -3.80387         4.66170
     2018.39561         3.23415         4.56487
     2018.39835         6.59418         4.56836
     2018.40109         2.86720         4.53608
     2018.40383         0.72923         4.60325
     2018.40657        -1.16274         4.75155
     2018.40930         7.63328         4.72450
     2018.41204        10.11331         4.73497
     2018.41478         1.65734         4.54480
     2018.42299         0.19842         4.60238
     2018.42573         4.17344         4.59540
     2018.42847         2.96847         4.55876
     2018.43121         6.00150         4.53695
     2018.43394         3.74752         4.58842
     2018.43668         3.33455         4.63553
     2018.43942         7.32058         4.61197
     2018.44216         4.76160         4.52212
     2018.44490         3.86663         4.51863
     2018.44763         0.09865         4.73235
     2018.45037        -0.72432         4.57010
     2018.45311         1.32871         4.57097
     2018.45585         4.89073         4.57970
     2018.45859         4.65576         4.63116
     2018.46132        -0.85621         4.56400
     2018.46406         2.34081         4.60063
     2018.46680         4.02184         4.63116
     2018.46954         5.32687         4.63378
     2018.47227         4.24089         4.64687
     2018.47501         7.02492         4.51340
     2018.47775         2.81195         4.57272
     2018.48049         9.30897         4.79603
     2018.48323         4.94200         4.56661
     2018.48596         0.98403         4.53434
     2018.48870         3.23605         4.57272
     2018.49144         4.50708         4.53434
     2018.49418         7.01610         4.68699
     2018.49692         2.74813         4.61895
     2018.49965         7.16816         4.53434
     2018.50239         0.70918         4.57272
     2018.50513         5.43421         4.61372
     2018.50787         4.79724         4.58668
     2018.51060         6.58926         4.79952
     2018.51334        10.71129         4.63029
     2018.51608         5.64532         4.62768
     2018.51882         2.51034         4.60848
     2018.52156         5.76237         4.61721
     2018.52429        -1.29760         4.59976
     2018.52703         3.98442         4.54568
     2018.52977         0.62245         4.55091
     2018.53251         6.82248         4.59976
     2018.53525         6.21450         4.55353
     2018.53798         2.05253         4.59453
     2018.54072         4.78455         4.61372
     2018.54346         1.59958         4.69048
     2018.54620         4.14561         4.53434
     2018.54893         1.90763         4.55876
     2018.55167         3.21466         4.58231
     2018.55441        -0.66131         4.58231
     2018.55715        -3.84429         4.54742
     2018.55989        -1.74926         4.66606
     2018.56262         2.54077         4.56749
     2018.56536         1.21579         4.60936
     2018.56804         3.53274         4.65036
     2018.57089         2.08493         4.82831
     2018.57357        -0.84413         4.65646
     2018.57631        -0.52210         4.76725
     2018.57905        -1.31007         4.79254
     2018.58179         1.57295         4.71840
     2018.58450         0.21394         4.75852
     2018.58726         0.73400         4.54393
     2018.59000        -2.86597         4.52212
     2018.59274         1.01706         4.57883
     2018.59548         0.70108         4.61895
     2018.59822         1.59011         4.57010
     2018.60095         3.94514         4.77161
     2018.60369         3.46816         4.65036
     2018.60643         0.88119         4.61721
     2018.60917         8.01722         4.70967
     2018.61190         4.19024         4.57621
     2018.61464         1.18627         4.54480
     2018.61738         1.22730         4.55266
     2018.62012         3.23832         4.54917
     2018.62286         2.87335         4.64861
     2018.62559        -3.19663         4.67478
     2018.62833         4.11040         4.56138
     2018.63107         6.39343         4.55353
     2018.63381         0.28645         4.72014
     2018.63655         8.08648         4.58144
     2018.63928         6.22451         4.77161
     2018.64202         8.08153         4.92514
     2018.64476         6.84456         4.56836
     2018.64750         1.15359         4.54219
     2018.65023         8.46761         4.68612
     2018.65297         9.26764         4.56312
     2018.65571         6.22167         4.57010
     2018.65845         7.38969         4.57185
     2018.66119        12.28972         4.56574
     2018.66392         4.27375         4.59191
     2018.66666         8.13077         4.57883
     2018.66940        -0.79720         4.56836
     2018.67214         3.02682         4.53957
     2018.67488         3.59485         4.57097
     2018.67761        -1.37912         4.55091
     2018.68035         0.19490         4.60587
     2018.68309        -8.62507         4.64861
     2018.68583         5.35496         4.66955
     2018.68856         8.72098         4.58319
     2018.69130         6.02401         4.73497
     2018.69404         3.83704         4.73933
     2018.69678         9.06506         4.59365
     2018.69952         3.55309         4.57097
     2018.70225         0.60612         4.71840
     2018.70499        -2.77386         4.67565
     2018.70773         3.20417         4.69135
     2018.71047         0.36120         4.61634
     2018.71321         1.08122         4.58057
     2018.71594         3.32025         4.53870
     2018.71868        -4.06173         4.56400
     2018.72142         2.79530         4.60063
     2018.72416         3.09733         4.85448
     2018.72689         3.18535         4.67391
     2018.72963         2.69638         4.57708
     2018.73237        -3.69359         4.55004
     2018.73511        -2.59057         4.57272
     2018.73785         1.42446         4.65123
     2018.74058         2.90649         4.53695
     2018.74332         7.19351         4.54480
     2018.74606         1.19354         4.55353
     2018.74880         5.74957         4.61285
     2018.75154         6.21559         4.68438
     2018.75427         4.36862         4.53870
     2018.75701         3.86465         4.65385
     2018.75975         0.68567         4.59191
     2018.76249         3.75370         4.55702
     2018.76522        -1.63528         4.72538
     2018.76796         3.71975         4.55614
     2018.77070         6.42178         4.59191
     2018.77344         4.02980         4.57446
     2018.77618         1.83183         4.56574
     2018.77891         7.47086         4.59714
     2018.78165         1.38688         4.61459
     2018.78439         3.41691         4.54480
     2018.78713        -2.97806         4.56400
     2018.78987        -8.99304         4.61982
     2018.79260         0.40899         4.55091
     2018.79534         7.95902         4.54917
     2018.79808         3.27804         4.53783
     2018.80082         1.33907         4.53521
     2018.80355         2.50710         4.54393
     2018.80629         6.76812         4.68438
     2018.80903         2.92915         4.66606
     2018.81177         7.11917         4.79691
     2018.81451         4.59220         4.74457
     2018.81724        -2.26577         4.72014
     2018.81998         6.84525         4.62680
     2018.82272         1.97428         4.64599
     2018.82546         6.48431         5.06907
     2018.82820         5.58833         4.58144
     2018.83093         7.79336         4.76201
     2018.83367         2.16039         4.76637
     2018.83641         9.26741         4.80476
     2018.83915         5.89544         4.57446
     2018.84188         7.08147         4.74631
     2018.84462        12.51049         4.54568
     2018.84736         0.40152         4.56051
     2018.85010         1.90855         4.56312
     2018.85284         0.78057         4.56749
     2018.85569         0.26277         4.86582
     2018.85831        -0.21838         4.56225
     2018.86105        -0.73135         4.54219
     2018.86379        -2.82332         4.64076
     2018.86653         4.70070         4.61023
     2018.86926         1.23373         4.72625
     2018.87200         2.68276         4.59976
     2018.87474         4.05378         4.66955
     2018.87748         0.12581         4.63553
     2018.88021         1.73184         4.64948
     2018.88295         3.09686         4.67914
     2018.88569         5.71389         4.64774
     2018.88843         7.06492         4.67827
     2018.89117         2.63494         4.82569
     2018.89390         0.33397         4.88239
     2018.89664        -0.24601         4.80563
     2018.89938         1.84202         4.68438
     2018.90212        -0.45895         4.71055
     2018.90485         0.23807         4.83442
     2018.90759         5.35110         4.66082
     2018.91033         5.46813         4.64338
     2018.91307         6.32915         4.72538
     2018.91581         6.83518         4.62157
     2018.91854        11.70021         4.74980
     2018.92128         3.48223         4.58929
     2018.92402         6.22026         4.72101
     2018.92676         5.01029         4.64687
     2018.92950        10.87431         4.65297
     2018.93223         4.56334         4.77946
     2018.93497         2.65937         4.63029
     2018.93771         0.48839         4.62768
     2018.94045         8.70442         4.66170
     2018.94318         1.72944         4.54219
     2018.94592         5.98047         4.59104
     2018.94866         1.24350         4.60587
     2018.95140         9.35452         4.68961
     2018.95414        11.43155         4.76376
     2018.95687         2.70958         4.61895
     2018.95961         2.88560         4.62855
     2018.96235         1.65963         4.65646
     2018.96509         6.55866         4.70008
     2018.96783        -1.23132         4.88414
     2018.97056        11.64571         4.62942
     2018.97330         4.73174         4.58057
     2018.97604        -3.08624         4.78557
     2018.97878         3.19579         4.60151
     2018.98151        -5.12018         4.59889
     2018.98425         6.09384         4.77161
     2018.98699        -1.85613         4.94520
     2018.98973         0.08789         4.78382
     2018.99247         5.38092         4.65821
     2018.99520        -1.48505         4.64512
     2018.99794        -4.18403         5.46685
     2018.99971        -9.51843         8.88461
     2019.00427        -3.94871         7.42609
     2019.00616        -2.39695         4.65646
     2019.00889        -2.05792         4.77946
     2019.01163         6.27811         4.70706
     2019.01437         6.57013         4.80999
     2019.01711         7.58916         4.64774
     2019.01984        -6.32081         4.79516
     2019.02258        -4.87179         4.68263
     2019.02532        -2.72076         4.89112
     2019.02806         4.08927         4.92950
     2019.03080         0.85029         4.65559
     2019.03353        -3.92168         4.54829
     2019.03627       -10.95466         4.51863
     2019.03901         5.43037         4.59889
     2019.04175        -0.83860         4.55440
     2019.04449         1.99242         4.64687
     2019.04722        -4.00355         4.66693
     2019.04996        -7.40752         4.72886
     2019.05270        -7.69850         4.72189
     2019.05544        -2.40647         4.62244
     2019.05817        -7.55144         4.74369
     2019.06091        -4.09742         4.66693
     2019.06365        -4.66639         4.65559
     2019.06639         2.15064         4.69223
     2019.06913        -1.58434         4.68350
     2019.07186        -5.33631         4.82657
     2019.07460        -1.63728         4.56225
     2019.07734        -0.04626         4.55266
     2019.08008         3.03977         4.54742
     2019.08282         4.23479         4.69135
     2019.08555         0.03782         4.61895
     2019.08829         3.14785         4.58406
     2019.09103         6.43087         4.65297
     2019.09377         6.40290         4.52649
     2019.09650        16.10093         4.54568
     2019.09924         1.96495         4.55004
     2019.10198        -0.29902         4.52212
     2019.10472         1.29301         4.55527
     2019.10746         3.56703         4.56312
     2019.11019         3.02106         4.56923
     2019.11293         4.77009         4.62855
     2019.11567         6.85311         4.90856
     2019.12115        15.62817         4.83093
     2019.12388        15.77619         4.71578
     2019.12662         4.83022         4.57883
     2019.12936         1.29624         4.54568
     2019.13210         0.38227         4.57272
     2019.13483        -5.47970         4.58580
     2019.13757         0.50832         4.63465
     2019.14031         1.76435         4.82308
     2019.14305        -0.73462         4.59540
     2019.14579       -10.79160         4.54655
     2019.14852        -0.57457         4.58668
     2019.15126         0.22146         4.70095
     2019.15400        -4.62752         4.53870
     2019.15674         3.90951         4.56138
     2019.15948        -1.43946         4.52998
     2019.16221        -5.12644         4.59540
     2019.16495        -1.02541         4.53085
     2019.16769       -11.11338         4.53695
     2019.17043        -6.01536         4.53521
     2019.17316        -2.73133         4.54568
     2019.17590        -0.75031         4.56051
     2019.17864        -1.13728         4.53783
     2019.18138        -3.49025         4.56138
     2019.18406       -13.77631         4.65559
     2019.18663        -5.81454         5.05424
     2019.18931        -3.65659         5.19120
     2019.19187        -7.83882         5.70848
     2019.19507        -1.81012         4.63116
     2019.19780        -9.21809         4.63465
     2019.20054        -5.17607         4.66257
     2019.20328       -14.29004         4.56400
     2019.20602       -10.85601         4.57970
     2019.20876       -10.67799         4.57010
     2019.21149        -6.91896         4.58755
     2019.21423        -5.60394         4.61285
     2019.21697        -4.06691         4.53695
     2019.21971        -2.84788         4.81610
     2019.22245        -5.21586         4.53695
     2019.22518        -4.10883         4.52649
     2019.22792        -3.47880         4.66431
     2019.23066        -4.61478         4.65646
     2019.23340        -4.01875         4.52823
     2019.23613       -10.24472         4.67565
     2019.23887       -10.37270         4.67827
     2019.24161       -13.33467         4.68699
     2019.24435       -11.39464         4.63814
     2019.24709        -8.41462         4.65297
     2019.24982        -2.46059         4.62157
     2019.25256        -0.30256         4.69135
     2019.25530        -4.98154         4.57097
     2019.25804        -6.23051         4.58057
     2019.26078        -4.77249         4.58580
     2019.26351        -7.76546         4.65908
     2019.26625        -8.91543         4.59453
     2019.26899       -11.75641         4.63553
     2019.27173        -2.53638         4.75503
     2019.27446       -10.83835         4.51602
     2019.27720        -3.16233         4.64250
     2019.27994        -1.10530         4.58755
     2019.28268         0.58973         4.59802
     2019.28542        -1.65425         4.51863
     2019.28815        -1.62422         4.58493
     2019.29089        -3.37619         4.53957
     2019.29363         1.63983         4.62768
     2019.29637        -2.77214         4.65646
     2019.29911        -0.96011         4.53870
     2019.30179        -6.72217         4.56923
     2019.30458       -11.39706         4.56400
     2019.30732        -2.77604         4.69921
     2019.31006         0.12899         4.60848
     2019.31279        -8.55598         4.60499
     2019.31553         3.68104         4.54568
     2019.31827        -5.26893         4.60936
     2019.32101        -8.12890         4.57708
     2019.32375       -15.74288         4.59540
     2019.32648       -12.47485         4.60238
     2019.32922        -4.26482         4.58580
     2019.33196        -6.77580         4.66257
     2019.33470        -2.25277         4.65559
     2019.33744        -5.84574         4.58493
     2019.34017        -9.81872         4.56051
     2019.34291        -4.76369         4.57534
     2019.34565         0.12134         4.63116
     2019.34839        -5.42464         4.61982
     2019.35112        -5.30861         4.61110
     2019.35386       -10.45959         4.61634
     2019.35660        -4.32256         4.68350
     2019.35934        -0.84353         4.63378
     2019.36208        -4.63151         4.55789
     2019.36481         0.20352         4.73061
     2019.36755        -3.60145         4.64948
     2019.37029        -5.78143         4.61895
     2019.37303         1.37860         4.59714
     2019.37577         2.45463         4.67827
     2019.37850         2.03965         4.61634
     2019.38124        -1.10832         4.56923
     2019.38398        -1.30829         4.61110
     2019.38672        -1.16827         4.65472
     2019.39219         2.70679         5.74338
     2019.39499        -3.31010         4.58406
     2019.39767        -4.36716         4.57883
     2019.40041        -3.34214         4.59453
     2019.40314         2.66289         4.59802
     2019.40588         6.30692         4.58319
     2019.40862         0.53894         4.55963
     2019.41136         2.08797         4.54917
     2019.41410        -1.84000         4.61808
     2019.41683        -3.75998         4.58842
     2019.41957         2.61705         4.65123
     2019.42231        -1.76392         4.56051
     2019.42505         2.20910         4.64599
     2019.42778         4.55713         4.78120
     2019.43052         1.19216         4.61110
     2019.43326        -1.84382         4.58406
     2019.43600        -5.36879         4.58842
     2019.43874        -9.14376         4.65821
     2019.44147        -8.28374         4.70008
     2019.44421        -4.64471         4.68961
     2019.44695        -4.41069         4.72799
     2019.44969        -0.72966         4.70357
     2019.45243        -0.24263         4.65908
     2019.45516        -4.21061         4.66606
     2019.45790        -4.73558         4.72625
     2019.46064        -2.98955         4.68874
     2019.46338        -2.03253         4.87280
     2019.46611         1.62650         4.87018
     2019.46885         1.72853         4.96788
     2019.47159         1.96755         4.68525
     2019.47433        -0.79742         4.66170
     2019.47707         0.25361         4.65733
     2019.47980        -0.74437         4.70008
     2019.48254         0.53766         4.72625
     2019.48528         0.67668         4.70880
     2019.48802        -7.21229         4.88327
     2019.49076         0.23174         4.55876
     2019.49349        -0.92824         4.57359
     2019.49623         0.89879         4.68874
     2019.49897         0.57582         4.62506
     2019.50171        -0.33716         6.73085
     2019.50444         3.67487         5.84544
     2019.50713        -1.76419         4.65036
     2019.50969         3.30659         5.05511
     2019.51237        -3.13347         5.10047
     2019.51540        -1.23902         4.58144
     2019.51813        -2.94300         4.61459
     2019.52087        -0.00997         4.56574
     2019.52361        -3.60894         4.85797
     2019.52635        -0.09892         4.60674
     2019.52908        -6.22889         4.80388
     2019.53182        -7.96687         4.68263
     2019.53456        -5.61184         4.93037
     2019.53730        -1.31581         4.73584
     2019.54004         8.52221         4.75678
     2019.54277         2.31724         4.82569
     2019.54551         3.43427         4.88414
     2019.54825         0.02929         4.60761
     2019.55099        -1.15568         4.66170
     2019.55373         2.24435         4.72276
     2019.55646         5.83537         4.72974
     2019.55920        -5.96360         4.85186
     2019.56194        -1.12757         4.58493
     2019.56468        -7.43155         4.71840
     2019.56741        12.74948         4.71316
     2019.57015        -0.91449         4.55789
     2019.57289        -6.57547         4.69397
     2019.57563        -2.29244         4.59017
     2019.57837        -1.92842         4.66867
     2019.58110         2.42661         4.67565
     2019.58384         3.33664         5.10047
     2019.58658        -0.59334         4.80476
     2019.58932         2.39869         4.59889
     2019.59206         2.09672         4.63640
     2019.59479         0.86474         4.56923
     2019.59753         6.66977         4.76986
     2019.60027        -2.78520         4.73061
     2019.60301         2.66682         4.60325
     2019.60574         9.51185         4.91467
     2019.60848         4.35788         4.77423
     2019.61122        -1.00810         4.57708
     2019.61396        -0.46807         4.74108
     2019.61670        -0.47604         4.59453
     2019.61818        12.42614        15.59452
     2019.62211        11.02092         4.81261
     2019.62491         9.26103         4.57621
     2019.62765         5.30306         4.61023
     2019.63039         9.53409         4.59714
     2019.63312         0.01311         4.58057
     2019.63586         7.52714         4.91380
     2019.63860         5.49117         4.76725
     2019.64134         1.53619         4.82657
     2019.64407         3.33822         4.70531
     2019.64681         1.40725         4.73061
     2019.64955         1.18527         4.76114
     2019.65229         9.30030         4.61459
     2019.65503        -0.41167         4.69223
     2019.65776        -3.36665         4.71665
     2019.66050         6.37338         4.65733
     2019.66324         0.45241         4.69572
     2019.66598         3.74343         4.68176
     2019.66872         4.96846         4.61110
     2019.67145        -4.36952         4.80476
     2019.67419         3.12451         4.57883
     2019.67693         2.67054         4.70182
     2019.67967         1.45256         4.71665
     2019.68240         3.99659         4.66257
     2019.68514         1.99462         4.75940
     2019.68788         3.15564         4.64425
     2019.69062         5.24467         4.68001
     2019.69336         4.40870         4.70706
     2019.69609         8.42272         4.64687
     2019.69883         7.75275         4.94433
     2019.70157        -7.32922         4.70444
     2019.70431         7.46680         4.67478
     2019.70705         5.08183         4.60063
     2019.70978         5.52686         4.78644
     2019.71252        -5.94212         4.64163
     2019.71526         5.34391         4.56574
     2019.71800         3.52993         4.70270
     2019.72073         2.77096         4.73846
     2019.72347         4.80699         4.57621
     2019.72621         2.23101         4.75329
     2019.72895         6.50804         4.63029
     2019.73169         5.26207         4.58755
     2019.73442        18.62609         4.81610
     2019.73716         6.15712         4.65733
     2019.73990         6.91715         4.79254
     2019.74264         4.31217         4.63814
     2019.74538         2.78320         4.54480
     2019.74811         2.71323         4.63989
     2019.75085         7.02625         4.76201
     2019.75359         7.18428         4.88065
     2019.75633         7.17131         4.67914
     2019.75906         6.79033         4.57446
     2019.76180        -1.24764         4.55266
     2019.76454         4.11038         4.68787
     2019.76728        -2.25959         4.76376
     2019.77002         1.21044         4.67653
     2019.77275         0.76246         4.78993
     2019.77549         3.35549         4.66257
     2019.77823         4.46852         4.65385
     2019.78097         8.83454         4.66606
     2019.78371         1.59057         4.64599
     2019.78644         3.95460         4.75503
     2019.78918         7.71762         4.86582
     2019.79192         9.28865         4.74108
     2019.79466        12.10668         4.67304
     2019.79739         4.89370         4.62593
     2019.80013         6.85573         4.67914
     2019.80287         2.50075         4.73933
     2019.80561         1.16378         4.91205
     2019.80835         1.93581         4.61721
     2019.81108         4.54683         4.70531
     2019.81382        12.19286         4.86931
     2019.81656         4.53889         4.70444
     2019.81930         4.03991         4.64425
     2019.82203         3.72394         4.66431
     2019.82477         2.44497         4.65821
     2019.82751        -1.94601         4.66431
     2019.83025         3.85302         4.79778
     2019.83299         7.26205         4.77510
     2019.83572         4.84807         4.68263
     2019.83846         3.97510         4.66170
     2019.84120         4.90013         4.80563
     2019.84394         3.19715         4.78731
     2019.84668         0.68418         4.66955
     2019.84941         3.01720         4.65036
     2019.85215         4.24523         4.64512
     2019.85489         5.58726         4.74108
     2019.85763         1.88228         4.69572
     2019.86036         4.29931         4.87542
     2019.86310         4.11634         4.69048
     2019.86584         9.69436         4.75242
     2019.86858         9.20839         4.64774
     2019.87132        -5.42858         4.87803
     2019.87405         7.45544         4.86407
     2019.87679        12.33547         4.87978
     2019.87953        13.03150         4.71578
     2019.88227        15.00852         4.70967
     2019.88501         9.92455         4.63116
     2019.88774         8.57058         4.78906
     2019.89048        12.42360         4.59976
     2019.89322        16.47763         4.74021
     2019.89596         5.42665         4.72799
     2019.89869        10.35268         4.64948
     2019.90143        13.45771         4.61459
     2019.90417        11.59573         4.65559
     2019.90691         9.97476         4.64076
     2019.90965         6.29479         4.66519
     2019.91238         3.40381         4.61285
     2019.91512        14.77584         4.65821
     2019.91786        15.11387         4.60412
     2019.92060        15.55989         4.66519
     2019.92334        14.91892         4.70444
     2019.92607         5.00295         4.66519
     2019.92881         7.32897         4.66170
     2019.93155         5.96400         4.59976
     2019.93429         9.43803         4.62157
     2019.93702         5.29205         4.68874
     2019.93976         3.70008         4.66257
     2019.94250        -0.79590         4.65472
     2019.94524        -4.39287         4.75155
     2019.94798        -3.54184         4.63029
     2019.95071         5.55618         4.87454
     2019.95345         9.03221         4.65210
     2019.95619         7.83524         4.69310
     2019.95893         2.96326         4.69135
     2019.96167         8.22829         4.64774
     2019.96440         6.12332         4.76376
     2019.96714       -11.93466         4.89548
     2019.96988        -7.30063         4.67740
     2019.97262         1.11240         4.79254
     2019.97535         0.17142         4.68001
     2019.97809         3.90545         4.60848
     2019.98083         7.63748         4.96875
     2019.98357         1.90550         4.64861
     2019.98626         2.26347         4.75503
     2019.98904        -1.56745         4.65908
     2019.99178         5.67958         4.63378
     2019.99452         3.90761         4.64338
     2019.99726        11.12463         4.64861
     2020.00000        11.46466         4.91554
     2020.00273         5.00469         4.65385
     2020.00547        -0.80629         4.83703
     2020.00821        -2.49326         4.77859
     2020.01095         3.98577         4.74108
     2020.01368        -8.76521         4.98533
     2020.01642        -8.87018         4.81174
     2020.01916         6.31185         4.82133
     2020.02190        -0.43513         4.73323
     2020.02464        -1.46810         4.73497
     2020.02737        -2.02807         4.62855
     2020.03011         3.44095         4.79603
     2020.03285        -7.60802         4.64425
     2020.03559         2.77100         4.55789
     2020.03830         6.78299         4.72712
     2020.04106         3.66406         4.70618
     2020.04380        -1.50892         4.65646
     2020.04654        -0.95689         4.50817
     2020.04928        -2.10186         4.58144
     2020.05201         0.13716         4.59191
     2020.05475        -3.11881         4.59540
     2020.05749        -3.05478         4.56487
     2020.06023       -10.60376         4.58144
     2020.06297        -4.35273         4.62070
     2020.06570         1.92030         4.56400
     2020.06844        -1.65868         4.68089
     2020.07118         3.59635         4.60761
     2020.07392         2.80537         4.67391
     2020.07666         2.37740         4.60151
     2020.07939         2.86943         4.63291
     2020.08213        -0.24255         4.59278
     2020.08487       -10.25652         4.59889
     2020.08761         2.62851         4.55702
     2020.09034        -1.02347         4.57185
     2020.09308         0.70756         4.69135
     2020.09582        -4.43941         4.55178
     2020.09856        -3.86139         4.56225
     2020.10130        -6.41736         4.57970
     2020.10403        -1.87933         4.66955
     2020.10677        -1.57331         4.55876
     2020.10951        -6.81528         4.66606
     2020.11225         2.92475         4.67653
     2020.11498         1.96577         4.52561
     2020.11772         1.35680         4.74980
     2020.12046         4.38082         4.73148
     2020.12320        -3.41315         4.52474
     2020.12594        -0.50012         4.60325
     2020.12867        -7.57610         4.54132
     2020.13141        -2.66007         4.64338
     2020.13415        -1.16004         4.57010
     2020.13689         1.33398         4.63378
     2020.13963         0.73201         4.66082
     2020.14236        -0.38196         4.60674
     2020.14510         3.02606         4.67216
     2020.14784        -1.43091         4.68699
     2020.15058        -1.27788         4.61895
     2020.15331        -4.73086         4.56225
     2020.15605        -8.83083         4.57534
     2020.15879         2.64120         4.66606
     2020.16153        -4.10178         4.60151
     2020.16427         1.17025         4.58057
     2020.16700         4.62727         4.59540
     2020.16974        -5.61270         4.59278
     2020.17248        -2.22667         4.58580
     2020.17522         1.42435         4.62157
     2020.17796        -2.61462         4.76986
     2020.18069         1.17141         4.56923
     2020.18343         1.84543         4.55266
     2020.18617        -2.84754         4.62419
     2020.18891         0.40849         4.61197
     2020.19164         3.35851         4.67042
     2020.19438        -2.74046         4.63378
     2020.19712        -4.96543         4.64076
     2020.19986        -0.95541         4.60761
     2020.20260        -2.59738         4.62157
     2020.20533        -1.25535         4.61459
     2020.20807        -1.68033         4.61895
     2020.21081        -6.13630         4.66082
     2020.21355        -1.18728         5.07692
     2020.21629        -1.83225         4.82831
     2020.21902        -4.92922         4.70706
     2020.22176        -4.84720         4.59802
     2020.22450         3.91783         4.74021
     2020.22724        -1.52014         4.64861
     2020.22997         0.27288         4.61110
     2020.23271        -1.11909         4.59017
     2020.23545        -0.96006         4.58842
     2020.23819        -1.83304         4.61634
     2020.24093       -10.60601         4.73235
     2020.24366        -7.20698         4.69484
     2020.24640        -1.73496         4.60674
     2020.24914        -4.05893         4.63989
     2020.25188        -6.47090         4.63553
     2020.25462        -1.94388         4.64948
     2020.25735        -0.94485         4.62506
     2020.26009         6.63317         4.59104
     2020.26283         1.03220         4.55614
     2020.26557        -5.34477         4.62070
     2020.26830         0.68725         4.71229
     2020.27104        -1.02472         4.61285
     2020.27378        -4.15169         4.74980
     2020.27652        -1.28167         4.59802
     2020.27926         2.67136         5.09611
     2020.28199         0.55939         4.72101
     2020.28473        -9.34959         4.66170
     2020.28747        -3.24756         4.68001
     2020.29021        -6.55053         4.61023
     2020.29295        -5.44451         4.61023
     2020.29568         2.68152         4.65210
     2020.29842         4.25255         4.69310
     2020.30116        -1.69843         4.61197
     2020.30390         4.48960         5.42149
     2020.30663        -2.83438         4.65036
     2020.30937        -1.94435         4.69484
     2020.31211        -4.49932         4.76725
     2020.31485        -2.50830         4.79342
     2020.31759         0.23573         4.60761
     2020.32032         0.62476         4.76550
     2020.32306        -2.94722         4.62070
     2020.32580        -2.11719         4.58057
     2020.32854         2.90784         4.76463
     2020.33128        -5.31014         4.61634
     2020.33401        -6.84811         4.74369
     2020.33675         8.99692         4.64861
     2020.33945        -2.49012         4.71752
     2020.34223        -1.46103         4.71055
     2020.34496        -6.16900         4.90333
     2020.34770        -8.81098         4.59278
     2020.35044        -3.76895         4.68525
     2020.35318         0.40207         4.67653
     2020.35592         0.77510         4.69833
     2020.35865         1.28313         4.64076
     2020.36139        -1.06885         4.55614
     2020.36413         0.98418         4.59278
     2020.36687        -5.58779         4.63902
     2020.36961        -0.07977         4.67827
     2020.37234        -6.20074         4.62070
     2020.37508        -1.94771         4.62157
     2020.37782        -1.98169         4.67304
     2020.38056        -2.08266         4.55614
     2020.38329         0.21737         4.59540
     2020.38603        -2.08661         4.61895
     2020.38877         0.64442         4.68961
     2020.39151        -7.08456         4.59540
     2020.39425        -5.20553         4.57359
     2020.39698        -2.71750         4.58580
     2020.39972        -2.47848         4.59976
     2020.40246        -4.59245         4.60325
     2020.40520        -5.14942         4.66519
     2020.40794        -4.03740         4.57621
     2020.41067        -1.51237         4.69048
     2020.41341        -1.26034         4.70793
     2020.41615        -5.08332         4.57708
     2020.41889        -3.58329         4.58755
     2020.42162        -3.14926         4.56400
     2020.42436        -0.47624         4.83267
     2020.42710         1.19979         4.79603
     2020.42984         3.93782         4.78644
     2020.43258        -0.47516         4.69746
     2020.43531        -7.00913         4.78469
     2020.43805        -5.90911         4.70531
     2020.44079        -0.93208         4.72189
     2020.44353         0.76995         4.76289
     2020.44626        -7.30503         4.63640
     2020.44900        -0.33800         4.61982
     2020.45174        -0.32997         4.62419
     2020.45448         3.23105         4.61285
     2020.45722        -3.36192         4.57708
     2020.45995         2.46411         4.54742
     2020.46269        -4.41987         4.57446
     2020.46543        -5.77884         4.62680
     2020.46817         1.61119         4.65646
     2020.47091        -1.42479         4.69048
     2020.47364        -3.04576         4.55004
     2020.47638        -1.87973         4.58493
     2020.47912        -0.72871         4.73759
     2020.48186        -1.58268         4.63204
     2020.48459        -3.12566         4.81261
     2020.48733        -1.13663         4.75765
     2020.49007        -0.25660         4.65123
     2020.49292        -0.67841         4.97660
     2020.49555         5.03945         4.76463
     2020.49828        -0.46552         4.62331
     2020.50102        -3.36250         4.62680
     2020.50376         1.80753         4.65210
     2020.50650        -4.53044         4.57446
     2020.50924        -7.43142         4.62855
     2020.51197        -6.92739         4.63989
     2020.51471        -0.57336         4.63116
     2020.51745         0.76266         4.59191
     2020.52019         3.57269         4.73235
     2020.52292        -0.79728         4.71316
     2020.52566         1.94374         4.76114
     2020.52840        -3.01323         4.74457
     2020.53114        -5.69921         4.65385
     2020.53388        -4.22118         4.67129
     2020.53661        -2.03615         4.70706
     2020.53935         1.65887         4.88327
     2020.54209        -4.67210         4.72101
     2020.54483         0.36093         4.67740
     2020.54757        -4.77005         4.65036
     2020.55030         1.29798         4.74718
     2020.55304        -1.34599         5.18073
     2020.55578         7.11603         4.80912
     2020.55852         3.86906         4.68699
     2020.56125         1.82609         4.68263
     2020.56399         1.01611         4.62768
     2020.56673         3.80614         4.95305
     2020.56947         2.17817         4.74021
     2020.57221        -4.80981         4.98184
     2020.57494         0.79422         4.70531
     2020.57768         1.24324         4.68961
     2020.58042         4.88127         4.76027
     2020.58316        -1.05270         4.98097
     2020.58590        -0.30368         4.81959
     2020.58863        -3.57465         4.72538
     2020.59137         0.22538         4.67914
     2020.59409         4.70837         4.74980
     2020.59685        12.46843         5.00714
     2020.59958        -3.42254         4.81086
     2020.60232         6.42048         4.82744
     2020.60506        -0.33849         4.70008
     2020.60780         4.11654         4.70270
     2020.61054        -7.16544         4.87018
     2020.61327         0.54359         4.76376
     2020.61601         2.15662         4.71927
     2020.61875        -2.07836         4.74282
     2020.62149        -1.67733         4.65646
     2020.62423         2.08569         4.72189
     2020.62696         1.23672         4.82657
     2020.62970         0.15075         4.78208
     2020.63244         6.07777         4.78208
     2020.63518         9.90680         4.79254
     2020.63791         4.50883         4.96352
     2020.64065        -4.84515         4.89199
     2020.64339        -3.88512         4.82657
     2020.64613         3.93291         4.78208
     2020.64887         1.87093         4.76289
     2020.65160         2.01596         4.68089
     2020.65434        -4.16401         4.70531
     2020.65708        -5.94099         4.72101
     2020.65982        -1.81596         4.76027
     2020.66256        -3.21894         4.99580
     2020.66529         3.92909         4.72799
     2020.66803         0.76612         4.71316
     2020.67077         1.51514         4.92514
     2020.67351        -0.29183         4.71578
     2020.67624         1.73720         4.77248
     2020.67898         2.21122         4.69659
     2020.68172        -1.45875         4.73410
     2020.68446         2.27328         4.86059
     2020.68720        -0.62570         5.16328
     2020.68993        -2.29267         4.73410
     2020.69267         0.81236         4.77423
     2020.69541        -0.39062         4.91903
     2020.69815        -2.13359         4.78906
     2020.70089        -0.48756         4.73933
     2020.70362         3.98946         4.87280
     2020.70636        -1.51751         5.10484
     2020.70910        -9.75049         5.08390
     2020.71184        -1.11746         4.82046
     2020.71457        -3.46343         4.87367
     2020.71731        -6.77741         4.80825
     2020.72005        -0.64238         4.91990
     2020.72279         1.14365         4.82482
     2020.72553         6.01267         4.87803
     2020.72826        -0.27730         4.95480
     2020.73100        -2.20927         4.82308
     2020.73374         7.51875         4.87018
     2020.73648         7.06978         4.85186
     2020.73921        -4.63319         4.80737
     2020.74195         0.35083         4.68787
     2020.74469         0.32986         4.74369
     2020.74743        -0.06511         4.65385
     2020.75017        -0.82109         4.70618
     2020.75290         1.86794         4.79080
     2020.75564        -2.21004         4.69135
     2020.75838         2.86399         4.65123
     2020.76112         6.50402         4.90769
     2020.76386         0.64704         4.63465
     2020.76659        -0.53793         4.63727
     2020.76933         3.50910         4.86669
     2020.77207         8.66412         4.73235
     2020.77481         4.49815         4.72799
     2020.77754         1.20818         4.73846
     2020.78028        -2.16580         4.85622
     2020.78302         0.08623         5.31594
     2020.78576         1.98526         4.76376
     2020.78850        -2.14172         4.66955
     2020.79123         4.47631         4.76289
     2020.79397         0.78634         4.73497
     2020.79671         6.01336         4.74195
     2020.79945         6.14639         4.74195
     2020.80219         2.30741         4.79254
     2020.80492         5.67444         4.67042
     2020.80766        -3.24853         4.72886
     2020.81040         0.36449         4.72886
     2020.81314         0.47252         4.86756
     2020.81587         2.10655         4.70008
     2020.81861         2.75857         4.67391
     2020.82135         1.40960         4.67129
     2020.82409         2.64063         4.83616
     2020.82683         4.49165         4.76201
     2020.82956         6.20468         5.11705
     2020.83230         4.51771         4.74021
     2020.83504        -0.33627         4.72625
     2020.83778         5.54576         4.68089
     2020.84052        -1.91321         4.85448
     2020.84325         6.22781         5.14060
     2020.84599        -5.49816         4.92688
     2020.84873         4.96586         4.59017
     2020.85147         2.22289         4.56400
     2020.85420        10.22592         4.60499
     2020.85694         7.96994         4.71578
     2020.85968         8.10197         4.71665
     2020.86242         7.99500         4.62506
     2020.86516        11.47602         4.78469
     2020.86789         7.56705         4.86844
     2020.87063        15.49908         4.75155
     2020.87337         3.48110         4.81610
     2020.87611        13.24613         4.84663
     2020.87885         9.12516         4.89810
     2020.88158         0.40818         4.79429
     2020.88432         9.32721         4.74282
     2020.88706         5.73524         5.03418
     2020.88980        -2.17074         4.78120
     2020.89253         6.30529         4.69572
     2020.89527        14.09731         4.93124
     2020.89801         4.25034         4.93473
     2020.90075         6.23237         4.67391
     2020.90349         3.23139         4.74369
     2020.90622         3.49942         4.75678
     2020.90896         8.54745         4.95567
     2020.91170         6.15147         4.88937
     2020.91444        -1.19050         4.95654
     2020.91718         2.16353         4.71665
     2020.91991        -1.21245         4.83005
     2020.92265        -0.11442         4.85710
     2020.92539         1.37261         4.69572
     2020.92813         0.85363         4.83791
     2020.93086         4.89566         4.70008
     2020.93360         3.96069         4.76114
     2020.93634        -4.48829         4.81261
     2020.93908        -1.44726         4.79778
     2020.94182        -3.68224         4.70880
     2020.94455        -1.57521         4.71055
     2020.94729        -4.19318         4.68699
     2020.95003        -3.48216         4.82744
     2020.95277        -8.10213         4.68350
     2020.95551        -0.83410         4.72799
     2020.95824        -1.93608         4.77771
     2020.96098        -4.97705         4.71404
     2020.96372        -5.88102         4.69833
     2020.96646        -3.30100         4.76812
     2020.96919        -1.39597         4.79429
     2020.97193       -10.86294         4.69135
     2020.97467        -3.29692         4.73148
     2020.97741        -4.41989         4.75242
     2020.98015        -0.96487         4.87803
     2020.98288        -3.67584         4.77946
     2020.98562        -3.62481         4.73061
     2020.98836         9.01021         4.72450
     2020.99110         9.54824         4.67042
     2020.99384         3.44027         4.59889
     2020.99657        -5.50971         4.70967
     2020.99931        -2.79868         4.72974
     2021.00205        -4.47565         4.76027
     2021.00479         3.89337         4.85797
     2021.00752        -1.15660         4.64861
     2021.01026        -0.18957         4.65123
     2021.01300         4.04145         4.64163
     2021.01574         0.84348         4.64861
     2021.01848         3.48451         4.67129
     2021.02121         7.97053         4.72014
     2021.02395        -2.52144         4.61197
     2021.02669         0.97758         4.67565
     2021.02943        -5.27939         4.67391
     2021.03216        -3.48836         4.67391
     2021.03399         4.38533         8.71974
     2021.03821        -3.82047         5.97890
     2021.04038        -2.55928         4.74282
     2021.04312        -1.91926         4.65210
     2021.04585         0.81877         4.67565
     2021.04859        -1.82320         4.64774
     2021.05133        -0.22718         4.72450
     2021.05407         5.52085         4.91293
     2021.05681        -0.31312         4.80912
     2021.05954        -5.57810         4.65908
     2021.06228        -2.01007         4.66519
     2021.06502         1.24796         4.66170
     2021.06776         6.73198         4.66780
     2021.07049         4.40201         4.64076
     2021.07323         2.86603         4.74631
     2021.07597        -3.06194         4.63291
     2021.07871        -0.92691         4.65733
     2021.08145        -3.80789         4.74369
     2021.08418        -8.42186         4.63378
     2021.08692        -7.83583         4.64512
     2021.08966        -9.35281         4.66257
     2021.09240       -11.27978         4.63814
     2021.09514        -5.22675         4.77423
     2021.09787        -6.91873         4.85622
     2021.10061        -3.74170         4.64512
     2021.10335        -2.18867         4.65472
     2021.10609       -12.14965         4.64163
     2021.10882        -2.24362         4.62768
     2021.11156        -4.57059         4.62593
     2021.11430        -7.89257         4.63465
     2021.11704        -2.01754         4.65995
     2021.11978         0.37148         6.21530
     2021.12251        -5.27449         4.62680
     2021.12525        -6.24646         4.65123
     2021.12799        -3.45844         4.70008
     2021.13073        -4.48741         4.77946
     2021.13347        -4.51138         4.71404
     2021.13620        -4.51636         4.69048
     2021.13894        -4.36033         4.62593
     2021.14168        -2.51930         4.62593
     2021.14442        -8.99228         5.46074
     2021.14715        -0.75725         4.67565
     2021.14989        -8.46322         4.62070
     2021.15263        -9.71420         4.79167
     2021.15537         1.80883         4.75591
     2021.15811       -11.24814         4.86320
     2021.16084        -1.72112         4.73759
     2021.16358        -2.26609         4.80476
     2021.16632         8.24893         4.83354
     2021.16906         3.40796         4.58580
     2021.17180        -2.74701         4.62419
     2021.17453        -7.16499         4.80737
     2021.17727         4.38704         4.76550
     2021.18001       -10.47893         4.84488
     2021.18275        -8.13291         4.84750
     2021.18548        -4.15788         4.58493
     2021.18822        -3.60885         4.75503
     2021.19096        -3.58983         4.65908
     2021.19370        -4.41780         4.68787
     2021.19644        -6.72777         4.61895
     2021.19917       -11.57375         4.68263
     2021.20191        -9.44972         4.59976
     2021.20465         0.22731         4.60761
     2021.20739        -5.49967         4.64948
     2021.21013        -5.61864         4.77859
     2021.21286       -10.20262         4.76463
     2021.21560        -5.07059         4.64861
     2021.21834        -7.77356         4.60587
     2021.22108        -8.07354         4.75591
     2021.22381        -5.76851         4.61808
     2021.22655        -0.39548         4.63378
     2021.22929        -0.20146         4.61285
     2021.23203         3.27257         4.61546
     2021.23477        -7.15940         4.63553
     2021.23750        -8.14238         4.63291
     2021.24024        -4.00235         4.64425
     2021.24298         0.05668         4.61982
     2021.24572       -10.13530         4.63204
