# ================= DQRFIT RESULTS ================
# INPUT FILE: series/WEBG.rad
# OUTPUT: LDETRENDED
# FILTER FUNCTION: f(t)
# f(t)=+line(t)+annual(t)+jumps(t)
# line(t)=+P 1+P 2*t
# annual(t)=+P 3*sin(2*pi*t+P 4)
# jumps(t)=+P 5*heav(t-2016.2204  )
# heav(t)=(t<0?0:1)
# TOTAL OBSERVATIONS MTOT= 2794
# INITIAL TIME INTERVAL= 2022.3272 - 2014.5818 =  7.7454
# TOTAL OBSERVATIONS AFTER PREFILTER M= 2779
# TIME-SPAN= 2022.3272 - 2014.5818 =  7.7454
# OBSERVATIONS: USED M=  2779 REJECTED MTOT-M=    15 %USED=   99.4631
# N=  5 PARAMETERS
# MAXSIG= 175.00000
# MAXRES=  33.14088
# SCALE FACTOR FOR LENGTHS: SCL=  10.00000
# SCALE FACTOR FOR SIGMAS: SCLSIG=   1.00000
# CHI^2=   5640.972 DOF=  2774 CHI^2/DOF=   2.03352
# RMS=      8.467 SDEV=      8.458 MEAN=    0.43134
#  P #       PARAMETER +-    SIGMA %error PARAMETER NAME
# P 1 =      3136.32231 +-  200.968   6.41 YZERO                              
# P 2 =        -1.55312 +-    0.100   6.42 SLOPE                              
# P 3 =         3.68157 +-    0.222   6.04 ANNUAL AMPLITUDE                   
# P 4 =        -2.50265 +-    0.068   2.71 ANNUAL PHASE                       
# P 5 =       -10.84759 +-    0.577   5.32 OFFSET 2016.2204                   
#       T            LDETRENDED       SIG_OBS
     2014.58179        -2.77352         8.17819
     2014.58453        -0.94127         8.08978
     2014.58726         0.01798         8.38354
     2014.59000         1.70123         8.00564
     2014.59274         4.11049         8.05983
     2014.59548         5.14774         8.24664
     2014.59822         0.70499         8.16250
     2014.60095        -0.45076         8.26090
     2014.60369        -1.63951         8.10974
     2014.60643         1.00175         8.03274
     2014.60917        -1.15900         8.13256
     2014.61190         0.09425         8.53184
     2014.61464        -9.04650         8.30510
     2014.61738         1.95876         8.23238
     2014.62012         5.84101         8.13398
     2014.62286         2.38426         7.98853
     2014.62559         1.36451         8.06839
     2014.62833         6.22176         8.06696
     2014.63107        10.40302         8.18960
     2014.63381         8.53527         8.28371
     2014.63655         3.99952         8.10974
     2014.63928        -0.76023         8.07694
     2014.64202        -0.66597         8.06981
     2014.64476         1.68828         8.07124
     2014.64750         2.76753         8.00992
     2014.65023         1.45178         8.04985
     2014.65297         5.92503         8.10118
     2014.65571         3.70129         8.06268
     2014.65845         6.26754         8.37498
     2014.66119        13.66279         8.34075
     2014.66392         5.69404         7.98853
     2014.66666         5.25530         8.04700
     2014.66940         3.47955         8.04414
     2014.67214         3.29180         8.48906
     2014.67488        -1.65595         8.06126
     2014.67761         2.90330         8.06268
     2014.68035         4.24856         7.93006
     2014.68309        -3.46319         7.95145
     2014.68583        -4.13094         8.06411
     2014.68856         0.96331         8.02561
     2014.69130        -0.59243         7.98996
     2014.69404        -0.23118         8.06126
     2014.69678         0.28607         7.96714
     2014.69952         6.94232         7.88871
     2014.70225         6.83257         7.91010
     2014.70499         1.52583         7.95288
     2014.70773         3.58108         7.94147
     2014.71047         2.20533         8.22240
     2014.71321         7.82958         7.93149
     2014.71594         7.04384         7.98425
     2014.71868         5.23709         7.98710
     2014.72142         8.18234         7.87017
     2014.72416         2.89059         7.99566
     2014.72689         4.01984         8.14824
     2014.72963        -1.95390         8.53041
     2014.73237        -0.29865         9.96926
     2014.73511        -1.04440         7.99994
     2014.73785         0.50385         7.94290
     2014.74058         1.29611         8.59031
     2014.74332         1.18136         8.29797
     2014.74606        -0.65938        14.31860
     2014.74880         1.73786         7.99709
     2014.75154        -1.89789         8.23808
     2014.75427        -3.54763         8.12257
     2014.75592        -1.22507        17.99772
     2014.76005        10.49334        14.89757
     2014.76249         6.17212         8.03987
     2014.76522         0.11538         7.96001
     2014.76792        10.19357         8.22240
     2014.77002         2.96482        10.71507
     2014.79340        10.62514        13.64267
     2014.79534         3.29915         8.03844
     2014.79808         6.38640         8.29227
     2014.80082         9.97465         8.10689
     2014.80355         5.63691         8.14111
     2014.80629         1.26716         8.13256
     2014.80903         8.51741         8.22525
     2014.81177         8.86966         8.00279
     2014.81451        11.92591         8.11117
     2014.81724         9.11417         7.98853
     2014.81998         6.29042         8.01135
     2014.82272         3.89267         8.47195
     2014.82546         5.31392         8.21099
     2014.82820         3.96118         7.92864
     2014.83093         6.99143         8.17962
     2014.83367         4.15168         8.12115
     2014.83641        -0.11307         8.11259
     2014.83915        -2.61882         8.92542
     2014.84188        -0.69656         8.33790
     2014.84462        -7.26231         8.19815
     2014.84736         4.39194         8.26660
     2014.85010        -0.69881         8.12115
     2014.85284         0.61745         8.06981
     2014.85557        10.77370         8.45484
     2014.85831         6.06395         8.01562
     2014.86105         3.61220         7.98996
     2014.86379         1.70145         8.07694
     2014.86653         6.44471         8.07409
     2014.86926        19.73796         8.22097
     2014.87200         2.20621         7.97570
     2014.87474         1.67946         7.99994
     2014.87748        -0.36828         8.09120
     2014.88021         3.31197         8.09120
     2014.88295         3.13222         8.16678
     2014.88569         2.12447         8.45198
     2014.88843         8.29072         8.42204
     2014.89117         7.84698         8.55893
     2014.89390        -3.78777         8.57462
     2014.89664         6.90048         8.26660
     2014.89938        -0.60427         8.33362
     2014.90212        -3.99601         8.80849
     2014.90485        -7.18076         8.37641
     2014.90759        -0.92551         9.26766
     2014.91033         1.62174         7.99138
     2014.91307         6.54199         8.05270
     2014.91581         7.28425         8.06411
     2014.91854         6.07950         7.96286
     2014.92128        -1.12125         8.06553
     2014.92402        -1.23200         8.11972
     2014.92676        -3.76274         8.17819
     2014.92950        -3.35249         9.15929
     2014.93223        -9.34324         8.04414
     2014.93497        -1.06599         8.08978
     2014.93771        -1.42474         8.35644
     2014.94045        -3.93248         8.27801
     2014.94316        -1.35627         8.68870
     2014.94601        -5.19984         8.33790
     2014.94866        -5.53573         7.98425
     2014.95140        -2.10247         7.91723
     2014.95414         3.82678         7.89869
     2014.95687         3.17803         7.98283
     2014.95862         6.99575        14.88473
     2014.96273         0.67912         9.56998
     2014.96509        -1.99821         8.10404
     2014.96783       -10.77596         7.98710
     2014.97056        -7.28971         7.95003
     2014.97330       -13.92446         7.96857
     2014.97604       -15.78820         8.06126
     2014.97878        -6.69695         7.89156
     2014.98151         3.51930         8.10261
     2014.98425        -6.72545         8.02561
     2014.98699        -4.72020         7.95288
     2014.98973       -18.06694         8.03701
     2014.99247        -7.73469         7.97284
     2014.99520        -9.34444         7.88158
     2014.99794        -2.90219         7.81883
     2015.00068        -8.62693         7.81883
     2015.00342       -10.04568         7.90297
     2015.00616       -14.04743         8.05270
     2015.00889        -8.66218         8.05413
     2015.01163        -8.64093         8.11972
     2015.01437        -5.91167         8.10261
     2015.01711        -4.97642         8.09976
     2015.01984         1.44583         8.05127
     2015.02258        -0.26492         8.24236
     2015.02532         3.99934         8.00992
     2015.02806        -5.40741         8.17962
     2015.03080        -1.30916         7.98568
     2015.03353        -3.63691         8.03701
     2015.03627        -0.91166         8.06553
     2015.03901         5.12460         8.28514
     2015.04175         4.24385         8.17534
     2015.04449        -4.07790         8.15537
     2015.04722         0.30835         8.24521
     2015.04996        -6.46640         8.12115
     2015.05270       -10.82714         8.06126
     2015.05544        -0.52489         8.08265
     2015.05817         3.04436         8.13541
     2015.06091        -4.16239         8.12115
     2015.06365         6.23987         8.37641
     2015.06639        -5.41388         7.97997
     2015.06913        -0.45963         8.10118
     2015.07186        -4.22938         8.07266
     2015.07460        -2.75913         8.12970
     2015.07734        -7.42687         7.96857
     2015.08008        -9.62662         7.96571
     2015.08282        -1.17237         7.90439
     2015.08555        -4.74212         8.01420
     2015.08829        -0.77986         8.19530
     2015.09103        -2.01361         7.99138
     2015.09377        -2.32136         7.90725
     2015.09650         0.01489         9.22203
     2015.09924        18.04814        12.08547
     2015.10198        -1.27860         7.96999
     2015.10472        -1.05035         8.05983
     2015.10745        -5.07811         8.33362
     2015.11019        -2.95185         8.20386
     2015.11293        -3.85459         8.32364
     2015.11567        -0.41234         7.97427
     2015.11841        -7.73609         7.95145
     2015.12115        -0.09384         8.00707
     2015.12388        -4.30159         7.93291
     2015.12662        -1.56133         7.90582
     2015.12936        -1.46508         7.90439
     2015.13210         7.94117         8.00136
     2015.13483        -4.84958         7.98710
     2015.13757        -3.72332         8.07266
     2015.14031        -2.35507         7.90154
     2015.14305         0.54918         8.20386
     2015.14579        -2.01757         7.94860
     2015.14852         4.70168         7.97997
     2015.15126        -0.94406         8.07409
     2015.15400        -4.25581         8.08407
     2015.15674        -0.60756         8.01277
     2015.15948         6.15669         7.98425
     2015.16221         6.23895         8.41776
     2015.16495        -1.76180         7.89299
     2015.16769        -1.42855         8.70867
     2015.17043         3.03971         7.98140
     2015.17316         0.91095         8.60029
     2015.17590        -5.91279         8.09833
     2015.17864        -0.90054         7.97142
     2015.18138         4.53471         7.94718
     2015.18412         2.69296         8.12257
     2015.18685         1.73122         8.25805
     2015.18959         3.80047         8.22382
     2015.19233        -7.32828         8.46767
     2015.19507         5.41197         8.05698
     2015.19780        -6.55378         8.03844
     2015.20054        -3.16352         9.31472
     2015.20328        -3.36327         8.36928
     2015.20602        -1.48602         8.19102
     2015.20876        -9.91877         8.06126
     2015.21149       -12.14751         8.12970
     2015.21423        -7.63326         8.60457
     2015.21697        -3.11301         8.18960
     2015.21971        -7.68876         8.32364
     2015.22245         0.38849         8.10689
     2015.22518        -3.30025         8.11117
     2015.22792        -1.87400         7.92151
     2015.23066        -6.55175         8.06839
     2015.23340        -2.27550         8.55323
     2015.23613        -4.15124         8.39494
     2015.23887        -2.92299         8.51045
     2015.24161         0.19926        10.36569
     2015.24435        -2.92249         8.48193
     2015.24709        -4.34324         8.28086
     2015.24982        -2.95598         8.01562
     2015.25256        -1.31074         7.99851
     2015.25530        -1.33048         8.26803
     2015.25804         5.42477         8.02846
     2015.26078         3.72002         8.07694
     2015.26351        -2.80772         8.10831
     2015.26625        -0.12447         8.02275
     2015.26899        -8.54922         8.12828
     2015.27173         7.18903         8.10261
     2015.27446        -1.55971         8.25519
     2015.27720        -3.33946         7.96857
     2015.27994         0.24079         7.99423
     2015.28268        -7.15896         8.22525
     2015.28542        -4.76571         8.23808
     2015.28815        -5.46045         8.37355
     2015.29089        -5.00820         7.98710
     2015.29363        -4.59595         7.90297
     2015.29637        -3.22770         7.93862
     2015.29911        -1.20044         7.97142
     2015.30184         5.87081         7.92721
     2015.30458        -3.99094         7.95145
     2015.30732        -4.05669         7.79602
     2015.31006        -7.24244         7.87587
     2015.31279        -3.07018         7.78889
     2015.31553        -4.94993         7.79317
     2015.31827        -7.13068         7.80172
     2015.32101         2.55457         7.94432
     2015.32375        -7.43317         7.77891
     2015.32648        -5.10992         8.09976
     2015.32922         4.61033         8.01420
     2015.33196        -3.01642         7.80885
     2015.33470        -1.00517         7.72614
     2015.33744        -4.95591         7.91723
     2015.34017        -3.55366         8.20101
     2015.34289        -7.31644         7.88443
     2015.34566        -5.77313         7.88300
     2015.34839         1.11110         7.77891
     2015.35112        -6.02265         7.80030
     2015.35386         0.76260         7.87302
     2015.35660        -5.93315         8.06981
     2015.35934       -11.68390         8.11687
     2015.36208        -5.90564         8.39209
     2015.36481        -2.03139         7.86019
     2015.36755        -0.02314         7.84308
     2015.37029        -1.58189         7.78461
     2015.37303        -1.87763         7.71473
     2015.37577        -4.49338         7.76037
     2015.37850        -6.19713         7.94004
     2015.38124         0.01012         7.80457
     2015.38398        -0.75263         7.75894
     2015.38672        -2.92437         7.77463
     2015.38945        -6.67712         7.73327
     2015.39219        -2.50087         7.79602
     2015.39493         0.31638         7.95858
     2015.39767        -3.12936         8.04129
     2015.40041        -1.92011         9.83522
     2015.40314        -5.12486         7.99566
     2015.40588        -8.09161         7.89441
     2015.40862        -5.37436         7.93719
     2015.41136         2.69790         7.92151
     2015.41410        -8.05685         7.97427
     2015.41683        -8.52360         8.08835
     2015.41957       -10.35435         8.08692
     2015.42231        -2.57509         7.95716
     2015.42505       -10.25584         8.12257
     2015.42778         0.54441         8.06126
     2015.43052        -2.14234         7.86019
     2015.43326        -5.32209         7.79174
     2015.43600        -3.23683         7.85306
     2015.43874        -1.44558         7.80315
     2015.44147        -5.49333         8.24806
     2015.44421        -5.99708         7.93006
     2015.44695        -3.42082         7.80315
     2015.44969        -3.12957         7.77463
     2015.45243        -0.80932         8.05127
     2015.45516        -4.66507         7.90297
     2015.45790        -8.78782         8.48478
     2015.46064         2.52744         8.15395
     2015.46328        -1.10846         8.18960
     2015.46617        -1.78997         8.04414
     2015.46885         1.46019         8.18532
     2015.47159        -0.98755         7.80743
     2015.47433        -0.37830         8.19673
     2015.47707        -5.33505         8.08122
     2015.47980        -1.14380         7.92864
     2015.48254        -5.78455         8.42774
     2015.48528         4.93571         8.18532
     2015.48802        -6.06204         7.91438
     2015.49076        -4.52379         8.16536
     2015.49349         2.23646         8.18532
     2015.49623         0.67071         8.40778
     2015.49897        -2.63703         8.12828
     2015.50171         0.59622         8.09120
     2015.50444         3.29547         8.11259
     2015.50718        -1.17428         7.90867
     2015.50992         3.39898         7.88586
     2015.51266         6.70523         8.03416
     2015.51540         3.87348         7.90154
     2015.51813         4.40673         8.21384
     2015.52087         8.82098         7.97284
     2015.52361         7.69124         8.10118
     2015.52635         3.95349         7.95573
     2015.52908         5.75874         8.00422
     2015.53182         6.53599         7.89299
     2015.53456         7.82325         7.96999
     2015.53730        -0.31350         8.07409
     2015.54004         5.26575         8.09691
     2015.54277         0.58500         8.31223
     2015.54551         8.31325         8.09976
     2015.54825        -0.23349         8.26803
     2015.55099        10.14076         8.14824
     2015.55373        10.34701         8.15537
     2015.55646        12.17626         8.16108
     2015.55920         9.92652         8.12543
     2015.56194         3.57877         8.00564
     2015.56468         5.60702         8.05413
     2015.56741         3.03827        14.24160
     2015.57015        12.80952        14.27155
     2015.57289        14.61878        14.43554
     2015.57563         4.01303        14.23304
     2015.57837         9.08328        14.25586
     2015.58110        12.77353        14.09329
     2015.58384         9.39079        14.28866
     2015.58658        20.39304        15.92430
     2015.58932         8.09529        14.62377
     2015.59206         7.04854        14.55532
     2015.59479         8.96879        14.64659
     2015.59753         6.28705        14.33572
     2015.59992        20.77375        17.52714
     2015.60376       -37.61928        44.21498
     2015.60574         1.32280        15.14141
     2015.60848        20.12206        14.34285
     2015.61122         4.66831        14.78063
     2015.61396        14.43256        15.30255
     2015.61670        20.74581        14.58384
     2015.61943         7.76206        14.23447
     2015.62217        15.33932        14.18884
     2015.62491        18.57757        14.35996
     2015.62765         7.17982        14.05907
     2015.63039         2.28707        14.43982
     2015.63312        17.44433        15.41521
     2015.63586        10.11658        14.77921
     2015.63860        -3.82417        14.45978
     2015.64134        13.97108        14.55818
     2015.64407        16.43933        14.55818
     2015.64681        17.35659        15.27974
     2015.64955        18.29884        14.49258
     2015.65229        11.20509        14.28153
     2015.65503        11.49734        14.52823
     2015.65776        -3.10740        14.60381
     2015.66050         2.52985        17.87223
     2015.66324        11.97810        14.35140
     2015.66598        16.26235        14.44980
     2015.66872        17.39760        14.21451
     2015.67145         8.81886        14.14606
     2015.67419        18.40511        13.91647
     2015.67693         7.23636        14.22449
     2015.67967        -0.28639        14.53821
     2015.68240         6.13687        14.33286
     2015.68514        17.36112        14.50969
     2015.68788         1.23037        14.45122
     2015.69062        29.17562        16.51894
     2015.69336         6.00287        15.39382
     2015.69609        15.44513        14.28010
     2015.69883        23.15638        14.24730
     2015.70157        10.38863        15.22698
     2015.70431         2.62988        14.31290
     2015.70705        13.57814        14.33001
     2015.70978        17.84139        14.50684
     2015.71252         8.16464        14.48687
     2015.71526        14.37689        14.32431
     2015.71800        16.88514        14.20310
     2015.72073        10.23540        15.04445
     2015.72347         3.88965        14.31718
     2015.72621        -0.77210        14.67939
     2015.72895        10.89815        14.27012
     2015.73169         2.18440        14.57244
     2015.73442        14.82766        14.26727
     2015.73713        11.33587        14.87190
     2015.73992        15.40120        14.00060
     2015.74264        16.13341        14.14748
     2015.74538        10.26567        14.21165
     2015.74811         9.72192        14.12894
     2015.75085         4.03717        14.05194
     2015.75359         3.38442        14.44837
     2015.75633        14.88767        14.16887
     2015.75906        19.92893        15.10576
     2015.76180         7.84918        14.26727
     2015.76454        -9.37957        15.21557
     2015.76728        18.44368        14.76210
     2015.77002        -0.59206        14.63661
     2015.77275        28.82619        14.54249
     2015.77549        22.32744        14.39561
     2015.77823        18.88169        14.60096
     2015.78097         3.00794        14.23590
     2015.78371        19.92820        14.22734
     2015.78644         6.52945        14.21165
     2015.78918        22.53770        17.79808
     2015.79192        -0.00405        14.59240
     2015.79466        21.77021        14.60096
     2015.79739        21.77846        14.41843
     2015.80013        11.33171        15.17279
     2015.80287        14.07496        14.76495
     2015.80561        10.22721        14.54962
     2015.80835        16.20547        14.40559
     2015.81108         1.41672        14.48260
     2015.81382        17.86897        14.64944
     2015.81537        -1.29463        40.59719
     2015.85507        10.60003        16.41627
     2015.85763        12.78501        15.03589
     2015.86036        14.39626        15.53357
     2015.86310         0.95351        15.59917
     2015.86584         3.89076        15.61485
     2015.86858        -1.50398        15.79881
     2015.87132        12.87127        15.72323
     2015.87405         4.22452        15.50077
     2015.87679        -3.93423        16.05264
     2015.87953        -6.88698        15.29400
     2015.88227         2.92928        15.12858
     2015.88501         0.84653        15.62056
     2015.88774        10.60878        15.07011
     2015.89048         6.13203        15.97848
     2015.89322        12.92429        14.98741
     2015.89596         6.68854        15.21129
     2015.89869         7.63179        15.05871
     2015.90143         5.78004        14.85906
     2015.90417        12.37929        15.39382
     2015.90691         8.01855        15.09150
     2015.91267        23.92050        17.73961
     2015.91512         7.27130        15.02448
     2015.91786        10.24556        16.05977
     2015.92060         6.28781        15.02163
     2015.92334         7.76806        14.75354
     2015.92607        -5.14969        15.76316
     2015.92881         6.76656        15.47510
     2015.93155        11.15382        16.46476
     2015.93429        15.65407        15.98989
     2015.93702        10.20832        15.72038
     2015.93976        -8.76143        17.41020
     2015.94250         7.52882        17.20913
     2015.94524         3.11508        15.47938
     2015.94798         3.98533        15.46655
     2015.95071         8.88058        15.65621
     2015.95345        -7.61817        15.91859
     2015.95619         7.70909        17.06653
     2015.95893       -13.42466        16.97384
     2015.96167        15.65259        15.85585
     2015.96440        11.06484        15.62626
     2015.96714         3.77409        15.44088
     2015.96988        -2.25665        16.22661
     2015.97262        22.23060        16.22091
     2015.97535         1.40985        15.79596
     2015.97809        11.53010        15.58491
     2015.98083        -0.02264        15.55353
     2015.98357        -3.48639        15.54355
     2015.98631         1.64486        16.88400
     2015.98904        -1.61589        15.91289
     2015.99178        -2.36364        16.09257
     2015.99452        13.64162        15.31254
     2015.99726         6.00087        15.63054
     2016.00000        -6.86488        15.97278
     2016.00273         1.73237        15.71039
     2016.00547        10.28063        15.66191
     2016.00821        -0.34012        15.67332
     2016.01095        -0.42987        15.48936
     2016.01368        -0.84262        16.00130
     2016.01642         6.01563        15.54783
     2016.01916        10.58089        15.51503
     2016.02190        11.30314        15.97135
     2016.02464        11.02139        15.46940
     2016.02737        -1.89836        16.76564
     2016.03011       -13.72410        16.37634
     2016.03285         1.21015        15.71325
     2016.03559        -1.69760        15.95424
     2016.03833         9.56965        17.38596
     2016.04106       -11.15910        15.91859
     2016.04380        14.19116        16.64158
     2016.04654         4.42441        15.51788
     2016.04928         5.70666        15.35532
     2016.05201         6.63891        15.59204
     2016.05475        -3.05283        15.82305
     2016.05749       -12.80758        18.04906
     2016.06023        -8.41233        15.52359
     2016.06297        -4.05407        15.54783
     2016.06570        -0.85883        15.47082
     2016.06844         4.74843        15.59346
     2016.07118        -1.60332        15.80451
     2016.07392         4.41993        16.15674
     2016.07666        12.90618        15.40808
     2016.07939         4.79844        15.15282
     2016.08213         7.71269        14.82912
     2016.08487        -2.76606        15.49364
     2016.08761        -7.51781        15.16138
     2016.09037       -16.78452        16.35780
     2016.09311       -11.99027        16.52607
     2016.09582       -12.28805         8.14111
     2016.09857       -12.72078         8.14396
     2016.10130       -10.32255         8.06696
     2016.10403       -16.29129         8.03844
     2016.10677        -9.34504         8.91401
     2016.10951        -7.29279         8.13541
     2016.11225       -10.39954         8.36215
     2016.11498        -9.63829         8.16536
     2016.11679       -21.26349        15.15282
     2016.12089       -10.61011        10.02916
     2016.12320        -6.50153         7.99423
     2016.12594       -12.87028         7.91152
     2016.12867        10.62698        13.67975
     2016.13141         2.83923         7.86732
     2016.13415        -8.78552         7.93862
     2016.13689        -4.93827         8.03844
     2016.13957        -5.20610         8.21099
     2016.14239       -15.24273         8.06839
     2016.14510        -7.78651         7.96857
     2016.14784        -8.12626         7.99709
     2016.15058        -4.93301         7.84593
     2016.15331        -8.51475         8.11687
     2016.15605       -15.05750         8.00422
     2016.15879        -8.68625         8.31366
     2016.16153       -11.06300         8.13826
     2016.16427        -3.26075         8.31223
     2016.16700       -14.61949         8.00422
     2016.16974       -17.95624         8.04414
     2016.17248        -6.62499         8.17819
     2016.17522       -10.27274         8.22097
     2016.17796        -5.55949         8.03844
     2016.18069         0.64277         8.10546
     2016.18343       -11.93098         8.17676
     2016.18617       -10.39373         8.02418
     2016.18891        -6.02948         7.79744
     2016.19164        -6.96922         7.77748
     2016.19438        -6.12697         7.84308
     2016.19712        -9.31872         7.82882
     2016.19986        -5.93047         8.15680
     2016.20260       -20.21922         8.09120
     2016.20533       -13.22196         8.20243
     2016.20807        -9.12971         8.01135
     2016.21081        -5.51146         7.95431
     2016.21340        -2.39344         8.42346
     2016.21642        -4.46374         8.59173
     2016.21902       -10.15670         7.82454
     2016.22170        -8.42555         7.86589
     2016.22496       -15.40049         9.39601
     2016.22724       -10.43495         8.07266
     2016.22997        -7.63769         7.82882
     2016.23271        -3.54944         7.74326
     2016.23545       -14.19619         8.03274
     2016.23819       -12.22994         7.73327
     2016.24093         0.65632         7.81883
     2016.24366        -8.66343         7.79031
     2016.24640         2.23382         7.95573
     2016.24914        -1.87993         7.84165
     2016.25188        -4.46268         8.02988
     2016.25462        -2.52642         8.17249
     2016.25735        -2.09917         8.01848
     2016.26009        -9.13192         7.88871
     2016.26283        -4.89767         7.79031
     2016.26557        -0.52641         7.80743
     2016.26830        -3.39516         7.83024
     2016.27104        -3.06291         7.82026
     2016.27378         1.42034         7.81456
     2016.27652        -4.14141         7.74896
     2016.27926        -6.43215         7.75609
     2016.28199       -13.17190         8.52614
     2016.28473        -5.00865         8.04414
     2016.28747        -2.50040         8.18817
     2016.29021        -6.43014         7.84165
     2016.29295        -5.19689         7.90582
     2016.29568        -1.35464         7.90439
     2016.29842        -5.55939         8.10261
     2016.30116         3.60686         8.26232
     2016.30390        -8.69588         8.02418
     2016.30663        -4.26563         8.10546
     2016.30937        -5.29639         7.86447
     2016.31211       -12.03113         8.22382
     2016.31485       -10.08387         7.84308
     2016.31759        -2.50462         7.82454
     2016.32032        -9.03237         7.85306
     2016.32306       -12.77812         7.77748
     2016.32580       -13.05787         7.94432
     2016.32854        -7.25361         7.89299
     2016.33128        -7.91636         7.98710
     2016.33401        -0.80311         8.02275
     2016.33675        -3.83786         7.91723
     2016.33949        -6.47760         7.91010
     2016.34223        -3.83035         7.95716
     2016.34496        -1.04910         8.16393
     2016.34770         4.24115         8.02988
     2016.35044         3.06040         8.35502
     2016.35318        -5.74934         7.81598
     2016.35592        -7.02709         7.90154
     2016.35865       -14.58584         7.97284
     2016.36139        -7.60859         7.83024
     2016.36413         0.14467         8.06696
     2016.36687        -5.48508         7.81598
     2016.36961         0.94617         7.93149
     2016.37234         9.16842         7.97142
     2016.37508         0.60967         8.04985
     2016.37782       -10.33907         7.95716
     2016.38056        -0.47982         8.20101
     2016.38329         0.73143         7.81598
     2016.38603         0.46768         7.80600
     2016.38877         3.02194         7.89869
     2016.39151        -0.68181         7.84878
     2016.39425       -14.14956        12.95391
     2016.39698         6.09469         7.83167
     2016.39972         6.83294         7.87873
     2016.40246        -7.94080         8.03274
     2016.40520        -6.26055         7.86447
     2016.40794        -5.30830         7.86019
     2016.40971        -4.37754        14.10755
     2016.41382        -6.51616         9.40028
     2016.41615        -5.29454         7.97712
     2016.41889        -6.31629         7.87017
     2016.42162        -5.41404         8.03274
     2016.42436       -10.53079         7.87302
     2016.42710         0.48747         7.84593
     2016.42984        -0.14628         7.82026
     2016.43258         5.19297         7.84735
     2016.43531         0.27122         8.10404
     2016.43805        -0.59153         7.89869
     2016.44079        -1.87127         7.87445
     2016.46082        -7.57816        13.40738
     2016.46269        -0.13126         7.93291
     2016.46543        -5.80800         7.84450
     2016.46817         0.31925         7.85021
     2016.47091         0.44850         7.73185
     2016.47364         5.37975         7.83024
     2016.47638         1.23201         8.05555
     2016.47912         1.84926         8.05127
     2016.48186        -3.63149         8.19245
     2016.48459         0.49876         7.78318
     2016.48733         0.47201         7.77178
     2016.49007         1.38827         7.75466
     2016.49281         3.58852         7.81741
     2016.49555         0.35677         7.97427
     2016.49828        -0.29398         7.77605
     2016.50102        -1.70272         7.82454
     2016.50376        -3.78347         8.04129
     2016.50650         1.11178         8.04129
     2016.50924        -1.41797         7.93719
     2016.51197        -2.15872         7.87730
     2016.51471         3.70554         7.80600
     2016.51745         3.06179         8.23523
     2016.52019        -4.39896         8.04557
     2016.52292         2.53829         7.83452
     2016.52566         1.64555         7.90297
     2016.52840         3.32580         7.85591
     2016.53114        -0.11295         7.79317
     2016.53388         3.46430         7.73755
     2016.53661        -1.47545         7.87445
     2016.53935         4.24081         7.72899
     2016.54209         6.82606         7.67908
     2016.54483         6.85131         7.86447
     2016.54757        -2.50244         7.77891
     2016.55030         0.25782         7.96144
     2016.55304         6.50607         7.87302
     2016.55578         4.58632         7.96999
     2016.55852         6.85057         7.81456
     2016.56125        10.29482         7.81456
     2016.56399         4.93908         7.78033
     2016.56673         0.61133         7.89726
     2016.56947        -2.11642         8.15537
     2016.57221         7.07283         7.94290
     2016.57494         2.58409         7.96714
     2016.57768         7.66234         7.87160
     2016.58042         4.82559         7.79031
     2016.58316        -0.31616         7.72329
     2016.58590         5.19609         7.91580
     2016.58863         6.32135         7.89584
     2016.59137        -0.78940         7.85876
     2016.59411         4.26485         7.94860
     2016.59685        11.46910         7.79744
     2016.59958         6.93836         7.85448
     2016.60232         9.69661         7.94004
     2016.60506        -0.05414         8.04842
     2016.60780         2.04711         7.84022
     2016.61054         2.87036         7.76037
     2016.61327         1.27262         7.76750
     2016.61601        -4.02013         7.82882
     2016.61875         1.00712         7.84593
     2016.62149        -1.94363         7.72757
     2016.62423        10.48362         7.99709
     2016.62696        12.46888         7.78604
     2016.62970         3.93313         7.78176
     2016.63244         0.37238         7.95858
     2016.63518         5.85863         7.72329
     2016.63791         4.37789         7.98853
     2016.64065        12.44014         7.95003
     2016.64339         2.84639         7.73613
     2016.64613         4.76864         7.77320
     2016.64887        -1.03611         7.96001
     2016.65189         4.49459         9.12221
     2016.65434         1.74640         7.80885
     2016.65708         1.76965         8.05127
     2016.65982        -0.51910         7.96999
     2016.66256         3.03316         7.96571
     2016.66529         3.19941         7.79031
     2016.66803         8.16866         7.93006
     2016.67077         5.65191         7.99709
     2016.67351         2.38516         7.75039
     2016.67624         7.34042         7.77320
     2016.67898         5.62167         7.71616
     2016.68172         9.98592         7.95431
     2016.68446         8.07317         8.09691
     2016.68720         2.16243         8.21527
     2016.68993         0.88068         7.93577
     2016.69267         0.41793         7.80030
     2016.69541         9.87418         7.89156
     2016.69815         5.88443         7.77463
     2016.70089         7.20469         7.76037
     2016.70362         8.09894         7.96714
     2016.70636         7.80319         8.11687
     2016.70910        10.48444         8.24806
     2016.71184         4.73970         8.00422
     2016.71457         9.21995         7.85306
     2016.71731         4.63120         7.93149
     2016.72005         5.84845         7.98140
     2016.72279        14.87270         7.79031
     2016.72553        13.41996         7.82596
     2016.72826         4.32221         7.94860
     2016.73100         2.75046         7.79459
     2016.73374         5.20871         7.92721
     2016.73648         5.21797         7.79744
     2016.73921         4.09022         8.17534
     2016.74195         9.70547         7.64201
     2016.74469         3.67172         7.75324
     2016.74743         5.09497         7.77748
     2016.75017         9.93523         7.84735
     2016.75290         0.25648         7.87017
     2016.75564        10.57473         7.71616
     2016.75838         5.67598         7.75181
     2016.76112         6.13324         7.84735
     2016.76386         8.06449         7.90154
     2016.76659        -3.05426         7.98568
     2016.76933         1.22199         7.87445
     2016.77207        -1.05676         7.83309
     2016.77481         2.70350         7.88158
     2016.77754         5.11375         7.68051
     2016.78028        -0.70700         7.84593
     2016.78302        -3.93575         7.94004
     2016.78576        -4.86649         7.91723
     2016.78846         6.59370         8.24521
     2016.79124         9.34902         7.90439
     2016.79397         6.90926         7.84735
     2016.79671         0.25151         7.91295
     2016.79945        -7.42523         7.83880
     2016.81961       -18.71192        14.40417
     2016.82135        -6.38222         7.73185
     2016.82409        -0.85796         7.69192
     2016.82683        -1.52871         7.97284
     2016.82956        -5.32946         7.66910
     2016.83230        -2.84221         7.78318
     2016.83504        -0.61695         7.72614
     2016.83778         3.49830         7.73185
     2016.84052        -3.45645         7.95573
     2016.84325        -5.84520         7.92721
     2016.84599       -12.37395         8.17819
     2016.84873        -8.73369         9.53290
     2016.85147        -7.37744         7.82454
     2016.85420         1.45181         7.73470
     2016.85694         0.98506         8.03987
     2016.85968        -6.67769         8.01705
     2016.86242        -5.29843         7.86589
     2016.86516        -4.92818         7.97997
     2016.86789         3.52207         7.87302
     2016.87063         1.84832         7.69049
     2016.87337        -5.68442         7.96144
     2016.87611        -3.12817         7.83024
     2016.87885         0.34908         7.72472
     2016.88158        -6.02367         7.82169
     2016.88432        -0.92942         7.85448
     2016.88706         3.95184         7.82026
     2016.88980        -0.33791         7.78461
     2016.89253        -4.19666         7.82882
     2016.89527        -4.10741         7.72899
     2016.89801        -5.39715         7.78176
     2016.90075        -7.77290         7.78604
     2016.90349         2.72835         8.01848
     2016.90622        -0.77340         7.90867
     2016.90896        -9.21715         7.82739
     2016.91170        -2.49389         7.71046
     2016.91444        -4.16564         7.83167
     2016.91718       -10.40439         7.86447
     2016.91991       -12.79414         7.86589
     2016.92265        -7.99388         7.85448
     2016.92539       -11.54563         7.72329
     2016.92813       -12.23538         7.77035
     2016.93086        -9.91413        10.28726
     2016.93360        -2.98488         7.67053
     2016.93634         1.65638         7.94432
     2016.93908        10.05563         8.17819
     2016.94105        -2.48331        13.07797
     2016.94516       -10.89393        11.08583
     2016.94729        -9.11761         7.84165
     2016.95003        -8.24536         9.29904
     2016.95368         4.89031        13.27334
     2016.95551        -1.18686         7.69905
     2016.95824        -1.25161         7.70475
     2016.96098        -1.38135         7.66055
     2016.96372        -6.30210         7.84593
     2016.96894        -8.05100         8.98674
     2016.97209        -9.82010         8.25805
     2016.97467        -2.26509         7.85163
     2016.97741         2.36416         7.83309
     2016.98015        -2.93759         7.76465
     2016.98288        -7.87034         7.74611
     2016.98562        -1.90908         7.75466
     2016.98836        -2.35483         8.02988
     2016.99110        -2.76058         7.83737
     2016.99384        -4.13233         8.01277
     2016.99657         0.55993         7.82311
     2016.99931         0.97818         7.71188
     2017.00479         0.30068         7.70618
     2017.00752        -1.56407         7.61206
     2017.01300         4.44744         8.93968
     2017.01574         0.47069         7.56786
     2017.01848         1.62994         7.64343
     2017.02121         3.67220         7.81456
     2017.02395        -4.55655         7.89013
     2017.02669        -3.80130         7.86161
     2017.02943        15.08295         7.66197
     2017.03490        -0.14354         7.69477
     2017.03764       -12.54829         7.75752
     2017.04038        -5.24004         7.64486
     2017.04312        -2.85779         7.66197
     2017.04585         6.42347         8.00707
     2017.04859        -2.80328         8.14396
     2017.05133         7.55997         7.81741
     2017.05407         5.04222         7.77035
     2017.05681         4.94647         7.79031
     2017.05954        -5.77127         7.92721
     2017.06228         4.98898         7.73185
     2017.06502        -5.78477         7.71188
     2017.06776        -4.49152         7.77178
     2017.07049        -6.43927         7.66768
     2017.07323        -6.86001         7.73613
     2017.07597        -6.98276         7.81883
     2017.07871        -1.48951         7.95003
     2017.08145        -5.64326         7.72044
     2017.08418        -3.04300         7.83452
     2017.08692        -1.16275         7.68764
     2017.08966        -1.80850         7.74468
     2017.09240        -8.17825         7.98710
     2017.09514        -6.90400         8.04272
     2017.09787        -4.11874         7.77891
     2017.10061        -6.11449         7.84593
     2017.10335        -8.23624         7.86019
     2017.10609       -15.87699         7.71331
     2017.10882        -4.15373         7.96857
     2017.11156        -6.33248        11.10009
     2017.11430       -14.89923         7.82596
     2017.11704       -13.18298         7.76750
     2017.11978        -9.79273         7.72614
     2017.12251       -11.44147         7.79602
     2017.12525        -9.39922         7.82882
     2017.12799        -8.15797         7.92436
     2017.13073        -4.41272         7.77891
     2017.13347         0.15654         7.73185
     2017.13620        -3.93821         7.87160
     2017.13894        -7.67996         7.83167
     2017.14168       -13.73271         7.75324
     2017.14442        -7.05446         7.76179
     2017.14715        -8.85220         7.72186
     2017.14989       -11.34595         7.69049
     2017.15263        -3.18470         7.77035
     2017.15537         4.41455         7.75894
     2017.15811        -3.84619         7.89441
     2017.16084        -1.68194         7.80315
     2017.16358       -14.13469         7.74183
     2017.16632        -4.86044         7.75466
     2017.16906       -11.34319         7.72329
     2017.17180        -7.33193         7.69049
     2017.17453        -5.35268         7.79744
     2017.17727        -8.95543         7.96144
     2017.18001       -13.66918         7.71901
     2017.18275       -12.24392         7.81598
     2017.18548       -13.00267         7.83880
     2017.18822        -8.70142         7.76750
     2017.19096       -10.52517         7.79031
     2017.19370        -9.06492         7.76892
     2017.19644       -13.07066         7.79887
     2017.19917       -10.69341         7.87302
     2017.20191       -17.56716         7.69620
     2017.20465       -16.55691         8.07552
     2017.20739       -12.49665         7.88015
     2017.21013        -9.21140         7.91010
     2017.21286        -5.20615         7.65056
     2017.21560        -9.17790         7.81741
     2017.21834        -7.73765         7.81598
     2017.22108        -3.62539         7.75752
     2017.22381        -6.47114         7.94575
     2017.22655        -9.28489         7.96001
     2017.22929       -11.01064         7.73470
     2017.23203       -10.14738         7.81741
     2017.23477        -7.64913         7.78033
     2017.23750        -8.47588         7.68764
     2017.24024       -15.87363         7.85163
     2017.24298       -11.84338         7.74040
     2017.24572        -9.51412         7.78033
     2017.24846       -12.87787         7.89013
     2017.25119       -11.70562         7.78461
     2017.25393       -10.15737         7.73042
     2017.25667        -8.49211         7.73185
     2017.25941       -16.02286         8.09691
     2017.26214       -10.45561         7.88728
     2017.26488        -8.13536         7.82882
     2017.26762        -2.87511         7.79317
     2017.27036        -9.38185         7.82026
     2017.27310       -10.13960         8.21241
     2017.27583       -10.19335         7.85591
     2017.27857       -14.70210         7.78889
     2017.28131       -15.18784         7.78033
     2017.28405       -16.26459         7.80743
     2017.28679       -18.69734         7.75752
     2017.28952       -12.53709         7.79887
     2017.29226        -8.29784         7.82454
     2017.29500       -12.99958         7.99423
     2017.29774       -12.43833         7.75324
     2017.30047       -16.99308         7.80600
     2017.30321       -13.09083         7.80600
     2017.30595        -8.46958         7.90725
     2017.30869       -17.74032         7.76750
     2017.31143       -14.22707         7.81170
     2017.31416       -13.37482         7.82169
     2017.31690       -15.83857         7.86161
     2017.31964       -12.29731         8.01135
     2017.32238       -12.78006         7.85021
     2017.32512       -15.76581         7.75324
     2017.32785       -17.57756         7.88871
     2017.33059       -16.62031         7.73185
     2017.33333       -17.90705         7.98568
     2017.33607       -13.73480         7.83167
     2017.33880        -9.92355         7.84308
     2017.34154        -1.08930         8.21812
     2017.34428       -11.75604         7.81598
     2017.34702       -15.31379         7.69905
     2017.34976        -6.72954         7.72186
     2017.35249       -11.13029         7.77748
     2017.35523        -7.08004         7.74896
     2017.35797       -12.86178         7.84735
     2017.36071       -12.59753         7.78746
     2017.36344       -18.08728         7.70475
     2017.36618       -15.96603         7.70475
     2017.36892        -7.53177         7.70618
     2017.37166       -15.08952         7.81883
     2017.37440       -10.56527         7.64629
     2017.37713       -10.10202         7.82169
     2017.37987       -15.42677         7.92864
     2017.38261        -4.57351         7.86019
     2017.38535       -12.04026         7.76465
     2017.38809        -6.15501         7.82882
     2017.39082        -5.75776         7.71473
     2017.39356        -3.51150         7.85306
     2017.39630        -2.95325         7.73755
     2017.39904        -5.95600         7.71331
     2017.40177        -6.77275         7.80315
     2017.40451        -6.54450         7.81741
     2017.40725        -2.31824         7.76037
     2017.40999        -1.57199         7.86304
     2017.41273        -7.48174         7.84878
     2017.41546        -6.03949         7.75324
     2017.41820        -5.48223         7.89869
     2017.42094       -10.92398         7.73327
     2017.42368        -8.29973         7.77035
     2017.42642        -2.83548         7.73470
     2017.42915        -1.02123         7.81456
     2017.43189        -0.43297         7.96001
     2017.43463        -5.18172         7.81741
     2017.43737        -0.30347         7.81456
     2017.44010        -3.02222         7.87160
     2017.44284        -3.46696         7.83452
     2017.44558        -1.21471         7.79744
     2017.44832        -3.60846         7.77605
     2017.45106         0.73479         7.74183
     2017.45379        -3.25296         8.06268
     2017.45653       -14.90470         8.09120
     2017.45927        -2.09645         7.78746
     2017.46201        -0.34720         7.81313
     2017.46475        -4.03595         7.79459
     2017.46748        -2.33469         7.95716
     2017.47022        -7.18944         7.95573
     2017.47296        -8.77619         7.88300
     2017.47570        -4.37994         7.68336
     2017.47843        -4.63069         7.71616
     2017.48117        -7.91143         8.16250
     2017.48391         0.30282         7.93006
     2017.48665        -2.84293         7.89726
     2017.48939         0.78932         7.75466
     2017.49212        -1.48442         7.74753
     2017.49486        -7.14317         7.86304
     2017.49760        -6.11892         7.87730
     2017.50034        -2.68467         7.77748
     2017.50308         2.74658         7.87302
     2017.50581         1.48984         7.75752
     2017.50855        -4.35491         7.87302
     2017.51129        -6.24666         7.83024
     2017.51403        -2.91641         7.96999
     2017.51676        -3.09615         7.80457
     2017.51950        -1.26090         7.79317
     2017.52224        -2.71265         7.97712
     2017.52498         1.39460         7.78318
     2017.52772        -4.46715         7.97997
     2017.53045        -2.05889         7.75466
     2017.53319        -1.82464         7.77463
     2017.53593         0.37861         7.85876
     2017.53867         1.68786         7.74896
     2017.54141         2.25011         7.85021
     2017.54414         0.16737         7.78604
     2017.54665         6.00726         8.58175
     2017.54962       -19.69913         7.81456
     2017.55236       -22.47088         7.94432
     2017.55509       -12.44762         7.83880
     2017.55783       -16.92237         7.91580
     2017.56057       -19.37212         7.78461
     2017.56331       -19.82287         7.83452
     2017.56605       -13.03162         8.06268
     2017.56878       -19.02236         7.82311
     2017.57152       -12.44411         7.87587
     2017.57426       -16.47986         7.93862
     2017.57700       -18.52461         7.79459
     2017.57974       -18.44635         7.85306
     2017.58247       -20.21010         8.91544
     2017.58523       -17.82081        11.51934
     2017.58795       -13.36960        10.10759
     2017.59069       -26.62835         8.63879
     2017.59342       -21.21009         7.87302
     2017.59616       -18.08584         7.82739
     2017.59890       -18.21459         7.80885
     2017.60164       -19.50334         7.81028
     2017.60438       -18.41308         7.88586
     2017.60710       -20.01185         8.22382
     2017.60990       -19.40451        10.21311
     2017.61258       -17.75034         8.88407
     2017.61533       -13.81307         8.87979
     2017.61806        -8.69984         8.96535
     2017.62067       -14.92877         8.67444
     2017.62638       -11.03590         9.31615
     2017.62902       -13.23281         9.02239
     2017.63175       -17.13656         8.86553
     2017.63723       -18.67306         8.96820
     2017.63996       -15.35281         8.87694
     2017.64146        25.97151        69.65079
     2017.64544       -10.00030         7.90154
     2017.64818       -19.63105         8.05840
     2017.65092       -15.03980         7.81598
     2017.65366       -13.05554         7.76607
     2017.65639       -24.44729         7.91865
     2017.65913        -9.84904         8.01705
     2017.66187       -17.88179         7.82882
     2017.66461       -16.22354         8.01705
     2017.66735       -12.16328         7.95003
     2017.67008       -11.20903         7.75324
     2017.67282       -10.52278         8.03131
     2017.67556       -13.70853         7.82882
     2017.67830       -12.35127         7.76037
     2017.68104       -14.61202         7.85163
     2017.68377       -10.93777         7.98996
     2017.68651       -12.23652         8.15110
     2017.68925        -7.79327         7.87730
     2017.69199       -11.14801         7.92293
     2017.69472       -12.87976         7.93862
     2017.69746       -12.04451         7.93577
     2017.70020        -8.33226         8.08692
     2017.70294        -4.46200         8.25377
     2017.70568       -14.41575         7.99423
     2017.70841        -8.40250         7.84735
     2017.71115        -7.26325         7.99851
     2017.71389       -20.01900         7.91723
     2017.71663       -18.24674         7.95003
     2017.71937       -21.31449         8.06981
     2017.72210        -8.45824         7.87873
     2017.72484       -13.32299         7.90154
     2017.72758       -11.89373         7.92293
     2017.73032       -12.18148         7.81456
     2017.73305        -8.61023         7.78461
     2017.73579       -12.12598         7.79317
     2017.73853        -8.77873         8.04272
     2017.74127       -11.86047         7.90582
     2017.74401       -11.64922         7.89584
     2017.74674       -15.61297         7.94860
     2017.74948       -14.33372         7.90725
     2017.75222       -10.12647         7.76179
     2017.75496       -14.96221         7.69477
     2017.75770       -15.32796         8.07837
     2017.76043       -11.77571         7.86874
     2017.76317       -10.78946         7.87302
     2017.76591        -6.41420         7.94290
     2017.76865       -10.13195         7.83595
     2017.77138       -16.87570         7.82454
     2017.77412       -19.60245         8.13256
     2017.77686       -15.32420         7.86589
     2017.77960       -14.20994         8.03844
     2017.78234       -24.73469         7.98853
     2017.78507       -10.13444         7.72044
     2017.78781       -17.15219         7.89299
     2017.79055       -16.32193         7.85876
     2017.79329       -15.78168         7.79031
     2017.79603       -14.51043         7.83309
     2017.79876       -14.57018         8.05555
     2017.80150       -15.02893         7.97997
     2017.80424       -14.86867         7.81028
     2017.80698       -21.89242         8.22097
     2017.80971       -23.06117         7.80743
     2017.81245       -24.29392         7.82026
     2017.81519       -24.41766         7.91438
     2017.81793       -17.21641         7.79602
     2017.82067       -21.78416         7.93862
     2017.82340       -20.74991         7.85163
     2017.82614       -14.32966         7.60065
     2017.82888       -19.19040         7.85163
     2017.83162       -11.83215         7.77748
     2017.83436       -20.08290         7.99709
     2017.83709       -20.33165         8.09548
     2017.83983       -26.14939         7.76037
     2017.84257       -21.96414         7.72614
     2017.84531       -26.62189         7.92578
     2017.84804       -22.31164         7.79744
     2017.85078       -11.97339         7.75039
     2017.85352       -16.07513         7.99709
     2017.85626       -17.64288         8.05413
     2017.85900       -18.27863         7.99138
     2017.86173       -13.68838         7.92436
     2017.86447       -17.03112         7.78033
     2017.86721       -21.15687         8.18389
     2017.86995       -16.99062         7.69477
     2017.87269       -13.46437         7.73042
     2017.87542       -17.31712         7.74040
     2017.87816       -20.15286         7.85163
     2017.88090       -12.43161         7.71046
     2017.88364       -17.44236         7.86304
     2017.88637       -16.24011         7.90154
     2017.88911       -12.43185         8.18389
     2017.89185       -18.04660         7.97997
     2017.89459       -15.19235         7.95716
     2017.89733       -19.88310         7.81883
     2017.90006       -18.62985         7.75324
     2017.90280       -16.61059         8.19673
     2017.90554       -14.54334         7.91152
     2017.90828       -16.96809         7.78461
     2017.91102       -14.99384         7.82026
     2017.91375       -23.08258         7.87587
     2017.91649       -13.74133         7.71759
     2017.91923       -16.83108         8.04842
     2017.92197       -16.89283         7.72329
     2017.92470       -17.09958         7.71616
     2017.92744       -15.30532         7.71616
     2017.93018       -14.16607         7.72899
     2017.93292       -14.72982         7.76750
     2017.93566       -14.01857         7.67195
     2017.93839       -13.95831         7.71616
     2017.94113       -14.81206         7.67053
     2017.94387       -15.32881         7.73755
     2017.94661       -12.33056         7.87160
     2017.94935       -19.03931         7.94432
     2017.95208       -10.76305         7.91580
     2017.95482       -15.60580         7.75324
     2017.95756       -18.12555         7.89584
     2017.96030       -18.24730         7.94004
     2017.96303       -15.64804         7.75324
     2017.96577       -20.10979         7.96144
     2017.96851       -17.55654         7.81741
     2017.97125       -13.17029         7.62490
     2017.97399       -19.39004         7.71046
     2017.97672       -19.50378         7.72329
     2017.97946       -15.01953         7.60351
     2017.98494         6.92897         8.08978
     2017.98767       -11.12178         7.90012
     2017.99041       -26.33152         7.78604
     2017.99315       -24.79727         7.73898
     2017.99589       -23.64102         7.87302
     2017.99863       -23.92277         7.67908
     2018.00136       -18.96351         7.67908
     2018.00410       -19.83726         7.80457
     2018.00684       -19.96701         7.70903
     2018.00958       -20.50176         7.68336
     2018.01232       -27.49651         7.78604
     2018.01505       -23.86725         7.71901
     2018.01779       -20.76300         7.72186
     2018.02053       -20.26675         7.89013
     2018.02327       -18.12150         7.77320
     2018.02600       -21.04624         7.87730
     2018.02874       -25.81699         7.81170
     2018.03148       -24.30674         7.85591
     2018.03422       -22.09649         7.74040
     2018.03696       -26.98624         7.70760
     2018.03969       -25.50698         7.78604
     2018.04243       -29.52573         7.92721
     2018.04517       -20.86448         7.78033
     2018.04791       -33.28323         7.97570
     2018.05065       -17.40297         7.62490
     2018.05338       -15.88472         7.76322
     2018.05612       -27.12647         7.84165
     2018.05886       -29.50022         7.82169
     2018.06160       -25.29397         7.72329
     2018.06433       -26.10871         7.84165
     2018.06707       -25.48346         7.86161
     2018.06981       -27.13921         7.89584
     2018.07255       -31.62196         7.99709
     2018.07529       -33.28270         7.86304
     2018.07802       -33.66645         7.91865
     2018.08076       -32.85320         8.01277
     2018.08350       -21.20995         7.76892
     2018.08624       -30.16570         7.87445
     2018.08898       -29.70544         8.11972
     2018.09171       -27.51619         8.05555
     2018.09445       -23.25494         7.90867
     2018.09719       -25.84669         8.02703
     2018.09993       -26.03843         7.81170
     2018.10266       -24.31218         7.97427
     2018.10540       -25.11993         8.08978
     2018.10814       -21.69768         7.92578
     2018.11088       -23.67643         7.84165
     2018.11362       -22.58317         7.82739
     2018.11635       -23.02992         7.90582
     2018.11909       -21.60467         8.09120
     2018.12183         7.84558         8.27801
     2018.12457       -21.67416         7.84593
     2018.12731       -32.62991         7.88015
     2018.13004       -17.22866         7.91580
     2018.13278       -29.73841         7.93862
     2018.13552        -6.52216         7.94147
     2018.13826       -15.19490         7.93719
     2018.14099        -7.63465         7.93006
     2018.14373       -12.57240         7.89013
     2018.14647       -17.25815         8.20243
     2018.14921       -33.19489         8.25234
     2018.15195       -25.18264         7.93862
     2018.15468       -21.59739         7.91152
     2018.15742       -23.78514         7.90867
     2018.16016       -27.57089         7.94147
     2018.16290       -25.62463         8.03844
     2018.16564       -22.13838         7.95003
     2018.16837       -22.57113         7.90725
     2018.17111       -19.56788         7.84022
     2018.17385       -24.62462         7.92293
     2018.17659       -21.97237         7.88586
     2018.17932       -20.57412         7.92578
     2018.18206       -16.54087         8.01562
     2018.18480       -16.48662         7.95716
     2018.18754       -19.10936         7.79174
     2018.19028       -23.67711         7.87302
     2018.19301       -19.68986         7.89299
     2018.19575       -15.28861         8.01420
     2018.19849       -23.69535         7.87445
     2018.20123       -12.92410         8.04842
     2018.20397       -18.17185         7.86589
     2018.20670       -18.68060         7.77035
     2018.20944       -22.67835         7.93577
     2018.21218       -20.16909         7.80600
     2018.21492       -27.78084         7.74326
     2018.21765       -15.61259         7.78033
     2018.22039       -28.51334         7.88300
     2018.22313       -25.67309         7.85163
     2018.22587       -22.29283         7.98568
     2018.22861       -29.64658         7.72044
     2018.23134       -22.08233         7.75466
     2018.23408       -24.23908         7.89584
     2018.23682       -24.74682         7.73898
     2018.23956       -19.46857         7.77891
     2018.24230       -22.29632         7.76465
     2018.24503       -20.80907         7.90439
     2018.24777       -23.11882         7.74896
     2018.25051       -27.83456         7.90582
     2018.25325       -20.80231         7.75752
     2018.25598       -24.96606         7.75466
     2018.25872       -20.09781         7.94860
     2018.26146       -19.78455         8.12400
     2018.26420       -17.00030         8.12685
     2018.26694       -32.17105         7.78318
     2018.26967       -25.10180         7.85021
     2018.27241       -24.04055         7.94860
     2018.27515       -12.93229         7.86019
     2018.27789       -20.84504         8.04557
     2018.28062       -25.68879         8.00279
     2018.28336       -22.62954         7.95573
     2018.28610       -31.69528         7.83595
     2018.28884       -18.87203         7.85448
     2018.29158       -15.22678         7.91438
     2018.29431       -15.66353         7.84022
     2018.29705       -25.67428         7.72472
     2018.29979       -23.92002         7.84165
     2018.30253       -28.60977         7.98140
     2018.30527       -21.96752         7.77035
     2018.30801       -19.17126         7.88300
     2018.31074       -22.35801         9.35037
     2018.31348       -21.23276         8.47337
     2018.31620       -24.55453         9.04948
     2018.31896       -20.03725         8.92970
     2018.32168       -19.90503         8.28514
     2018.32443       -20.12775         7.77178
     2018.32717       -23.30750         7.81741
     2018.32991       -14.24025         7.98283
     2018.33264       -19.81500         7.83880
     2018.33538       -18.76474         8.36215
     2018.33812       -20.30449         8.05555
     2018.34086       -17.46624         7.98140
     2018.34360       -25.10499         7.91010
     2018.34633       -19.20474         7.68764
     2018.34907       -23.48348         7.93434
     2018.35181       -16.56123         8.17962
     2018.35455       -16.64098         7.76465
     2018.35728       -21.94773         7.75324
     2018.36002       -20.19847         7.92151
     2018.36276       -17.32222         7.89156
     2018.36550       -19.00397         7.79459
     2018.36824       -21.65272         7.96571
     2018.37097       -18.98947         7.94718
     2018.37371       -18.87121         7.84593
     2018.37645       -17.45396         7.95003
     2018.37919       -17.22971         7.78318
     2018.38193       -18.81046         7.78176
     2018.38466       -18.83820         7.77605
     2018.38740       -17.35395         7.75752
     2018.39014       -11.21970         7.88015
     2018.39288       -15.22645         7.81170
     2018.39561       -15.51820         7.75466
     2018.39835       -12.92894         7.82026
     2018.40109       -14.76769         7.71616
     2018.40383       -15.06144         7.89156
     2018.40657       -14.92519         8.02275
     2018.40930        -9.67793         8.02275
     2018.41204        -9.33768         7.72329
     2018.41478       -19.18743         7.75324
     2018.42299       -10.95167         7.83309
     2018.42573       -12.56842         7.82882
     2018.42847       -11.78817         7.87017
     2018.43121        -9.66592         7.88015
     2018.43394       -13.85267         7.80315
     2018.43668       -22.99641         8.00849
     2018.43942       -17.05516         7.76465
     2018.44216       -17.53091         7.77748
     2018.44490       -17.42466         7.72044
     2018.44763       -16.97240         7.85591
     2018.45037       -16.08615         7.82882
     2018.45311       -17.58690         7.73613
     2018.45585        -6.15065         7.83024
     2018.45859       -13.64540         7.99994
     2018.46132       -22.47314         7.97142
     2018.46406       -13.26589         7.85734
     2018.46680       -13.11664         7.78604
     2018.46954       -11.90939         7.77035
     2018.47227       -10.63513         7.94004
     2018.47501        -7.27888         7.78033
     2018.47775       -15.90163         7.97570
     2018.48049       -19.67938         8.16393
     2018.48323       -13.83213         7.78889
     2018.48596       -16.66587         7.77605
     2018.48870       -12.60562         7.98710
     2018.49144       -15.28937         7.74611
     2018.49418       -14.50012         7.92864
     2018.49692       -12.57586         7.98996
     2018.49965        -7.60961         7.88871
     2018.50239       -14.22536         7.83024
     2018.50513       -15.50911         7.94147
     2018.50787       -13.28886         7.87730
     2018.51060       -17.96460         7.88158
     2018.51334        -9.90335         7.79459
     2018.51608       -14.53510         7.97712
     2018.51882       -10.59285         7.82882
     2018.52156       -12.44559         7.84450
     2018.52429       -13.94034         7.86589
     2018.52703       -15.92609         7.76750
     2018.52977       -14.02384         7.95716
     2018.53251       -12.30259         7.88158
     2018.53525       -12.44133         7.78318
     2018.53798       -11.97708         8.00422
     2018.54072       -11.85083         7.82311
     2018.54346        -8.51058         7.92008
     2018.54620        -3.67332         7.74753
     2018.54893       -12.64907         7.75894
     2018.55167       -15.64082         8.04129
     2018.55441       -15.55557         7.73898
     2018.55715       -10.79132         8.01990
     2018.55989       -20.20806         8.00279
     2018.56262       -15.19181         7.78604
     2018.56536        -9.59756         7.77463
     2018.56810        -9.77031         7.89726
     2018.57084       -12.20305         7.80315
     2018.57357        -9.77980         8.10546
     2018.57631       -10.72755         8.42917
     2018.57905        -8.94230         8.14539
     2018.58179       -11.09305         7.96144
     2018.58453       -10.77679         8.03131
     2018.58726       -16.45654         7.84022
     2018.59000       -11.55529         7.77178
     2018.59274        -8.65704         7.82596
     2018.59548        -9.74178         7.85448
     2018.59822       -10.07753         7.81598
     2018.60095       -14.85628         7.84165
     2018.60369       -14.84703         7.78604
     2018.60643        -5.50878         7.87730
     2018.60917        -5.19352         7.93719
     2018.61190       -11.02627         7.71331
     2018.61464       -11.83302         7.89584
     2018.61738        -8.98877         7.75752
     2018.62012        -9.97151         7.89156
     2018.62286        -5.55726         7.89584
     2018.62559       -12.82601         7.99851
     2018.62833       -13.16476         7.81028
     2018.63107       -10.35851         7.75752
     2018.63381       -12.95625         8.04414
     2018.63655        -9.76300         7.78033
     2018.63928        -3.80175         8.11259
     2018.64202       -12.94450         8.30510
     2018.64476        -4.09424         7.76607
     2018.64750       -10.26599         7.71331
     2018.65023        -6.82174         7.89156
     2018.65297        -8.00549         7.83024
     2018.65571        -8.95124         7.84308
     2018.65845       -10.47898         7.82882
     2018.66119         1.21827         7.94004
     2018.66392        -4.36148         7.69049
     2018.66666        -8.32823         7.86019
     2018.66940       -12.14498         7.85876
     2018.67214       -14.80972         7.98283
     2018.67488       -14.03947         7.73898
     2018.67761       -10.43122         7.78033
     2018.68035       -12.86197         7.86874
     2018.68309       -20.72371         7.95145
     2018.68583       -15.29046         7.82169
     2018.68856       -10.62621         7.88443
     2018.69130       -12.04596         7.92293
     2018.69404       -17.76171         7.97997
     2018.69678       -12.86345         7.89299
     2018.69952       -17.80720         7.93149
     2018.70225       -13.55995         8.07694
     2018.70499       -14.84270         7.76179
     2018.70773       -22.51844         8.23380
     2018.71047       -18.36319         7.88300
     2018.71321       -12.66094         7.73898
     2018.71594       -12.82769         7.76750
     2018.71868       -16.78244         7.85306
     2018.72142       -15.80518         7.84878
     2018.72416       -10.26993         8.06411
     2018.72689       -16.47768         8.02418
     2018.72963       -13.96743         7.82739
     2018.73237       -18.40017         7.81456
     2018.73511       -14.78792         7.93006
     2018.73785       -17.13567         7.84593
     2018.74058       -20.15442         7.98283
     2018.74332       -13.67917         7.97855
     2018.74606       -15.91691         7.82882
     2018.74880       -16.16366         8.05127
     2018.75154       -20.80141         8.05983
     2018.75427       -15.91916         7.83167
     2018.75701       -11.62690         8.05413
     2018.75975       -16.14865         7.85734
     2018.76249       -19.85940         7.77605
     2018.76522       -22.46915         7.94004
     2018.76796       -21.26490         7.82739
     2018.77070       -13.49464         7.88015
     2018.77344       -12.43439         7.89584
     2018.77618       -15.88914         7.83880
     2018.77891        -8.83989         7.92151
     2018.78165       -20.21663         7.98996
     2018.78439        -8.12038         7.79744
     2018.78713       -15.09913         7.77891
     2018.78987       -23.38788         8.04272
     2018.79260       -14.49863         7.83167
     2018.79534       -10.00137         7.74326
     2018.79808       -21.89712         7.75181
     2018.80082       -16.70887         7.81313
     2018.80355       -16.85562         7.81598
     2018.80629       -13.56936         8.20243
     2018.80903       -19.52411         7.97570
     2018.81177       -16.45886         8.28371
     2018.81451       -19.91061         8.07979
     2018.81724       -18.48036         7.99138
     2018.81998       -12.80010         7.96144
     2018.82272       -14.16485         8.07552
     2018.82546       -16.50460         7.90725
     2018.82820       -23.08335         7.81313
     2018.83093       -19.62509         7.91580
     2018.83367       -18.50984         7.90725
     2018.83641        -6.80559         8.02275
     2018.83915        -8.18034         7.86161
     2018.84188       -22.74409         8.17106
     2018.84462       -16.46483         7.78461
     2018.84736       -23.05058         7.80457
     2018.85010       -19.36933         7.85876
     2018.85284       -19.41308         7.74326
     2018.85557       -26.14682         7.90867
     2018.85831       -18.47157         7.75752
     2018.86105       -17.14732         7.74753
     2018.86379       -14.03607         7.84022
     2018.86653       -12.45282         7.87302
     2018.86926       -21.28456         7.95716
     2018.87200       -22.40231         7.90154
     2018.87474       -15.46306         7.78746
     2018.87748       -17.80681         7.86019
     2018.88021       -10.84155         8.00564
     2018.88295       -11.25230         7.88586
     2018.88569       -15.00005         7.87587
     2018.88843       -10.14380         7.90725
     2018.89117       -19.33155         8.12400
     2018.89390       -16.15529         7.96001
     2018.89664       -24.87804         8.06411
     2018.89938       -15.94279         7.98140
     2018.90212       -17.02154         8.01848
     2018.90485       -16.43729         8.15537
     2018.90759       -15.47603         7.99709
     2018.91033       -15.06378         8.02418
     2018.91307        -7.80453         8.01562
     2018.91597        -9.52103         8.43345
     2018.91854       -11.61802         7.76465
     2018.92128       -10.98477         7.72757
     2018.92402       -11.24552         7.90012
     2018.92676        -9.53227         7.80885
     2018.92950        -9.88902         7.86161
     2018.93223       -12.79976         8.04557
     2018.93497       -15.67851         8.01420
     2018.93771       -18.28226         7.87017
     2018.94045       -15.19401         7.85021
     2018.94318       -16.91475         7.84593
     2018.94592       -12.42450         7.86447
     2018.94866       -14.37325         7.97855
     2018.95140       -12.83000         7.94432
     2018.95414        -3.11975         7.77035
     2018.95687       -19.08649         7.94004
     2018.95961       -18.06524         7.98140
     2018.96235       -14.66499         7.94860
     2018.96509       -16.98774         7.91580
     2018.96783       -16.53348         7.92293
     2018.97056        -6.32223         7.97712
     2018.97330       -12.15998         7.86447
     2018.97604       -27.45473         8.07409
     2018.97878       -19.74548         7.84878
     2018.98151       -27.63722         7.62347
     2018.98425       -16.99497         8.15110
     2018.98699       -22.48672         8.01705
     2018.98973       -20.50847         7.80315
     2018.99247       -15.78621         7.91723
     2018.99520       -22.52096         7.96144
     2018.99794       -24.28171         7.74896
     2019.00068       -20.79546         7.77320
     2019.00342       -19.62421         8.01705
     2019.00616       -24.94095         7.95573
     2019.00889       -23.75670         7.95288
     2019.01163       -21.04445         7.89584
     2019.01437       -15.68920         7.93434
     2019.01711       -10.94394         7.78461
     2019.01984       -23.76569         7.86589
     2019.02258       -19.50444         7.73755
     2019.02532       -22.13419         8.02418
     2019.02806       -22.55494         8.03131
     2019.03080       -19.39968         7.91010
     2019.03353       -21.00343         7.98710
     2019.03627       -21.04318         7.75609
     2019.03901       -11.43593         7.64629
     2019.04175       -19.72567         7.90012
     2019.04449       -17.11942         7.87302
     2019.04722       -24.97117         8.11402
     2019.04996       -27.53492         8.16108
     2019.05270       -28.26267         8.25947
     2019.05544       -21.34641         7.91865
     2019.05817       -28.29916         8.19388
     2019.06091       -23.05991         8.14396
     2019.06365       -19.40066         7.98853
     2019.06639       -17.14540         7.91010
     2019.06913       -23.51615         8.14967
     2019.07186       -22.47890         8.00422
     2019.07460       -23.90265         7.89299
     2019.07734       -10.01840         7.73613
     2019.08008        -6.56614         7.71759
     2019.08282       -17.31989         8.05983
     2019.08555       -19.42564         7.79602
     2019.08829       -17.26439         7.86304
     2019.09103        -6.45913         7.77463
     2019.09377        -9.25488         7.82169
     2019.09650        -1.14963         7.66768
     2019.09924       -11.97038         7.68194
     2019.10198       -16.17413         7.69049
     2019.10472       -11.22087         7.64486
     2019.10746        -8.31562         8.11687
     2019.11019       -12.94137         7.77035
     2019.11293         2.32488         8.59316
     2019.11567       -21.21487         8.19245
     2019.11841        -9.54861         7.80172
     2019.12115         0.31964         7.96144
     2019.12388        -9.86911         8.03701
     2019.12662       -14.67486         8.03274
     2019.12936       -17.99360         7.80172
     2019.13210        -9.82435         7.69192
     2019.13483       -22.94310         7.90582
     2019.13757       -18.42985         7.98283
     2019.14031       -12.47560         7.74896
     2019.14305       -10.76334         7.69762
     2019.14579       -20.81009         7.92721
     2019.14852       -22.21684         8.10404
     2019.15126       -11.41059         7.81598
     2019.15400       -10.46133         7.79174
     2019.15674       -11.94108         7.79317
     2019.15948       -11.73183         7.72329
     2019.16221       -23.30658         7.99281
     2019.16495       -15.29533         7.68194
     2019.16769       -19.63307         7.75039
     2019.17043       -19.02482         7.61919
     2019.17316       -13.86157         7.75039
     2019.17590       -10.18932         7.79744
     2019.17864       -16.96906         7.85163
     2019.18138       -20.34981         7.80457
     2019.18412        17.36144         8.49619
     2019.18685       -16.84431         7.77035
     2019.18959       -19.50706         7.85876
     2019.19233       -27.09880         8.07694
     2019.19507       -24.30055         7.79174
     2019.19780       -25.19630         7.80885
     2019.20054       -17.96305         7.94432
     2019.20328       -24.42779         7.76465
     2019.20602       -20.78354         8.15252
     2019.20876       -26.82729         7.78889
     2019.21149       -19.28304         7.91580
     2019.21423       -20.80579         7.77035
     2019.21697       -20.28453         7.89584
     2019.21971       -23.14128         8.18389
     2019.22245       -14.11003         7.70903
     2019.22518       -17.10278         7.80885
     2019.22792       -23.00252         8.00136
     2019.23066       -24.18227         7.85591
     2019.23340       -17.54602         7.74896
     2019.23613       -23.84077         7.76750
     2019.23887       -25.92052         7.77605
     2019.24161       -25.16126         8.23523
     2019.24435       -20.46901         7.99423
     2019.24709       -20.93276         7.93291
     2019.24982       -15.45151         7.67908
     2019.25256       -15.94825         7.88728
     2019.25530       -20.07700         7.80885
     2019.25804       -26.37275         7.82882
     2019.26078       -19.24650         7.79174
     2019.26351       -26.19525         7.97855
     2019.26625       -29.84199         7.73898
     2019.26899       -20.95574         7.97570
     2019.27173       -23.10549         8.09548
     2019.27446       -26.89924         7.72614
     2019.27720       -23.00998         7.91865
     2019.27994       -13.50673         7.74326
     2019.28268       -22.23948         7.88158
     2019.28542       -20.10223         7.83309
     2019.28815       -22.85598         7.83167
     2019.29089       -18.08272         7.79174
     2019.29363       -11.89447         7.81313
     2019.29637       -18.92622         7.78318
     2019.29911       -14.73297         7.74326
     2019.30184       -15.20971         7.74468
     2019.30458       -21.23846         7.81883
     2019.30732       -20.57921         7.90154
     2019.31006       -11.49396         7.91295
     2019.31279       -23.95371         7.92151
     2019.31553         0.29055         7.71616
     2019.31827       -16.04220         7.72044
     2019.32101       -17.88795         7.69334
     2019.32375       -19.72370         7.76179
     2019.32648       -22.32344         7.86874
     2019.32922       -20.15019         7.85876
     2019.33196       -15.03894         7.87445
     2019.33470       -14.40569         7.86019
     2019.33744       -13.11944         7.86447
     2019.34017       -20.38818         7.83452
     2019.34291       -24.14393         7.88015
     2019.34565       -17.53068         7.91295
     2019.34839       -21.24343         7.98140
     2019.35112       -17.11418         7.75894
     2019.35386       -14.47792         7.83309
     2019.35660       -12.74467         7.77891
     2019.35934       -19.65842         7.80315
     2019.36208       -15.10217         7.82739
     2019.36481       -15.96691         7.79174
     2019.36755       -15.71266         7.77178
     2019.37029       -23.20441         7.88300
     2019.37303       -20.83516         7.88158
     2019.37577       -18.67991         8.13541
     2019.37850       -21.30665         8.02133
     2019.38124        -9.34240         7.92578
     2019.38398       -10.70815         7.83737
     2019.38672       -17.71590         7.85306
     2019.38945       -18.49164         7.85163
     2019.39219       -18.18039         7.92151
     2019.39493       -14.78914         7.80030
     2019.39767       -19.53089         7.78033
     2019.40041       -15.00164         7.86732
     2019.40314       -12.62538         7.72044
     2019.40588       -13.31913         7.72757
     2019.40862        -7.23088         7.73755
     2019.41136       -14.51963         7.82454
     2019.41410       -15.11837         7.86589
     2019.41683       -15.47112         8.07124
     2019.41957       -14.39187         7.89013
     2019.42231       -16.75162         7.77463
     2019.42505       -17.68337         8.09120
     2019.42778        -9.82411         7.92864
     2019.43052        -7.88886         8.41206
     2019.43326       -21.69661         7.84165
     2019.43600       -20.43336         7.72472
     2019.43874       -14.69510         7.82169
     2019.44147       -19.63185         8.03274
     2019.44421       -14.33460         7.98996
     2019.44695       -18.98235         8.01990
     2019.44969       -14.23510         7.91010
     2019.45243       -16.10384         7.84735
     2019.45516       -16.84659         7.99281
     2019.45790       -13.48434         7.92293
     2019.46064       -15.82809         7.89299
     2019.46338       -19.52283         8.22525
     2019.46611       -12.16358         8.28086
     2019.46885        -8.39733         8.03131
     2019.47159        -9.05608         7.93434
     2019.47433       -11.11183         8.20386
     2019.47707       -13.09457         7.94004
     2019.47980       -16.84932         7.98853
     2019.48254       -13.81007         8.00707
     2019.48528       -23.52782         8.13683
     2019.48802       -25.21956         7.85734
     2019.49076       -17.94631         7.85021
     2019.49349       -13.75106         7.80600
     2019.49623       -18.07981         7.73470
     2019.49897       -25.42156         7.80885
     2019.50171       -12.98130         7.74611
     2019.50444       -14.65605         8.12685
     2019.50718       -13.39480         7.77320
     2019.50992       -12.22755         7.79459
     2019.51266       -19.90529         7.76465
     2019.51540       -13.08304         7.76322
     2019.51813       -20.45779         7.80315
     2019.52087       -20.17854         7.95288
     2019.52361       -18.88729         8.01277
     2019.52635       -20.49503         8.36928
     2019.52908        -9.15478         8.21812
     2019.53182       -22.57853         7.99709
     2019.53456       -22.01928         8.06981
     2019.53730       -17.76902         7.93149
     2019.54004       -15.12477         7.99994
     2019.54277       -14.35052         8.12543
     2019.54551       -16.83427         8.56036
     2019.54825       -20.91202         7.90012
     2019.55099       -18.13976         7.93862
     2019.55373       -17.67851         7.97142
     2019.55646        -9.84026         8.09833
     2019.55920       -18.13301         8.18675
     2019.56194       -14.90475         7.83452
     2019.56468       -18.96550         8.25092
     2019.56741       -19.41525         7.86589
     2019.57015       -14.60400         7.75752
     2019.57289       -22.03975         7.90725
     2019.57563       -10.54849         7.76465
     2019.57837       -18.41624         8.03131
     2019.58110       -12.00299         7.93719
     2019.58384       -17.39974         8.40207
     2019.58658       -13.45349         8.11544
     2019.58932       -12.84823         7.82596
     2019.59206        -5.19598         7.94718
     2019.59479       -12.91173         7.85591
     2019.59753       -15.31248         8.20671
     2019.60027       -10.54522         8.15395
     2019.60301       -16.27197         7.87017
     2019.60574       -19.05272         8.23666
     2019.60848       -10.58347         8.33077
     2019.61122       -16.19222         7.87445
     2019.61396       -11.85696         7.81456
     2019.61670        -9.39871         7.80172
     2019.61943        -6.50946         7.83737
     2019.62217       -10.72921         8.09548
     2019.62491       -14.69995         7.82026
     2019.62765        -9.43370         7.93862
     2019.63039       -10.25445         7.79459
     2019.63312       -21.38220         7.82169
     2019.63586       -16.32995         8.23951
     2019.63860       -12.91469         8.10261
     2019.64134       -22.97844         8.02133
     2019.64407       -12.97719         8.27373
     2019.64681       -16.82394         7.91295
     2019.64955       -15.73968         7.92008
     2019.65229        -7.24343         7.80885
     2019.65503       -19.82418         7.89013
     2019.65776       -25.36793         8.18675
     2019.66050       -13.13468         8.07409
     2019.66324       -21.17242         7.98853
     2019.66598       -14.76217         7.92151
     2019.66872       -11.40092         7.82311
     2019.67145       -19.05267         8.05983
     2019.67419       -16.17341        33.19618
     2019.67695       -18.67913         8.15395
     2019.67967       -11.62091         8.07694
     2019.68240       -12.49966         7.80743
     2019.68514       -21.09141         8.18960
     2019.68788       -21.78315         8.13398
     2019.69062       -20.71190         8.15680
     2019.69336       -22.45365         8.04129
     2019.69609       -18.69240         8.01135
     2019.69883       -24.18814         8.51901
     2019.70157       -12.69889         8.05127
     2019.70430       -18.78065         8.28514
     2019.70705       -22.24439         8.18817
     2019.70978       -17.21214         7.98710
     2019.71252       -26.04188         7.97997
     2019.71526       -17.08963         7.75039
     2019.71800       -16.07738         8.08550
     2019.72073       -11.99213         8.23380
     2019.72347       -14.99287         7.92578
     2019.72621       -25.29562         8.01562
     2019.72895       -14.76437         7.84022
     2019.73169       -11.73312         7.90725
     2019.73442       -13.25787         8.10546
     2019.73716       -10.22561         8.34361
     2019.73990       -13.51636         8.44485
     2019.74264       -16.37410         8.15252
     2019.74538       -10.35386         7.93006
     2019.74811        -9.91360         7.97142
     2019.75085       -11.37835         7.96001
     2019.75359       -13.79610         8.21669
     2019.75633       -18.16085         7.88728
     2019.75906       -14.23060         7.79602
     2019.76180       -17.08234         7.75181
     2019.76454       -15.36109         7.97142
     2019.76728       -21.94584         8.16963
     2019.77002       -16.42359         7.89013
     2019.77275       -14.47433         7.98853
     2019.77549       -14.03808         7.82026
     2019.77823       -15.44983         7.90297
     2019.78097        -9.90958         7.93577
     2019.78371       -14.69933         7.87873
     2019.78644       -16.10507         7.94290
     2019.78918       -15.51182         8.21812
     2019.79192       -10.96257         7.99709
     2019.79466       -14.71732         8.46054
     2019.79739       -17.65507         7.89299
     2019.80013       -13.45581         8.06126
     2019.80287       -19.74056         8.15965
     2019.80561       -17.12531         8.26945
     2019.80835       -19.63806         7.84165
     2019.81108       -14.22480         7.85734
     2019.81382        -6.07355         8.11402
     2019.81656       -19.68530         7.92293
     2019.81930       -16.02505         7.89869
     2019.82203       -16.18880         7.87730
     2019.82477       -13.92354         8.03987
     2019.82751       -15.97629         7.91723
     2019.83025       -16.64404         8.00992
     2019.83299       -16.00179         7.90439
     2019.83572       -14.46853         7.93149
     2019.83846       -10.75128         7.82739
     2019.84120       -13.70003         7.85163
     2019.84394       -17.87578         8.11402
     2019.84668       -23.43853         7.84165
     2019.84941       -13.31827         7.80600
     2019.85215       -12.66002         7.88586
     2019.85489       -26.00477         8.05983
     2019.85763       -20.79352         7.97570
     2019.86036       -14.42726         8.05983
     2019.86310       -22.67301         7.91438
     2019.86584        -7.57576         8.00136
     2019.86858       -15.49151         7.97855
     2019.87132       -12.81926         8.13969
     2019.87405       -12.35700         7.88300
     2019.87679       -25.74375         8.25092
     2019.87953       -10.12650         7.92151
     2019.88227        -4.61125         7.99851
     2019.88501        -7.73299         7.81598
     2019.88774        -5.93174         8.07694
     2019.89048        -5.47949         7.71901
     2019.89322        -0.81624         8.02703
     2019.89596       -10.59499         7.86447
     2019.89869       -10.32873         7.78176
     2019.90143        -8.36748         7.73755
     2019.90417        -3.89823         7.81313
     2019.90691        -6.93698         7.72757
     2019.90965       -12.94072         7.74183
     2019.91238        -8.38047         7.82882
     2019.91512        -5.39022         7.76607
     2019.91786        -3.65697         7.82882
     2019.92060        -5.67072         7.70903
     2019.92334        -6.41946         7.79174
     2019.92607        -6.98821         7.80457
     2019.92881        -8.81396         7.84450
     2019.93155       -16.81671         7.80030
     2019.93429       -11.78845         7.69334
     2019.93702       -12.99720         7.77748
     2019.93976       -25.13895         8.14539
     2019.94250       -20.35070         7.96857
     2019.94524       -30.94645         8.17391
     2019.94798       -20.40419         7.80457
     2019.95071       -17.90594         8.17391
     2019.95345       -14.57269         7.77320
     2019.95619       -15.40144         7.76892
     2019.95893       -12.88818         7.79031
     2019.96167       -11.80793         7.72186
     2019.96440       -19.02868         8.06268
     2019.96714       -21.36043         7.99709
     2019.96988       -30.52618         7.94290
     2019.97262       -21.02892         7.86019
     2019.97535       -18.72167         7.81456
     2019.97809       -16.94042         7.73613
     2019.98083       -22.51717         7.70760
     2019.98357       -21.45791         7.73042
     2019.98631       -17.86666         7.80172
     2019.98904       -21.37541         7.82596
     2019.99178       -16.43616         7.80457
     2019.99452       -17.66391         7.77605
     2019.99726       -18.38865         8.14682
     2020.00000       -15.13540         7.96144
     2020.00273       -21.16115         7.83309
     2020.00547       -11.51290         8.12400
     2020.00821       -18.32864         8.10689
     2020.01095       -17.50539         7.93577
     2020.01368       -28.99814         7.98853
     2020.01642       -19.10389         8.14396
     2020.01916       -20.39364         7.99281
     2020.02190       -25.41938         7.96999
     2020.02464       -24.10413         7.96999
     2020.02737       -19.62388         7.90725
     2020.03011       -26.60163         7.79887
     2020.03285       -31.57838         7.77463
     2020.03559       -27.64712         7.58069
     2020.03833       -18.01987         7.66340
     2020.04106       -23.86862         7.89156
     2020.04380       -23.46537         7.87587
     2020.04654       -26.03811         7.65056
     2020.04928       -25.45186         7.63060
     2020.05201       -20.42061         7.76750
     2020.05475       -20.54036         7.74183
     2020.05749       -29.73511         7.75181
     2020.06023       -30.85785         7.84735
     2020.06297       -31.82860         7.85734
     2020.06570       -23.58835         7.70047
     2020.06844       -18.93110         7.95145
     2020.07118       -20.11384         7.66340
     2020.07392       -27.51759         7.99709
     2020.07666       -29.14934         7.76037
     2020.07939       -26.92709         7.69620
     2020.08213       -21.95784         7.97855
     2020.08487       -17.90358         7.75752
     2020.08761       -19.06633         7.59495
     2020.09034       -15.90908         7.63060
     2020.09308       -22.12783         7.69192
     2020.09582       -28.48657         7.79459
     2020.09856       -29.77332         7.83452
     2020.10130       -23.89007         7.73755
     2020.10403       -29.60282         7.72614
     2020.10677       -30.66657         7.85306
     2020.10951       -27.77931         7.66055
     2020.11225       -17.91806         7.68907
     2020.11498       -17.61081         7.65484
     2020.11772       -25.17556         7.85734
     2020.12046       -29.27230         7.91295
     2020.12320       -33.79605         7.80030
     2020.12594       -27.92480         7.80743
     2020.12867       -28.52555         7.82026
     2020.13141       -22.43330         7.72186
     2020.13415       -21.94804         7.60351
     2020.13689       -19.16379         7.72614
     2020.13963       -15.94654         7.81456
     2020.14236       -16.88929         7.69049
     2020.14510        -8.38003         7.73898
     2020.14784       -23.90878         7.84308
     2020.15058       -24.80753         7.67766
     2020.15331       -22.39528         7.66340
     2020.15605       -19.21303         7.65056
     2020.15879       -15.07577         7.66768
     2020.16153       -26.55152         7.69477
     2020.16427       -19.35527         7.86161
     2020.16700       -17.86802         7.72472
     2020.16974       -20.86676         7.71901
     2020.17248       -17.54051         8.11830
     2020.17522       -13.51326         7.64914
     2020.17796       -18.79601         7.66197
     2020.18069       -26.57076         7.60778
     2020.18343       -21.96850         7.70475
     2020.18617       -19.44925         7.69905
     2020.18891       -16.19200         7.78461
     2020.19164       -20.78175         7.91010
     2020.19438       -20.81849         7.94147
     2020.19712       -20.17924         7.79602
     2020.19986         5.01901         8.01135
     2020.20260       -17.42974         7.97427
     2020.20533       -18.97949         8.12543
     2020.20807       -16.66823         8.11259
     2020.21081       -17.35098         7.89869
     2020.21355       -13.94373         8.65733
     2020.21629       -11.74248         8.16536
     2020.21902       -16.31622         7.92436
     2020.22179       -20.47993         7.97284
     2020.22450       -16.46872         7.94147
     2020.22724       -18.58847         7.93719
     2020.22997       -21.14722         7.87017
     2020.23271       -15.42696         7.82311
     2020.23545       -16.22971         7.79317
     2020.23819       -22.55446         7.82739
     2020.24093       -18.80821         7.80743
     2020.24366       -19.75395         7.95145
     2020.24640       -28.21170         7.97142
     2020.24914       -25.85645         7.81598
     2020.25188       -24.53720         7.85448
     2020.25462       -22.35395         7.71473
     2020.25735       -14.98069         7.83167
     2020.26009        -9.21544         7.77035
     2020.26283       -12.34819         7.83880
     2020.26557       -12.32094         7.77891
     2020.26830       -15.32969         7.79744
     2020.27104       -12.71343         7.91438
     2020.27378       -16.63318         7.94860
     2020.27652       -11.82693         7.80885
     2020.27929       -14.59262         8.25519
     2020.28199        -5.72942        12.30507
     2020.28473        -3.56217        11.74608
     2020.28747        -5.08992        11.68333
     2020.29021       -13.58467         7.96571
     2020.29295       -14.97242         7.84878
     2020.29568       -19.67616         8.09548
     2020.29842       -13.00191         7.94004
     2020.30116       -11.30766         7.85021
     2020.30390        -7.58441         7.72329
     2020.30663       -18.94715         7.98568
     2020.30937       -18.88190         7.99851
     2020.31211       -16.72265         8.21954
     2020.31485       -25.87640         8.22667
     2020.31759       -15.88115         7.63060
     2020.32032       -11.47589         8.21384
     2020.32305       -10.99966         7.84593
     2020.32580       -19.27339         7.84308
     2020.32854       -12.93914         7.91295
     2020.33128       -17.50588         7.74326
     2020.33401       -17.89563         7.74040
     2020.33675       -19.68338         7.90439
     2020.33949       -21.13713         7.94290
     2020.34223       -21.31388         8.04557
     2020.34496       -16.87362         8.27944
     2020.34770       -23.16937         7.91010
     2020.35044        -9.36212         7.82169
     2020.35318       -13.47087         7.89584
     2020.35592       -10.54661         8.00136
     2020.35865       -13.63236         7.95431
     2020.36139       -19.49511         7.79887
     2020.36413       -13.58586         7.82596
     2020.36687       -16.13061         7.76892
     2020.36961       -24.32135         8.00992
     2020.37234        -8.78310         7.74611
     2020.37508       -15.58085         7.96571
     2020.37782       -11.12260         7.73327
     2020.38056       -19.08834         7.67766
     2020.38329       -13.51509         7.69192
     2020.38603       -15.57984         7.83024
     2020.38877       -17.86159         7.96001
     2020.39151       -15.46334         7.81741
     2020.39425       -12.84808         7.68336
     2020.39698       -15.07683         7.84165
     2020.39972       -15.00158         7.93149
     2020.40246       -13.31533         7.81456
     2020.40520       -15.34907         8.00136
     2020.40794       -12.33682         7.79602
     2020.41067       -13.88157         7.91865
     2020.41341       -14.80732         7.71046
     2020.41615       -14.18707         7.75039
     2020.41889       -15.32981         7.74611
     2020.42162       -17.51856         8.20386
     2020.42436       -15.89531         8.27231
     2020.42710       -12.42706         8.16536
     2020.42984       -10.33880         8.04414
     2020.43258       -22.14055         7.88015
     2020.43531       -21.06830         7.93149
     2020.43805       -26.85805         8.00422
     2020.44079       -21.17980         7.95003
     2020.44353       -16.08754         8.26660
     2020.44626       -13.88429         7.90725
     2020.44900       -18.69004         7.75609
     2020.45174       -17.09779         7.80315
     2020.45448       -13.70953         7.80457
     2020.45722       -17.11128         7.81883
     2020.45995       -13.40703         7.87302
     2020.46269       -20.04478         7.79459
     2020.46543       -13.61953         7.78033
     2020.46817       -11.34727         8.07694
     2020.47091        -7.30002         7.86161
     2020.47364       -13.65577         7.68479
     2020.47638       -14.56452         7.70760
     2020.47912        -7.89827         8.18532
     2020.48186       -14.71401         7.80315
     2020.48459       -22.75176         8.16108
     2020.48733       -18.33951         8.13826
     2020.49007        -7.21926         8.13826
     2020.49281       -13.77100         7.96571
     2020.49555       -15.12575         7.87017
     2020.49828       -12.28150         7.79887
     2020.50102       -15.06325         7.79887
     2020.50376       -13.32400         7.80885
     2020.50650       -15.83874         7.75039
     2020.50924       -12.94149         7.78604
     2020.51197       -17.45424         7.78461
     2020.51471       -18.54099         7.74040
     2020.51745       -14.22573         7.74611
     2020.52018       -10.89349         8.52186
     2020.52292        -5.68223         8.17391
     2020.52566       -16.81698         7.93719
     2020.52840        -8.45773         7.96571
     2020.53114       -16.66647         7.85734
     2020.53388       -13.17622         7.93291
     2020.53661       -11.02797         8.15110
     2020.53935       -14.15572         8.27658
     2020.54209        -7.94646         8.08407
     2020.54483       -13.56221         7.94147
     2020.54757        -6.69496         7.90867
     2020.55030        -8.54771         7.80885
     2020.55304        -8.58946         8.18675
     2020.55578        -6.95020         7.97284
     2020.55852        -2.38995         7.96714
     2020.56125        -6.66270         7.94718
     2020.56399        -9.11445         7.87302
     2020.56673        -6.48819         7.87445
     2020.56947        -8.22694         8.09976
     2020.57221        -6.46169         8.31366
     2020.57494       -11.14544         7.98140
     2020.57768        -5.32819         7.95858
     2020.58042       -12.09693         7.93719
     2020.58316       -16.91268         8.13541
     2020.58590       -12.98943         8.06126
     2020.58863       -11.03918         8.04129
     2020.59137       -11.14392         7.88728
     2020.59411        -4.84667         8.06268
     2020.59685        -9.62042         8.40065
     2020.59958       -15.26417         8.32364
     2020.60232         1.69708         7.93149
     2020.60506        -9.10066         7.94290
     2020.60780        -6.44041         7.93434
     2020.61054         0.73984         8.09833
     2020.61327        -5.41991         8.14824
     2020.61601       -10.28365         7.91865
     2020.61875        -9.96940         7.99138
     2020.62149        -9.34115         8.03844
     2020.62423        -0.15190         8.23523
     2020.62696        -5.60665         8.09976
     2020.62970        -8.67139         8.04129
     2020.63244        -7.03714         8.19673
     2020.63518        -3.56689         8.14967
     2020.63791       -10.14064         8.41919
     2020.64065        -8.31638         8.01562
     2020.64339       -13.16713         7.94147
     2020.64613        -4.69988         8.10831
     2020.64887       -12.58163         8.18104
     2020.65160        -4.98638         7.98710
     2020.65434        -6.08712         7.88300
     2020.65708        -6.91887         7.92578
     2020.65982        -7.08362         8.06126
     2020.66256       -19.23637         8.22810
     2020.66529        -6.99411         8.16393
     2020.66803        -0.83286         7.95573
     2020.67077        -2.70761         8.09976
     2020.67351        -5.35036         7.91580
     2020.67624        -3.55411         8.01990
     2020.67898        -5.36585         8.03131
     2020.68172       -14.65160         7.99994
     2020.68446        -8.44935         8.05983
     2020.68720        -5.63610         8.04985
     2020.68993        -0.90984         8.13683
     2020.69267        -3.13759         8.24093
     2020.69541        -1.52434         8.31794
     2020.69815        -9.27209         8.03131
     2020.70089        -5.51184         7.87873
     2020.70362        -6.49658         8.15252
     2020.70636        -8.92333         8.45626
     2020.70910       -10.52608         8.39922
     2020.71184        -4.48483         8.08122
     2020.71457        -8.35758         8.49334
     2020.71731       -16.54732         8.26232
     2020.72005       -15.17507         8.24521
     2020.72279       -10.23682         8.11117
     2020.72553        -5.06357         8.34646
     2020.72826       -16.97131         8.40350
     2020.73100        -0.71406         8.22240
     2020.73374        -7.99381         8.21099
     2020.73648       -13.18956         8.08550
     2020.73921       -10.89331         8.30653
     2020.74195        -8.56205         7.88728
     2020.74469        -3.77180         7.86019
     2020.74743       -11.55055         8.06411
     2020.75017        -7.69530         8.07837
     2020.75290       -10.03004         8.04985
     2020.75564       -10.93479         7.87017
     2020.75838        -3.19454         7.89156
     2020.76112        -0.53329         7.89441
     2020.76386        -3.82904         7.88158
     2020.76659         0.29022         8.00136
     2020.76933         1.29747         7.99423
     2020.77207         2.25772         7.91723
     2020.77481         2.49997         8.08265
     2020.77754        -9.64177         8.08407
     2020.78028         4.79548         8.24379
     2020.78302        -1.12327         8.28371
     2020.78576         2.37498         8.04129
     2020.78850        -7.84077         8.02703
     2020.79123        -3.42551         8.03559
     2020.79397        -0.19826         8.03987
     2020.79671         1.39299         8.06839
     2020.79945        -0.63276         8.08122
     2020.80219        -2.51450         8.10118
     2020.80492         0.21775         7.97997
     2020.80766         3.00500         8.03844
     2020.81040        -0.42675         7.99138
     2020.81314         0.32550         7.98710
     2020.81587         0.20476         7.93434
     2020.81861        -2.90899         8.00279
     2020.82136        -0.06373         7.92578
     2020.82409        -3.22149         8.00707
     2020.82683         0.70277         8.04414
     2020.82956        -5.31298         8.23523
     2020.83230         3.99827         7.95716
     2020.83504        -2.97848         8.00992
     2020.83778         1.61977         7.87730
     2020.84052        -9.32297         8.30653
     2020.84325       -10.08372         8.19958
     2020.84599        -4.64947         8.25519
     2020.84873        -3.58922         7.96429
     2020.85147        -7.39396         7.96001
     2020.85420         0.13429         7.87873
     2020.85694         1.01454         8.00422
     2020.85968         1.50779         8.01562
     2020.86242         0.73904         7.94860
     2020.86516         4.14930         8.10404
     2020.86789         1.02855         8.31651
     2020.87063         7.95880         7.98853
     2020.87337        -0.27695         8.17391
     2020.87611         1.86631         8.16963
     2020.87885        11.15356         8.31509
     2020.88158        -1.62619         8.16250
     2020.88432        -0.69694         8.02703
     2020.88706        -6.33869         8.43772
     2020.88980        -7.12843         7.97284
     2020.89253         0.20982         8.17106
     2020.89527        -1.42493         8.36928
     2020.89801         0.58232         8.19673
     2020.90075        -2.58042         8.06839
     2020.90349        -1.18417         7.93149
     2020.90622        -5.43792         7.94432
     2020.90896        -4.88667         8.19815
     2020.91170        -0.70742         8.42204
     2020.91444       -10.98916         8.37355
     2020.91718        -2.39291         8.01420
     2020.91991        -2.79766         7.99851
     2020.92265        -6.34241         7.95716
     2020.92539        -9.83916         7.96001
     2020.92813        -6.79390         7.94290
     2020.93086        -8.91465         7.95858
     2020.93360        -2.78440         8.12685
     2020.93634       -10.19915         7.95858
     2020.93908        -9.92989         8.04557
     2020.94182       -12.03964         7.99709
     2020.94455       -16.47939         8.04700
     2020.94729       -13.69614         8.04700
     2020.95003        -8.32889         8.18104
     2020.95277       -19.66463         8.12543
     2020.95551       -15.30538         8.06126
     2020.95824       -14.67713         8.38068
     2020.96098       -12.11588         9.15501
     2020.96372       -11.48462         8.04985
     2020.96646       -16.99137         8.21527
     2020.96919       -14.09312         8.07552
     2020.97193       -23.37887         8.02418
     2020.97467       -16.51262         8.10404
     2020.97741       -17.67136         8.00849
     2020.98015       -10.89411         8.24379
     2020.98288       -13.02286         8.19245
     2020.98562        -3.94861         8.02561
     2020.98836        -5.90635         7.93149
     2020.99110        -2.59210         7.89299
     2020.99384        -3.96885         7.73470
     2020.99657       -14.12860         7.87017
     2020.99931        -5.22835         7.90582
     2021.00205       -10.53509         7.99281
     2021.00479         0.32616         7.95573
     2021.00752        -7.66959         7.93006
     2021.01026        -1.96834         8.04129
     2021.01300        -2.99008         8.03559
     2021.01574       -12.99583         8.51473
     2021.01848       -15.65858         7.87445
     2021.02121        -9.73933         8.05555
     2021.02395        -6.70908         7.87017
     2021.02669       -16.70682         8.24664
     2021.02943       -14.04457         7.97142
     2021.03216       -15.48732         8.19388
     2021.03490        -7.64907         8.00136
     2021.03764       -11.47381         8.12400
     2021.04038       -17.01656         8.11259
     2021.04312       -10.05331         7.97427
     2021.04585        -8.66006         7.91723
     2021.04859       -12.15781         7.83024
     2021.05133        -8.36755         7.99709
     2021.05407        -4.80830         8.21384
     2021.05681        -6.65105         8.15252
     2021.05954        -8.66280         7.93291
     2021.06228       -11.93854         7.92721
     2021.06502        -8.00429         7.98996
     2021.06776        -7.54104         7.91723
     2021.07049        -5.27279         7.81028
     2021.07323        -3.64954         7.95145
     2021.07597       -14.11428         7.82882
     2021.07871        -8.31003         7.92293
     2021.08145        -9.74878         7.92293
     2021.08418       -13.42353         7.90012
     2021.08692       -16.23627         7.95716
     2021.08966       -13.85102         7.87730
     2021.09240       -20.54177         7.89726
     2021.09514       -14.78652         8.15252
     2021.09787       -19.85627         8.33077
     2021.10061       -13.20701         7.95716
     2021.10335       -17.33576         7.97997
     2021.10609       -13.10751         7.76607
     2021.10882        -7.86226         7.88158
     2021.11156       -10.39700         7.78318
     2021.11430       -16.22975         7.88443
     2021.11704       -10.89350         7.80600
     2021.11978        -9.94525         7.82026
     2021.12251       -12.85900         8.12543
     2021.12799        -5.58649         8.32507
     2021.13073       -18.64424         8.66589
     2021.13347       -29.66299        19.30965
     2021.13621       -18.39873        10.00777
     2021.13894       -15.91148         8.78282
     2021.14051         1.73495        24.81121
     2021.14442       -14.88198         8.84129
     2021.14716       -21.97872         8.50475
     2021.14989       -16.27647         8.49049
     2021.15537       -13.25196         8.77141
     2021.15811       -11.87171         9.04948
     2021.16085        -6.10046         9.19209
     2021.16358        -7.08821         9.15501
     2021.16632        -4.87096         8.84699
     2021.16861         4.56759        12.78564
     2021.17453       -18.54820         9.22203
     2021.17727        -8.65396         8.50475
     2021.18001       -19.92070         9.19351
     2021.18275       -14.68345         9.23344
     2021.18823       -20.07394         8.70724
     2021.19097        -6.75868         8.25519
     2021.19370       -12.27844         8.77284
     2021.19644        -8.96518         8.60457
     2021.19918       -13.75393         8.82132
     2021.20192       -13.96067         8.68157
     2021.20465        -4.03742         8.56749
     2021.20739        -9.10417         8.60742
     2021.21013       -11.08793         8.25519
     2021.21286       -10.63067         8.02846
     2021.21560        -9.85142         7.89584
     2021.21834       -11.76317         8.05840
     2021.22108       -16.54092         7.86019
     2021.22381       -10.72266         7.84022
     2021.22655       -14.98141         8.08692
     2021.22929        -3.53016         7.83737
     2021.23203        -4.64091         7.85021
     2021.23477       -10.85866         7.79602
     2021.23750       -11.51540         7.95858
     2021.24024       -15.24415         8.11259
     2021.24298        -7.29990         7.87445
     2021.24572       -10.91765         7.87445
     2021.24846        -4.63739         7.95573
     2021.25119        -2.45414         7.99994
     2021.25393        -9.03989         8.10404
     2021.25667        -8.24464         7.97142
     2021.25941        -5.22139         7.90439
     2021.26214        -6.21513         8.07409
     2021.26488        -6.17688         7.97855
     2021.26762        -1.29863         8.07409
     2021.27036       -10.20238         8.61027
     2021.27310        -1.72912         7.91010
     2021.27583        -8.76687         7.90012
     2021.27857        -5.02962         7.93006
     2021.28131        -5.49337         7.99994
     2021.28405        -4.48312         8.05270
     2021.28679        -5.08586         8.01277
     2021.28952        -0.59361         8.10689
     2021.29226        -2.33536         7.98140
     2021.29500        -0.29911         7.95716
     2021.29774        -2.39885         8.32079
     2021.30047        -3.69660         8.24093
     2021.30321        -1.81935         8.24664
     2021.30595         4.11590         8.33790
     2021.30869         3.77215         8.36215
     2021.31143        -5.49659         7.99281
     2021.31416        -1.12734         8.00136
     2021.31690        -0.19709         7.97997
     2021.32021        -6.07395        11.24127
     2021.32295        -8.20770        10.85054
     2021.32569        -9.33245        10.65375
     2021.32842        -9.17619        10.71507
     2021.33116        -4.56794        10.82344
     2021.33390        -3.27269        10.38281
     2021.33664        -8.79444        10.45839
     2021.33937        -5.95519        10.20741
     2021.34211        -9.21593        10.61952
     2021.34485        -9.06968        11.28975
     2021.34759       -25.66843        10.84056
     2021.35033        -3.68918        10.73218
     2021.35306       -10.70192        10.47265
     2021.35580        -6.76567        10.45411
     2021.35854        -8.81542        10.61667
     2021.36133        -7.61108        11.55784
     2021.36402       -10.17592        10.77924
     2021.36653        -5.94902         9.56285
     2021.36892       -10.99830         7.98710
     2021.37166        -5.96704         8.03701
     2021.37440        -8.96479         7.96999
     2021.37770       -17.91365        10.68655
     2021.38044       -13.21340        10.85482
     2021.38318       -12.80015        11.41952
     2021.38592         1.21610        10.96177
     2021.38866       -14.57265        11.10294
     2021.39214       -22.09624       153.35638
     2021.39413       -21.76214        10.72790
     2021.39687        -3.27489        10.66658
     2021.39938        -8.05699         9.32898
     2021.40177        -9.58927         8.08835
     2021.40451        -8.20702         8.14254
     2021.40782        -5.68988        10.96319
     2021.41056         0.19637        11.01738
     2021.41330         0.38762        10.83913
     2021.41603        -3.44412        10.78779
     2021.41877       -13.51787        10.79492
     2021.42151         3.40338        11.18280
     2021.42425        11.66863        10.57817
     2021.42699         6.64489        10.62808
     2021.42972         0.82414        10.45411
     2021.43246         3.74039        10.46979
     2021.43520       -10.41436        10.40562
     2021.43794        -8.57911        10.88476
     2021.44068        -9.47485        10.85910
     2021.44341       -10.69060        10.77781
     2021.44615        -7.39735        10.79065
     2021.44889       -13.79210        10.39992
     2021.45163        -2.08385        11.22130
     2021.45436        -6.87259        10.94323
     2021.45710        -8.93534        10.74787
     2021.45984        -7.23309        10.23022
     2021.46258        -6.42384        10.26587
     2021.46524        -7.38870        11.82308
     2021.46804        -5.61735        12.17531
     2021.47079         1.97592        10.57247
     2021.47353         0.77417        10.59386
     2021.47627        -6.64358        10.64092
     2021.47901        -7.90932        10.84626
     2021.48174        -4.72007        10.56819
     2021.48448       -15.31482        10.98886
     2021.48722        -7.51357        10.56534
     2021.48996        -2.13831        10.76783
     2021.49269        -5.03106        10.60384
     2021.49520        -4.10316         9.35465
     2021.49817        -7.49056        10.84911
     2021.50091        -4.55931        10.62808
     2021.50365        -5.07405        10.54680
     2021.50638        -7.60080        10.51543
     2021.50912        -7.88355        10.45268
     2021.51186         2.29670        11.18850
     2021.51459        -2.62805        10.67799
     2021.51733         1.73221        10.55821
     2021.52007         1.49546        10.79635
     2021.52281        -5.37629        10.63949
     2021.52555        -6.87804        10.47550
     2021.52829        -7.18478        10.29012
     2021.53102        -6.52053        10.40705
     2021.53376         4.85172        10.42416
     2021.53650        -3.26403        11.02879
     2021.53924         1.09723        11.24697
     2021.54198        -1.88252        10.49831
     2021.54471        -5.88427        10.56676
     2021.54745        -8.31902        10.52969
     2021.55019        -0.32877        10.53824
     2021.55293        -4.16351        10.52541
     2021.55566        -0.11326        10.59671
     2021.55840        -3.78901        10.91043
     2021.56114        -6.30376        10.43414
     2021.56388         6.67450        10.48833
     2021.56605        -2.81014         7.92008
     2021.56878        -5.02689         8.09405
     2021.57152        -7.30463         8.24093
     2021.57426        -7.03638         8.17391
     2021.57700        -0.77513         8.42204
     2021.57974        -8.06888         8.16821
     2021.58247        -9.14062         8.02418
     2021.58521        -2.96937         8.09976
     2021.58795        -6.31312         8.04129
     2021.59069        -2.65387         8.03701
     2021.59342        -2.98762         8.05413
     2021.59616        -6.87836         8.51615
     2021.59890        -3.61511         8.08978
     2021.60164         2.61314         8.08265
     2021.60438        -0.13561         7.93719
     2021.60711         3.94964         8.07694
     2021.60985        -0.33610         8.06981
     2021.61259        -1.13685         8.05270
     2021.61533        -7.16760         8.05555
     2021.61807         1.75865         7.95003
     2021.62080        -2.20809         7.93006
     2021.62354        -1.66984         8.08122
     2021.62628         1.46041         8.27373
     2021.62902         5.16166         7.99709
     2021.63175        -4.42509         8.16536
     2021.63449        -8.21383         8.19673
     2021.63723         0.31342         8.35787
     2021.63997         2.44867         8.19530
     2021.64271        -2.25608         8.04129
     2021.64544        -1.00682         8.03844
     2021.64818         1.20343         8.05983
     2021.65092       -10.21032         8.26232
     2021.65366        -8.19407         8.05840
     2021.65639        -3.73082         7.99994
     2021.65913        -0.71056         7.98425
     2021.66187        -2.52131         7.95573
     2021.66461        -3.21906         7.97427
     2021.66735        -0.76681         7.94147
     2021.67008        -4.69155         8.12685
     2021.67282         2.85970         8.31794
     2021.67556         3.88495         8.48478
     2021.67830         0.88120         8.16108
     2021.68104         1.23145         8.04557
     2021.68377         0.61971         8.17819
     2021.68651         6.76496         8.19102
     2021.68925         1.18621         8.06268
     2021.69199        -1.03654         8.07694
     2021.69472        -1.81628         7.94718
     2021.69746        -1.88103         7.94718
     2021.70020         2.44422         8.02275
     2021.70294        -0.27153         8.22525
     2021.70568         0.45772         8.46910
     2021.70841        -0.52702         8.17534
     2021.71115         4.26423         8.22525
     2021.71389        -3.78052         8.42774
     2021.71663        -4.26527         8.29655
     2021.71936        -5.67302         8.29655
     2021.72210        -2.49077         8.22810
     2021.72485        -8.85650         8.33648
     2021.72758        -1.07126         8.14967
     2021.73032        -4.64701         8.68442
     2021.73305         5.04225         8.41919
     2021.73579        15.06050         8.43487
     2021.73855        -9.44522         9.03380
     2021.74129         1.63804         8.64592
     2021.74401        -1.79574         8.69726
     2021.74674         3.03951         8.58318
     2021.74948        -0.07624         8.61455
     2021.75223        -3.11097         8.28657
     2021.75496        -1.88274         8.33933
     2021.75706        -3.85547        11.25268
     2021.76042        -6.48425         8.83273
     2021.76322       -13.44690         8.88264
     2021.76591        -2.85173         8.21812
     2021.76862        -2.07452         8.34931
     2021.77138        -4.06622         8.29940
     2021.77412        -5.74997         8.69155
     2021.77686        -3.28472         8.24949
     2021.77960         4.09853         8.27658
     2021.78235         2.52280         8.30653
     2021.78511        -1.68290         8.73576
     2021.78783         6.99732         8.50189
     2021.79056        -5.74543         8.51901
     2021.79329        -0.45920         8.17962
     2021.79603         9.27905         8.10118
     2021.79875        -3.77272         8.37783
     2021.80141         2.35140         8.88834
     2021.80429        -0.34512         8.73433
     2021.80698        -8.29394         8.33648
     2021.80971        -2.47969         8.32649
     2021.81245         5.32356         8.57747
     2021.81519        10.34381         8.09405
     2021.81793         0.92807         8.29084
     2021.82067        -8.09968         8.49619
     2021.82340         4.10257         8.69013
     2021.82614        -2.76418         8.61455
     2021.82888         0.99707         8.24093
     2021.83162         7.79233         8.33648
     2021.83436         5.25558         8.33648
     2021.83709        -5.57417         8.38354
     2021.83983       -11.81492         8.60885
     2021.84257       -17.61267         8.83130
     2021.84531        -7.58241         8.31936
     2021.84804        -6.63216         8.43059
     2021.85078       -11.37491         8.31366
     2021.85352        -4.39466         8.20243
     2021.85626       -10.61140         8.41919
     2021.85900        -9.10715         8.16536
     2021.86447       -15.91065         8.48050
     2021.86721        -9.36940         8.69441
     2021.86995        -2.00514         8.56749
     2021.87269         2.47911         8.49191
     2021.87542        -8.95964         8.32507
     2021.87816       -11.44339         8.26945
     2021.88090        -0.29613         8.25947
     2021.88364       -14.93588         8.24521
     2021.88637       -11.99963         8.11972
     2021.88911       -11.79038         8.08407
     2021.89185       -11.21513         8.23951
     2021.89459       -16.64887         8.35787
     2021.89733       -12.37962         8.16678
     2021.90006        -9.11837         8.16536
     2021.90280       -12.81812         8.35929
     2021.90554       -13.02086         8.30510
     2021.90828        -7.59561         8.29227
     2021.91102        -7.69836         8.31366
     2021.91375        -4.94011         8.22953
     2021.91649        -7.28186         8.14254
     2021.91923         1.17740         8.27231
     2021.92197       -10.51935         8.55893
     2021.92470       -12.38310         8.41063
     2021.92744       -13.80885         8.33505
     2021.93018       -17.99259         8.41206
     2021.93292       -10.58434         8.61883
     2021.93566        -8.48409         8.84984
     2021.93839        -9.56184         8.34788
     2021.94113        -9.89559         8.53041
     2021.94387        -2.67733         8.46197
     2021.94661        -8.11008         8.33362
     2021.94935        -6.39983         8.40920
     2021.95208        -5.99058         8.44200
     2021.95482        -3.32732         8.41776
     2021.95756        -9.69607         8.48621
     2021.96030       -12.02182         8.31794
     2021.96303       -12.09657         8.38924
     2021.96851       -10.16506         8.51188
     2021.97125        -5.14181         8.41776
     2021.97399       -11.23856         9.13932
     2021.97672        -2.89631         8.34788
     2021.97946         4.24895         8.33505
     2021.98220         4.04820         8.38354
     2021.98494         3.03345         8.33505
     2021.98767         7.14170         8.16678
     2021.99041        19.53495         8.15395
     2022.00136        -2.81004         8.26660
     2022.00410        -3.40778         8.28229
     2022.00684       -19.46354         8.24806
     2022.00958       -14.94128         8.48906
     2022.01232       -29.03003         8.40350
     2022.01505       -14.79678         8.45626
     2022.01779        -9.08852         8.59886
     2022.01937       -23.41607        23.85579
     2022.02345       -12.59174         9.58566
     2022.02598       -20.16981         8.58175
     2022.02874       -14.77151         8.56036
     2022.03148       -15.85626         8.46339
     2022.03422       -16.62601         8.41491
     2022.03696       -23.10776         8.32649
     2022.03969       -21.93351         8.82275
     2022.04243       -13.47525         8.41776
     2022.04517        -2.42100         8.36357
     2022.04788        -8.70079         8.56036
     2022.05063       -18.31753         8.68015
     2022.05340       -18.60822         8.50475
     2022.05612       -21.87799         8.44628
     2022.05886       -15.53674         8.26232
     2022.06160       -16.74749         8.30938
     2022.06433        -6.91824         8.28086
     2022.06707       -13.53998         8.21527
     2022.06981        -7.65573         8.27373
     2022.07255       -15.78248         8.18675
     2022.07529        -9.57123         8.14254
     2022.07802        -7.25698         8.30083
     2022.08076        -2.27972         8.29512
     2022.08350       -10.19747         8.30653
     2022.08624       -11.51822         8.32079
     2022.08898        -8.64297         8.15823
     2022.09171       -15.20471         8.28514
     2022.09445       -18.62146         8.32364
     2022.09719       -12.40721         8.14254
     2022.09993        -9.60596         8.38211
     2022.10266       -16.55471         8.39780
     2022.10540       -16.74545         8.25947
     2022.10814         1.53880         8.24379
     2022.11088        -3.17895         8.23095
     2022.11362        -5.84970         8.13541
     2022.11635        -4.76244         8.18675
     2022.11909        -6.08219         8.21099
     2022.12183        -3.67694         8.28514
     2022.12457        -9.53369         8.47337
     2022.12730        -7.15845         8.12828
     2022.13005       -12.51518         8.11972
     2022.13278       -13.01793         8.14254
     2022.13552        -8.09568         8.14396
     2022.13826        -6.23143         8.19815
     2022.14099        12.15483         8.43202
     2022.14373         8.10708         8.32935
     2022.14647        -4.48567         8.13826
     2022.14921         0.69358         8.61883
     2022.15195        -5.98417         8.48478
     2022.15468        -3.09191         8.18817
     2022.15742       -12.64366         8.20671
     2022.16016       -12.36141         8.12685
     2022.16290       -13.28116         8.03844
     2022.16564       -17.70790         8.30653
     2022.16837        -6.09565         8.24521
     2022.17111       -13.51940         8.08550
     2022.17385        -2.12815         7.99994
     2022.17659        -4.73890         8.03987
     2022.17932       -12.45564         8.11687
     2022.18206       -12.75639         8.13256
     2022.18480       -16.14714         8.17819
     2022.18754        -4.13989         8.14539
     2022.19028        -8.19963         8.19102
     2022.19301        -7.65838         8.05698
     2022.19575        -1.25613         8.18247
     2022.19849        -9.78288         8.22525
     2022.20123       -10.00063         8.20528
     2022.20397         1.40363         8.19530
     2022.20670         9.48288         8.29227
     2022.20944        10.52313         8.24949
     2022.21218         8.54538         8.25805
     2022.21492         5.46364         8.17534
     2022.21765        -4.91111         8.13256
     2022.22039        -6.35886         8.27373
     2022.22313         2.70939         8.30796
     2022.22587        -3.66136         8.31081
     2022.22861         8.52690         8.30225
     2022.23134         6.68015         8.18960
     2022.23408        14.76140         8.23808
     2022.23682        12.80965         8.46910
     2022.23956         9.87591         8.18389
     2022.24229        10.69115         8.86268
     2022.24451         7.64559        15.15995
     2022.24778        16.08267         9.53575
     2022.25051         1.91891         9.33896
     2022.25325        10.21817         9.34467
     2022.25598        11.04842         8.26518
     2022.25872         0.43867         8.24664
     2022.26146         2.66092         8.18104
     2022.26420         7.47418         8.15252
     2022.26694         4.52143         8.66446
     2022.26967         1.58668         8.32792
     2022.27241         4.79093         8.21812
     2022.27515        14.89318         8.54040
     2022.27789        11.74544         8.39637
     2022.28062         0.66269         8.16678
     2022.28336         7.50894         8.15395
     2022.28610         6.66419         8.29227
     2022.28884         7.46544         8.31509
     2022.29158        -1.19530         8.09405
     2022.29431         5.66395         8.15537
     2022.29705         1.95220         8.19245
     2022.29979         7.22245         8.19388
     2022.30253         5.80871         8.51045
     2022.30527         2.56796         8.25805
     2022.30800         1.70521         8.36072
     2022.31074        10.59846         8.22097
     2022.31348         4.65071         8.25519
     2022.31622        -9.68703         8.17391
     2022.31895       -11.38078         8.36642
     2022.32169         8.90947         8.25519
     2022.32443         0.38572         8.13969
     2022.32717        -4.62802         8.19958
