# ================= DQRFIT RESULTS ================
# INPUT FILE: series/WIFR.rad
# OUTPUT: LDETRENDED
# FILTER FUNCTION: f(t)
# f(t)=+line(t)+annual(t)+jumps(t)
# line(t)=+P 1+P 2*t
# annual(t)=+P 3*sin(2*pi*t+P 4)
# jumps(t)=+P 5*heav(t-2018.4900  )
# heav(t)=(t<0?0:1)
# TOTAL OBSERVATIONS MTOT= 3295
# INITIAL TIME INTERVAL= 2018.5407 - 2008.8296 =  9.7111
# TOTAL OBSERVATIONS AFTER PREFILTER M= 3189
# TIME-SPAN= 2018.5407 - 2008.8296 =  9.7111
# OBSERVATIONS: USED M=  3189 REJECTED MTOT-M=   106 %USED=   96.7830
# N=  5 PARAMETERS
# MAXSIG= 175.00000
# MAXRES=  51.02375
# SCALE FACTOR FOR LENGTHS: SCL=  10.00000
# SCALE FACTOR FOR SIGMAS: SCLSIG=   1.00000
# CHI^2=   7875.138 DOF=  3184 CHI^2/DOF=   2.47335
# RMS=     10.064 SDEV=     10.065 MEAN=   -0.11991
#  P #       PARAMETER +-    SIGMA %error PARAMETER NAME
# P 1 =     -2487.09487 +-  121.150   4.87 YZERO                              
# P 2 =         3.24155 +-    0.060   1.86 SLOPE                              
# P 3 =         8.76834 +-    0.243   2.77 ANNUAL AMPLITUDE                   
# P 4 =        -3.10783 +-    0.039   1.26 ANNUAL PHASE                       
# P 5 =     -4042.27793 +-    2.766   0.07 OFFSET 2018.4900                   
#       T            LDETRENDED       SIG_OBS
     2008.82957         8.15880         9.40467
     2008.83231        -1.92208         9.75853
     2008.83505         3.19305         9.49746
     2008.83779        -8.88683         9.45343
     2008.84052        -3.50970         9.74909
     2008.84326        -0.49858         9.79942
     2008.84600        15.58355         9.60283
     2008.84874        -1.87333        10.85469
     2008.85148       -12.59520         9.78841
     2008.85421        -2.78508         9.60441
     2008.85695        -7.95595         9.96141
     2008.86150        28.73432        18.71970
     2008.86517       -11.58558        10.91445
     2008.86790         4.00855        10.04633
     2008.87064        -1.22833         9.88906
     2008.87338        -4.05620         9.59182
     2008.87612        -6.79208         9.77583
     2008.87885         0.05305         9.76010
     2008.88159        -1.47883         9.64687
     2008.88374         0.20523        12.75764
     2008.88707         6.26242         9.89378
     2008.88981        -7.00545         9.82930
     2008.89254         2.21567         9.76482
     2008.89528         5.69180         9.90164
     2008.89802        -8.36407        10.10767
     2008.90076        -3.06195         9.57610
     2008.90350        -1.74882         9.72550
     2008.90623         1.93330         9.73494
     2008.90897         3.08743         9.71921
     2008.91171        -9.86845         9.75538
     2008.91445         1.35668         9.66574
     2008.91718         4.36980         9.52420
     2008.91992        11.23493        10.40648
     2008.92266       -21.61795        10.34514
     2008.92540         3.45218         9.60283
     2008.92814         8.92530         9.64844
     2008.93087        -0.01657         9.71921
     2008.93361        -4.33445         9.68461
     2008.93635         1.61768         9.74437
     2008.93909        -1.97620         9.61070
     2008.94183        -6.34907         9.66259
     2008.94456        -3.93595         9.84188
     2008.94730         4.82518         9.65159
     2008.95004         2.72830         9.75224
     2008.95278         2.16643         9.58239
     2008.95551         8.09655         9.40625
     2008.95825        -2.52032         9.54936
     2008.96099         2.04080         9.52420
     2008.96373         3.45393         9.44399
     2008.96647         1.43805         9.98657
     2008.96920         1.10718         9.51948
     2008.97194       -10.91570         9.72078
     2008.97468        -9.74257         9.81200
     2008.97742       -15.12945        10.14856
     2008.98016        -2.11932        10.01959
     2008.98289         3.25280        10.05105
     2008.98563        -0.89307         9.92838
     2008.98837        -3.92095        10.01488
     2008.99111       -13.09382        10.08093
     2008.99384       -23.56170        10.23977
     2008.99658       -13.94357        10.53701
     2008.99932        -2.83444        10.18001
     2009.00480       -14.08419        10.09823
     2009.00753       -10.90907        10.22090
     2009.01027       -14.64694        10.27594
     2009.01301       -16.06082        10.65496
     2009.01575       -28.29669        10.57475
     2009.02670       -42.67619        10.55274
     2009.02944       -26.44907        11.14878
     2009.03217       -21.48794         9.53835
     2009.03491        -6.46982         9.39681
     2009.03765        -6.74269         9.45343
     2009.04039        -8.82757         9.47544
     2009.04313       -13.01144         9.49274
     2009.04586       -10.39132         9.56666
     2009.04860        -8.87319         9.47544
     2009.05134       -10.20707         9.39524
     2009.05408        -3.97094         9.46129
     2009.05682        -4.28882         9.31818
     2009.05955         0.06631         9.55722
     2009.06229        -7.04257         9.46758
     2009.06503       -15.48144         9.32132
     2009.06777        -1.15032         9.17034
     2009.07050        -3.00419         9.51633
     2009.07324         6.79493         9.09328
     2009.07598       -12.07694         9.32604
     2009.07872       -13.78782         9.95354
     2009.08146        -2.36869         9.23011
     2009.08419        -0.69657         9.25370
     2009.08693        -4.57444         9.08227
     2009.08967        -3.44432         9.19708
     2009.09241        -3.18619         9.39209
     2009.09515        -0.82507         9.45185
     2009.09788         2.22706         9.47859
     2009.10062        -0.50282         9.36536
     2009.10336       -11.68869         9.24583
     2009.10610         5.48744         9.20809
     2009.10883        -0.72044         9.13732
     2009.11157        -2.47431         9.21438
     2009.11431         0.71381         9.42512
     2009.11705        -6.30306         9.39052
     2009.11979         3.26106         9.15776
     2009.12252         1.69119         9.22067
     2009.12526        -3.98569         9.06969
     2009.12800        -3.34556         9.20966
     2009.13074         3.81656         9.42984
     2009.13347       -21.23531         9.57138
     2009.13621       -16.98319         9.62170
     2009.13895        -3.26306         9.45972
     2009.14169        -1.60794         9.33076
     2009.14443         0.03219         9.13889
     2009.14716        -6.14669         9.63900
     2009.14990         1.23544         9.56981
     2009.15264         5.79256         9.48960
     2009.15538         2.57669         9.70348
     2009.15812        -5.45919         9.56666
     2009.16085         5.09894         9.43927
     2009.16359        -2.15994         9.57295
     2009.16633        -0.12581         9.52420
     2009.16907         3.91431         9.77897
     2009.17180         0.63444         9.13889
     2009.17454        -7.38144         9.36693
     2009.17728         5.34969         9.51476
     2009.18002        -8.62919         9.29459
     2009.18276        -5.42006         9.27571
     2009.18549       -16.87094         9.17978
     2009.18823       -12.94281         9.32761
     2009.19097        -6.02269         9.88434
     2009.19371        -4.95456         9.39052
     2009.19645        -0.91444         9.53206
     2009.19918         5.63169         9.28358
     2009.20192         7.25081         9.18607
     2009.20466        -9.37706         9.28200
     2009.20740        -0.96793         9.38108
     2009.21013        -7.95681         9.63114
     2009.21287        -2.00468         9.23797
     2009.21561        -4.84156         9.24898
     2009.21835        -5.23943         9.45185
     2009.22109         5.57069         9.21438
     2009.22382         4.16182         9.35278
     2009.22656       -13.09906         9.46286
     2009.22930       -35.78593        12.37391
     2009.23204       -10.49181         9.75381
     2009.23478         6.87132        11.21641
     2009.23751       -11.95056         9.63271
     2009.24025        -3.34043         9.58082
     2009.24299       -13.83031         9.58868
     2009.24573        -6.61218         9.54779
     2009.24846       -12.41206         9.39209
     2009.25120        16.23607         9.96927
     2009.25394        28.54419        10.06835
     2009.25668        25.80032         9.72707
     2009.25942        -9.31756        10.25393
     2009.26215       -10.18143         9.59497
     2009.26489        -7.50331         9.64372
     2009.26763       -12.53718         9.70506
     2009.27037       -16.12806         9.93467
     2009.27311        -6.28093         9.50847
     2009.27584       -14.17581         9.95511
     2009.27858       -14.86168        10.00701
     2009.28132       -29.42956         9.83087
     2009.28406       -18.22343         9.59025
     2009.28679        -0.74531         9.68304
     2009.28953       -37.42418        11.94928
     2009.29227       -19.10106         9.86075
     2009.29501       -13.29993         9.95983
     2009.29775        -6.82881         9.89535
     2009.30048        -6.08868         9.65001
     2009.30322        -8.63056         9.49274
     2009.30596         2.55957         9.46129
     2009.30870        -2.59431         9.63114
     2009.31144        -5.02118         9.43770
     2009.31417        -4.38005         9.45972
     2009.31691        -5.90193         9.26942
     2009.31965        -4.11280         9.40310
     2009.32239        -7.45368         9.68776
     2009.32512       -40.57755        10.58576
     2009.32786        -8.87443        10.97893
     2009.33060        -3.51330         9.55880
     2009.33334       -23.67518         9.78055
     2009.33608        -2.38005        10.11867
     2009.34155       -14.05580        10.75561
     2009.34429       -31.63768        13.31752
     2009.34703       -23.26355        11.04027
     2009.34977       -25.39743        10.64867
     2009.35250       -10.58530         9.42197
     2009.35524        -8.57418         9.55408
     2009.35798       -10.14205         9.97399
     2009.36072        -6.68393         9.70034
     2009.36345       -16.47180         9.63429
     2009.36619        -2.72168        10.12025
     2009.36893        -4.77355         9.53678
     2009.37167        -3.31543         9.80099
     2009.37441       -13.27030         9.52892
     2009.37714       -14.74818         9.73337
     2009.37988       -20.92705        10.47725
     2009.38262       -12.79393         9.52892
     2009.38536        -0.16680         9.51476
     2009.38810       -10.31568         9.61541
     2009.39083       -12.45655         9.63743
     2009.39357        -4.10743         9.52892
     2009.39631       -14.11930         9.47073
     2009.39905        -3.93218         9.51004
     2009.40178       -10.81005         9.48016
     2009.40452        -2.51493         9.73966
     2009.40726        -1.77480        10.01802
     2009.41000        -4.34768         9.56194
     2009.41274        -2.27855         9.89378
     2009.41547        -4.43942         9.80256
     2009.41821        -9.27330         9.84031
     2009.42095       -21.07217         9.78841
     2009.42369       -13.67105        10.15170
     2009.42643       -19.64092         9.66259
     2009.42916        -9.24680         9.83245
     2009.43190        -3.25167         9.43456
     2009.43464        -5.72555         9.58553
     2009.43738         4.42658         9.63743
     2009.44011       -14.67330         9.55251
     2009.44285        -9.50617         9.73494
     2009.44559        -7.03905         9.62485
     2009.44833        -5.52492         9.39838
     2009.45107       -12.18780         9.57610
     2009.45380       -13.40167         9.75853
     2009.45654        -8.88855         9.84817
     2009.45928        -7.64542         9.57138
     2009.46202       -14.21330         9.85132
     2009.46475        -6.46417        10.16743
     2009.46749        -4.29905         9.71764
     2009.47023        -5.17992        10.27594
     2009.47297         8.59320        10.24921
     2009.47571         0.43233         9.76325
     2009.47844        -1.62555         9.56666
     2009.48117        -2.83239         9.50218
     2009.48392        -5.07530         9.52892
     2009.48666        -7.33517         9.68304
     2009.48940         1.41895         9.87648
     2009.49213        -2.12692         9.65945
     2009.49487        -2.80480         9.71135
     2009.49761         2.41333         9.51319
     2009.50035        -4.21555         9.65788
     2009.50308        -7.26342         9.69719
     2009.50582        -3.21730         9.76010
     2009.50856        -2.56117        10.01802
     2009.51130         5.41595         9.45028
     2009.51404         4.13508         9.46129
     2009.51677         6.16120         9.59025
     2009.51951        -8.76767         9.54779
     2009.52225       -12.66054         9.88592
     2009.52499        -1.26342         9.60126
     2009.52773         1.98271         9.52892
     2009.53046        -4.12717         9.78841
     2009.53320       -10.00204         9.70663
     2009.53594        -8.97692        10.17057
     2009.53868        -2.65079         9.70506
     2009.54141         1.74233         9.76796
     2009.54415        -1.38154         9.84345
     2009.54689         1.90358         9.60126
     2009.54963        -0.38429         9.85289
     2009.55237        -4.12817         9.95197
     2009.55510         0.32696         9.70663
     2009.55784         4.14808         9.74437
     2009.56058         4.55521        10.07464
     2009.56332         5.83233         9.82773
     2009.56583         0.48518        10.57318
     2009.56878        -8.98439         9.77111
     2009.57152         6.08574         9.88592
     2009.57426        11.87786         9.82615
     2009.57700         9.73999        10.30425
     2009.57974         3.72911         9.87019
     2009.58247        17.13324        10.15799
     2009.58521         6.45236        10.05419
     2009.58795         9.98149         9.75853
     2009.59069         3.39961         9.96770
     2009.59342         4.38274         9.99443
     2009.59616         4.06986         9.75224
     2009.59890        -5.32201        10.00701
     2009.60164         0.85611         9.84345
     2009.60438        -5.16076        10.01802
     2009.60711         1.23737         9.68461
     2009.60985         5.32949         9.68933
     2009.61259        11.71162         9.76482
     2009.61533         4.95874        10.10452
     2009.61807         8.34387         9.78526
     2009.62080         1.85699         9.83402
     2009.62354         2.88512         9.70191
     2009.62628         8.81624         9.72865
     2009.62902        10.14337         9.79313
     2009.63175        -0.82351         9.99915
     2009.63449         6.56862        10.05262
     2009.63723        -1.72626        10.01959
     2009.63997         1.72487         9.87648
     2009.64271        -0.77001         9.92995
     2009.64544         6.56512        10.13283
     2009.64818         1.50424        10.15485
     2009.65092         6.44737        10.01488
     2009.65366         1.08949         9.81200
     2009.65639        -1.50838        10.04004
     2009.65913         2.72674         9.67203
     2009.66187         8.13387         9.70034
     2009.66461        -0.68401         9.86704
     2009.66735         0.35612        10.26965
     2009.67008         4.82724        10.12654
     2009.67282         4.66337        10.02431
     2009.67556         4.99949         9.76325
     2009.67830         5.16962        10.73202
     2009.68104         2.86874        10.35930
     2009.68377        -4.53413        10.22404
     2009.68651         8.24299         9.91580
     2009.68925         3.80412        10.01488
     2009.69199        -2.59876        10.39075
     2009.69472         3.90237        10.04161
     2009.69746         9.87649         9.92523
     2009.70020         7.16162        10.26179
     2009.70294        14.44574         9.85761
     2009.70568         0.68387        10.28538
     2009.70841        -4.90701        10.19416
     2009.71115         9.10312        10.20203
     2009.71389        11.59525        10.41434
     2009.71663         6.17537        10.26336
     2009.71937        -3.60650        10.08722
     2009.72210         0.22562        10.05577
     2009.72484         3.35175        10.38918
     2009.72758         7.07487        10.25078
     2009.73032         7.72600        10.09351
     2009.73305         9.30112        10.09351
     2009.73579        10.22225         9.83716
     2009.73853        11.52037         9.99286
     2009.74127        16.47750        10.11396
     2009.74401         5.42162        10.36401
     2009.74674        17.47075         9.95354
     2009.74948        33.23687        10.79178
     2009.75222        15.92100         9.94882
     2009.75496         7.41811        10.05419
     2009.75770         7.76822        10.20989
     2009.76044        29.66634        10.48668
     2009.76318        15.16747         9.92052
     2009.76592         7.38159         9.87333
     2009.76866         6.69672         9.93310
     2009.77139         5.46784        10.09666
     2009.77413         4.94397         9.93939
     2009.77687         9.44309         9.97556
     2009.77961         5.42422        10.10924
     2009.78235        18.50634         9.81672
     2009.78508         8.31747        10.31683
     2009.78782        10.14059        10.46624
     2009.79056        12.16772         9.90007
     2009.79330         0.33384        10.13912
     2009.79477       -18.95993        78.65642
     2009.79877         6.05009         9.97871
     2009.80151         8.32122        10.28695
     2009.80425        17.67634        10.19259
     2009.80699        12.14047        10.10295
     2009.80972         3.79459        10.01016
     2009.81246         9.00172        10.07307
     2009.81520         9.69584        10.11396
     2009.81794        -1.92803        10.62036
     2009.82068         6.72809         9.96927
     2009.82341        -9.99678         9.90479
     2009.82615        19.64334        10.91445
     2009.82889        -0.42453        10.54330
     2009.83163         8.22859        10.51185
     2009.83436         4.50972        10.17057
     2009.83710         7.21685        10.37188
     2009.83984         3.12597        10.07936
     2009.84258         8.02510        10.31211
     2009.84532         9.94922        10.46467
     2009.84805         7.87535        10.43164
     2009.85079         1.26847        10.37502
     2009.85353         4.44060        10.63609
     2009.85627         7.85472        10.36401
     2009.85901        -0.65315        10.33571
     2009.86174        -3.13503        10.06678
     2009.86448         7.37410        10.75247
     2009.86722        -7.59478        10.60463
     2009.86996        -4.70065        10.50870
     2009.87269        -3.66053        10.41748
     2009.87543         2.10760        10.40490
     2009.87817         8.08172        10.55588
     2009.88091        11.16385        10.14384
     2009.88365         1.13997        10.19102
     2009.88638         8.49510        10.06678
     2009.88912        11.63022         9.80099
     2009.89194         7.81510        10.48039
     2009.89460         4.75147        10.05419
     2009.89734        -2.70940        10.23663
     2009.90007        -7.03928        10.12025
     2009.90281        -0.91815         9.95197
     2009.90555       -10.11803        10.21304
     2009.90829       -16.82090        10.16900
     2009.91102        -5.29578         9.96770
     2009.91376        -2.58265         9.92523
     2009.91650        11.57247        10.28066
     2009.91924        -2.05240         9.81515
     2009.92198         3.57272         9.71921
     2009.92471        -6.54515        10.38760
     2009.92745         4.15297         9.56194
     2009.93019         7.38310         9.44085
     2009.93293         3.73322         9.55093
     2009.93567         5.32235         9.40153
     2009.93840         6.50248         9.77426
     2009.94114         4.09360         9.56509
     2009.94388        -0.15427        10.00701
     2009.94662         7.36085        10.01173
     2009.94935         4.48998         9.75067
     2009.95209         0.05610         9.52105
     2009.95483        -7.22177         9.98971
     2009.95757       -11.75765         9.87963
     2009.96031       -13.95352        10.05734
     2009.96304        -3.33940        10.18473
     2009.96578        -1.35427         9.96455
     2009.96852        -4.77115        10.30268
     2009.97126        -9.39602        10.37030
     2009.97400         1.58110         9.77268
     2009.97673        -7.79877         9.71135
     2009.97947         1.29435         9.69877
     2009.98221        -3.69152         9.73337
     2009.98495        -1.66440         9.66102
     2009.98768         0.70973         9.48488
     2009.99042        -3.77615         9.74123
     2009.99316         0.16698         9.52577
     2009.99590         5.89310         9.65788
     2009.99864        13.40723        10.07149
     2010.00411       -37.80552        10.17529
     2010.00685       -16.58740        10.20989
     2010.00959        -8.29927         9.99600
     2010.01233        -0.10615        10.33885
     2010.01506       -12.35302         9.86862
     2010.01780        -4.72590         9.94725
     2010.02054         0.36823         9.90951
     2010.02328        -7.70865        10.16114
     2010.02601         2.16348         9.60126
     2010.02875        -2.15140         9.87648
     2010.03149         8.89873         9.44085
     2010.03423        -9.71215         9.66731
     2010.03697        -2.68102        10.43321
     2010.03970         6.97510         9.95983
     2010.04244        -0.06877         9.52105
     2010.04518         5.36336         9.69405
     2010.04792         8.56548         9.57767
     2010.05065        10.89361         9.79627
     2010.05339         2.78373         9.89378
     2010.05613         1.77186         9.68776
     2010.05887        10.06498         9.39524
     2010.06161        15.59811         9.87648
     2010.06434        -4.43177         9.77583
     2010.06664         8.68280        12.49972
     2010.06982         0.33348        10.04161
     2010.07256       -11.89439         9.98028
     2010.07530       -18.77927        10.01488
     2010.07803       -39.68714        10.05419
     2010.08077         2.08198         9.48960
     2010.08351        -7.14989         9.56352
     2010.08625        -2.77977         9.65316
     2010.08898       -25.44164        10.18158
     2010.09172       -15.55752         9.87805
     2010.09446        -6.86739         9.84031
     2010.09720        -9.15227        10.03532
     2010.09994        -9.45014         9.44871
     2010.10267       -21.61202         9.43298
     2010.10541       -30.11789        10.04161
     2010.10815       -30.38277        10.12497
     2010.11089       -30.66964        10.06363
     2010.11363       -21.59152        10.14541
     2010.11636        -9.33539         9.77897
     2010.11910       -24.47827        10.35930
     2010.12184       -43.65614        10.20203
     2010.12458         3.93998        10.45051
     2010.12731        19.28211        11.15665
     2010.13005         2.66323         9.84974
     2010.13279        -0.24964         9.91737
     2010.13553        -2.84052         9.75696
     2010.13827         8.15661         9.46286
     2010.14100        -0.97527         9.33390
     2010.14374        -8.34814        10.05105
     2010.14648        -5.26901         9.81357
     2010.14922         0.54311         9.90479
     2010.15196        -6.59976        10.12025
     2010.15469        17.07536        10.23034
     2010.15743        -5.14051         9.90007
     2010.16017         2.25861         9.74909
     2010.16291        -2.53626         9.59497
     2010.16564         0.78486         9.57767
     2010.16838        -1.31701         9.63743
     2010.17112        -4.60789         9.64530
     2010.17386         1.27624         9.46601
     2010.17660         1.26036         9.56509
     2010.17933         5.12649         9.50061
     2010.18207         1.62461         9.50690
     2010.18481        -0.21826         9.37165
     2010.18755         1.54686         9.27729
     2010.19029         3.89799         9.49746
     2010.19302        -1.11289         9.78998
     2010.19576         4.40524         9.76796
     2010.19850       -15.80064        10.44894
     2010.20124       -12.17551         9.82615
     2010.20397        -5.24639         9.81829
     2010.20671        -9.31326         9.82773
     2010.20945        -2.28214         9.60755
     2010.21219        -1.49501         9.61856
     2010.21493        -0.75589         9.71607
     2010.21766       -10.08376         9.68933
     2010.22040         3.44636         9.77268
     2010.22314        -0.35251        10.12339
     2010.22588        -3.08939         9.83087
     2010.22862         2.20174         9.82458
     2010.23135        -7.09214         9.76954
     2010.23409        -7.62201         9.85918
     2010.23957       -10.60776        10.16271
     2010.24230         3.10836        10.44265
     2010.24504        -6.85451        10.31054
     2010.24778       -11.90339        10.12025
     2010.25052         0.18974        10.23505
     2010.25326         3.81887        10.07778
     2010.25599         3.61399         9.95983
     2010.25873        12.50312         9.97871
     2010.26147         3.55324        10.13597
     2010.26421        10.56337        10.69271
     2010.26695        -1.01451         9.61227
     2010.26968        -9.35338        10.26808
     2010.27242        -2.88126        10.20832
     2010.27516         3.90987         9.94725
     2010.27790        -7.88001         9.93939
     2010.28063        -5.45388        10.23505
     2010.28337        -6.99576         9.95511
     2010.28611        -4.24063        10.44579
     2010.28885         7.44549         9.48016
     2010.29159       -10.38938        10.38446
     2010.29432         0.90674         9.93310
     2010.29706        -1.63113         9.77268
     2010.29980        -3.13301        10.30740
     2010.30254         0.51412        10.44894
     2010.30528        -3.15976        10.09980
     2010.30801        -1.05563         9.60441
     2010.31075        -5.98051         9.94411
     2010.31349       -10.96238         9.90951
     2010.31623        -2.10226        10.18001
     2010.31896       -10.66013        10.21618
     2010.32170         1.07499        10.09194
     2010.32444       -22.38088        10.25550
     2010.32718       -13.41276        10.11396
     2010.32992        -0.15463         9.52734
     2010.33265         7.29849         9.87333
     2010.33539       -12.60438         9.98971
     2010.33813         1.78474        10.20517
     2010.34087        -4.70013         9.74595
     2010.34361       -15.84501         9.95511
     2010.34634        -3.23788         9.80728
     2010.34908         2.33124         9.41568
     2010.35182        -1.87063         9.57924
     2010.35456        -3.07550         9.54307
     2010.35729       -21.42038        10.18630
     2010.36003        12.00575        10.28852
     2010.36277        -5.78913         9.35435
     2010.36551        -6.19500         9.94882
     2010.36825        -4.11888         9.89535
     2010.37098        -1.37175         9.76954
     2010.37372         4.01337         9.70820
     2010.37646        20.88750        10.13912
     2010.37920       -17.05238        10.48354
     2010.38193        -8.90325         9.83087
     2010.38467        10.31987         9.82615
     2010.38741       -11.64400        10.38446
     2010.39289         4.69625         9.91422
     2010.39562       -16.97763         9.96298
     2010.39836        -3.98150         9.56509
     2010.40110        -6.00238         9.60283
     2010.40384       -16.71525         9.65630
     2010.40658        -0.71713         9.46286
     2010.40931        -0.89900         9.57295
     2010.41205       -13.90288         9.79470
     2010.41479        -7.30575         9.65630
     2010.41753         0.70537         9.53206
     2010.42026        -7.36750         9.61856
     2010.42300        -8.12438         9.86075
     2010.42574        -8.42925         9.75067
     2010.42848       -14.82813        10.31683
     2010.43122       -16.67200         9.54307
     2010.43395       -11.32488         9.49117
     2010.43669        -7.06575         9.49117
     2010.43943        -3.49763         9.49746
     2010.44491         5.66462         9.35592
     2010.44764       -10.01725         9.27571
     2010.45038        -6.63813         9.29616
     2010.45312        -3.05600         9.34334
     2010.45586        -9.45288         9.47702
     2010.45859         4.87725         9.53049
     2010.46133        -8.11762         9.56981
     2010.46407        -0.84550         9.39052
     2010.46681         6.41263        10.01016
     2010.46955       -12.80525         9.88120
     2010.47228        -4.53012         9.46286
     2010.47502        -2.97200         9.40153
     2010.47776         1.03013         9.49117
     2010.48050         2.75025         9.57295
     2010.48324        -5.07462         9.39838
     2010.48597         0.90250         9.50533
     2010.48871        -8.22637         9.23797
     2010.49145        -6.03525         9.56194
     2010.49419         1.66288         9.34491
     2010.49692         2.17400         9.27414
     2010.49966       -20.30387         9.81829
     2010.50240       -10.21375         9.51791
     2010.50514        -1.81062         9.29616
     2010.50788        -0.55950         9.29616
     2010.51061         1.18363         9.16720
     2010.51335         1.22975         9.19079
     2010.51609       -11.02812         9.76010
     2010.51846        -6.25681        11.12677
     2010.52156         4.04816         9.87019
     2010.52429         8.25928         9.59969
     2010.52703        -3.17359         9.88749
     2010.52977         4.94753         9.54779
     2010.53251        -7.88034         9.59969
     2010.53525        -0.12122         9.58868
     2010.53798        -2.47009         9.58239
     2010.54072         4.32903         9.39052
     2010.54346         2.09016         9.48645
     2010.54620        -0.02771         9.56509
     2010.54893        -8.59859         9.86862
     2010.55167        -0.85646         9.57138
     2010.55441         2.27466         9.60912
     2010.55639         6.62924        14.89493
     2010.55989         1.28191         9.67832
     2010.56262         2.47104         9.80099
     2010.56536        -7.56784         9.96612
     2010.56810        -0.01271         9.80885
     2010.57084        10.31841         9.79313
     2010.57357         2.82154         9.68461
     2010.57631         4.92166         9.92366
     2010.57905        -1.60221         9.66574
     2010.58179         0.89891         9.57610
     2010.58453        -1.55196         9.74123
     2010.58726         0.44216         9.65945
     2010.59000         0.58229         9.75538
     2010.59274         4.13541         9.52892
     2010.59548         8.31654         9.58396
     2010.59816         8.51285         9.64530
     2010.60101        -1.68840         9.69405
     2010.60369         3.33091         9.59969
     2010.60643         3.06104         9.54307
     2010.60917         9.18716         9.58082
     2010.61190        -5.07971         9.58239
     2010.61464         5.44441         9.52420
     2010.61732        -8.51228         9.71764
     2010.62018         0.44648         9.72393
     2010.62286         6.82179         9.54622
     2010.62559         8.56991         9.60441
     2010.62833         5.76004         9.60126
     2010.63107         2.92116         9.81515
     2010.63381         6.44929         9.65788
     2010.63649         9.15560         9.74595
     2010.63934         8.65335         9.71449
     2010.64202         6.72966         9.49589
     2010.64476        -1.20421         9.71292
     2010.64750        -0.41709         9.51791
     2010.65023         1.33304        10.04161
     2010.65297         6.75117        10.02274
     2010.65565         5.05348         9.81672
     2010.65851         6.43223         9.69405
     2010.66119         9.95454         9.82144
     2010.66392        10.20367         9.89378
     2010.66666       -12.15321         9.88277
     2010.66940         4.50492         9.56823
     2010.67214         7.90004         9.81200
     2010.67482        19.43035         9.57767
     2010.67767         7.33611         9.81986
     2010.68035         5.46042         9.44714
     2010.68309         5.31354         9.70348
     2010.68583        12.89267        10.04633
     2010.68856        -5.83721         9.73022
     2010.69130        16.75892         9.62485
     2010.69398         4.84723         9.89850
     2010.69684         0.55498         9.48016
     2010.69952         9.99329         9.45028
     2010.70225         8.55842         9.34019
     2010.70499        15.62154         9.36693
     2010.70773         6.51167         9.52420
     2010.71047         8.56579         9.55408
     2010.71315         8.33910        10.10767
     2010.71600        -2.25214        10.18945
     2010.71868        11.05717         9.68461
     2010.72142        14.23129         9.94253
     2010.72416        10.05542         9.89693
     2010.72689         1.83854        10.18630
     2010.72963        -2.75133         9.56823
     2010.73237         8.76079         9.70820
     2010.73511         4.89892         9.57138
     2010.73785         6.27204         9.74752
     2010.74058         2.51017         9.78526
     2010.74332         9.91129         9.56666
     2010.74606        11.68042        10.11238
     2010.74880         9.86254         9.48803
     2010.75153        17.82469         9.55251
     2010.75433         8.46861         9.76167
     2010.75649        12.09360        11.91311
     2010.76249         8.50917         9.92995
     2010.76522         4.10530         9.75538
     2010.76796         6.23242         9.89693
     2010.77070         0.11855         9.88120
     2010.77344         1.48867        10.05419
     2010.77618        10.21580         9.82458
     2010.77891        -1.04108         9.75853
     2010.78165         8.05405         9.64215
     2010.78439         4.82817         9.82930
     2010.78713         6.59430        10.04633
     2010.78987        12.05542         9.96141
     2010.79260        14.00855         9.82458
     2010.79534         8.39467         9.87648
     2010.80082        13.35892         9.55251
     2010.80355        13.16505         9.76482
     2010.80629        13.39217         9.91265
     2010.80903       -13.08470        10.18945
     2010.81177        -1.82058        10.35772
     2010.81451        11.81155        10.04004
     2010.81724        -1.22533        10.05262
     2010.81998        -3.33720        10.08565
     2010.82272       -15.13708        10.32941
     2010.82546        -5.61495        10.46309
     2010.82820        18.74417        11.66777
     2010.83093         0.54230        10.83425
     2010.83367         2.15142        10.34671
     2010.83641        -1.98845        10.17844
     2010.83915         1.73567         9.61856
     2010.84188         4.85680         9.86862
     2010.84462        10.13092         9.86233
     2010.84736        13.36805        10.01959
     2010.85010         0.21717        10.03375
     2010.85284        12.94330         9.75853
     2010.85557         0.16342         9.84503
     2010.85831       -20.77045        10.39547
     2010.86105       -12.87032        10.16743
     2010.86379        14.49480         9.90322
     2010.86653       -11.68107        10.42378
     2010.86926       -20.12195        10.06363
     2010.87200        -6.98882        10.15642
     2010.87474         7.34330        10.37817
     2010.87748         1.84343         9.63429
     2010.88021         9.65155         9.63114
     2010.88295         4.76768         9.77111
     2010.88569         3.36480         9.78998
     2010.88843         4.84093        10.00387
     2010.89117        12.37005         9.92523
     2010.89390         4.60918         9.39838
     2010.89664        -2.74170         9.78526
     2010.89938        13.75643        10.11867
     2010.90212         2.35655        11.04813
     2010.90485       -13.30332         9.88434
     2010.90759       -18.06820        10.00544
     2010.91033        -3.86507         9.95354
     2010.91307       -17.84895         9.94096
     2010.91854       -23.06570        10.55745
     2010.92128       -16.47857        10.17372
     2010.92402       -18.10645        10.25550
     2010.92676       -28.59032        10.54802
     2010.92950       -27.23920        10.35930
     2010.93223       -14.83207        10.34514
     2010.93497       -22.82095        10.01016
     2010.93771       -31.25982        10.24606
     2010.94045       -30.50770        10.27280
     2010.94318       -34.19757        11.02140
     2010.94592         1.55255        10.73360
     2010.94866        -8.48832        10.09037
     2010.95140         9.79080         9.97556
     2010.95414         9.92093         9.74752
     2010.95687         3.62805         9.85604
     2010.95961         0.01718         9.71764
     2010.96235         5.55930         9.64687
     2010.96509        -2.31457         9.80256
     2010.96783         2.26456         9.82458
     2010.97056        -5.35832        10.07307
     2010.97330        -5.31319        10.02117
     2010.97604        -4.48507         9.92523
     2010.97878        -1.10994        10.09508
     2010.98151        -2.08682        10.03532
     2010.98425        -2.39269         9.66889
     2010.98699        -1.64957         9.85604
     2010.98973         4.50456        10.01016
     2010.99247        -7.12932         9.99129
     2010.99520        -5.63819         9.80571
     2010.99794       -15.04507         9.99600
     2011.00342        -5.80882         9.96927
     2011.00616        -6.55469         9.88434
     2011.00889       -10.67657         9.99129
     2011.01163        -7.64744         9.78369
     2011.01437        -4.44832         9.89221
     2011.01711         0.48881        10.09980
     2011.01984        -1.53807        10.00859
     2011.02258       -12.01494         9.66574
     2011.02532         3.06818         9.80256
     2011.02806        -1.43769        10.03532
     2011.03080       -16.32657        10.08565
     2011.03901        -4.08619        10.05419
     2011.04175       -16.66707        10.50556
     2011.04449       -13.55094        10.07307
     2011.04722        -0.43782        10.11553
     2011.04996        11.00931        10.56060
     2011.05270       -13.73357        10.14069
     2011.05544       -12.40444         9.98500
     2011.05817        15.53968         9.94882
     2011.06091         2.14581         9.90007
     2011.06365        -9.60307        10.12339
     2011.06639        -3.56194         9.95826
     2011.06913        -0.89381        10.34357
     2011.07186        -9.19169         9.83716
     2011.07460         0.29544         9.85604
     2011.07734        -4.24144         9.95669
     2011.08008        -3.01031         9.83716
     2011.08282       -11.99219         9.91737
     2011.08555        -8.58306        10.02746
     2011.08829        -6.39794         9.89221
     2011.09103        -8.84481         9.85289
     2011.09377        -7.26469        10.01959
     2011.09650       -22.19756        10.29010
     2011.10198         0.52169         9.93152
     2011.10472        -6.80619         9.71292
     2011.10746       -22.00306         9.96298
     2011.11019        -7.82694        10.00544
     2011.11293        -6.31081         9.92052
     2011.11567         5.04131         9.73494
     2011.11841        -6.87256         9.82301
     2011.12115         1.79556         9.79470
     2011.12388        -5.69031         9.72393
     2011.12662        -4.65419        10.03375
     2011.12936       -12.55106         9.77583
     2011.13210       -20.73994         9.71292
     2011.13483       -10.79281         9.84188
     2011.13757       -14.66269         9.73966
     2011.14031       -24.07056         9.66731
     2011.14305       -10.15144        10.04004
     2011.14579        -7.28331         9.76954
     2011.14852       -10.86619         9.69405
     2011.15126        -1.33206         9.84031
     2011.15400        -8.53294         9.94253
     2011.15674         0.19919         9.64215
     2011.15948        -7.80669         9.72550
     2011.16221       -10.19556         9.79627
     2011.16495       -29.24544        10.65496
     2011.16769       -16.35831         9.57138
     2011.17043       -15.48019         9.54936
     2011.17316       -29.24806         9.54779
     2011.17590       -21.63493         9.73966
     2011.17864        -0.24581         9.80728
     2011.18138        -5.39968         9.65159
     2011.18412       -43.88456        10.20674
     2011.18685        -4.97243         9.87648
     2011.18959        -1.99031         9.61699
     2011.19233       -16.21118         9.94882
     2011.19507        -6.17606         9.72236
     2011.19780        -3.05793         9.88120
     2011.20054        -9.74581        10.13912
     2011.20328        -0.59368         9.69090
     2011.20602         0.03444         9.83716
     2011.20876       -10.16043         9.82615
     2011.21149        -5.51231         9.74123
     2011.21423       -13.08218        10.00230
     2011.21697        -3.51806         9.82930
     2011.21971        -0.01193        10.62665
     2011.22245       -30.85781        10.25235
     2011.22518       -10.30668         9.87805
     2011.22792        -6.05656         9.60283
     2011.23066        -5.42543         9.69562
     2011.23340       -14.81031         9.57924
     2011.23613        -7.33618        10.30740
     2011.23887       -22.94106        10.13912
     2011.24161       -59.55193        12.59723
     2011.24435        -6.81381         9.93152
     2011.24709       -19.23868         9.80414
     2011.24982       -12.44956         9.62800
     2011.25256       -12.70443         9.84503
     2011.25530       -14.79231         9.60912
     2011.25804         6.52182        12.39435
     2011.26078       -26.51306        10.61407
     2011.26351       -10.52593         9.88749
     2011.26625       -21.18681         9.99129
     2011.26899       -19.02968        10.14069
     2011.27173       -31.30056        10.16743
     2011.27446       -37.52243        10.87986
     2011.27720       -23.41030         9.81043
     2011.27994         3.70682         9.88120
     2011.28268        14.03395         9.51633
     2011.28542         8.41007         9.78369
     2011.28815       -22.61480        10.60149
     2011.29363        10.35545         9.87176
     2011.29637        -1.96343         9.69719
     2011.29911        -5.59830         9.79470
     2011.30184       -25.56718        10.79965
     2011.30458       -31.98005        10.42220
     2011.30732        -3.13893         9.70663
     2011.31006       -11.74580         9.42826
     2011.31279       -14.45568         9.61541
     2011.31553       -12.07355        10.25707
     2011.31827        16.46657        10.80279
     2011.32101       -14.52930         9.70820
     2011.32375       -11.60518        10.03060
     2011.32648        27.31695        10.73045
     2011.32922        -8.49793         9.80571
     2011.33196       -22.48680        10.11081
     2011.33470       -13.53468         9.82301
     2011.33734       -10.40524        10.26336
     2011.37968        28.26152        26.84736
     2011.38124       -10.12255        11.28718
     2011.38398       -12.94142         9.75853
     2011.38672       -10.74030         9.88120
     2011.38945       -12.36217         9.70034
     2011.39219       -10.68505         9.71135
     2011.39493       -18.14592         9.94411
     2011.39767       -20.80880         9.72550
     2011.40041       -35.94467        10.19102
     2011.40212       -54.78324        21.49707
     2011.42407       -29.60839        20.35058
     2011.42891        -4.22307        25.12369
     2011.43052       -14.91730         9.88277
     2011.43326        -9.72117         9.67989
     2011.43600       -22.91605         9.90479
     2011.43874       -14.86992        10.17844
     2011.44147        -6.97480         9.77583
     2011.44421       -10.42767         9.74280
     2011.44695       -24.76655        10.12968
     2011.44969       -15.16742         9.76325
     2011.45243       -15.65030         9.78684
     2011.45516       -11.51717         9.80414
     2011.45790        -7.41405         9.93310
     2011.46064       -16.76292         9.93782
     2011.46338       -18.52080        10.09666
     2011.46611       -13.41367         9.75696
     2011.46885        -9.16355         9.86547
     2011.47159        -9.88142        10.38760
     2011.47433        -8.07530         9.85761
     2011.47707        -6.48117         9.75067
     2011.47980        -7.64905         9.85918
     2011.48254        -3.42692         9.95040
     2011.48528        -7.93779         9.70506
     2011.48802        -0.55167         9.89850
     2011.49076        -9.38254        10.05262
     2011.49349       -16.64642         9.70663
     2011.49623        -0.62329         9.79627
     2011.49897         2.15783         9.78684
     2011.50171        -7.66204        10.26651
     2011.50444        -7.25892         9.71921
     2011.50718        -1.38279         9.62642
     2011.50992       -10.48167         9.83874
     2011.51266        -1.53854         9.60755
     2011.51540        -2.36142         9.77111
     2011.51813         1.08171         9.75538
     2011.52087         5.21783         9.61227
     2011.52361        -0.10604         9.98814
     2011.52635         3.70508         9.65316
     2011.52908        -9.12479         9.97556
     2011.53182         3.45733         9.61541
     2011.53456        -1.94254         9.87491
     2011.53730         5.46558         9.83087
     2011.54004        -4.51129         9.73337
     2011.54277        -3.48217         9.78369
     2011.54551        -1.00404         9.92052
     2011.54825        -3.83292         9.93624
     2011.55099         2.05421         9.66259
     2011.55373        -3.45667         9.78055
     2011.55646         0.23346         9.80885
     2011.55920        -0.54242         9.74123
     2011.56194         0.85271        10.06363
     2011.56468        -0.41417         9.65001
     2011.56741         3.36296         9.71292
     2011.57015         3.42408        10.05262
     2011.57289         3.30421         9.63743
     2011.57563        -0.42667         9.72865
     2011.57837        -1.64554         9.73179
     2011.58110        -4.11642         9.70034
     2011.58384        -7.86029        10.11553
     2011.58658         2.59483         9.90007
     2011.58932         5.80196         9.62013
     2011.59206         1.73209         9.87491
     2011.59480         3.79219         9.65630
     2011.59753         8.93534         9.61856
     2011.60027         7.59246         9.67989
     2011.60301         9.04259         9.72393
     2011.60574         3.75771         9.94725
     2011.60848        14.92184        10.25550
     2011.61122        11.24296        10.53229
     2011.61396         6.61409        10.13912
     2011.61670         1.51521        10.13440
     2011.61943         7.70634         9.93624
     2011.62217         9.54146        10.23191
     2011.62491         7.43459        10.16114
     2011.62765        11.20071         9.93310
     2011.63039         5.81684         9.94411
     2011.63312        12.57296         9.74437
     2011.63586         6.87409        10.14069
     2011.63860         6.34521        10.30582
     2011.64134        11.64834        10.59363
     2011.64407        13.71646        10.26179
     2011.64681        23.68659        10.43636
     2011.64955         1.88171        10.26179
     2011.65229         7.57884        10.71787
     2011.65503         8.05596        10.38603
     2011.65776         6.53609        10.12968
     2011.66050        10.73021        10.67383
     2011.66324        10.59134         9.84503
     2011.66598         5.07346        10.51027
     2011.66872        11.03159        10.47096
     2011.67145        15.88071         9.94725
     2011.67419        17.42484         9.95826
     2011.67693        16.49696        10.18945
     2011.67967        12.46809        10.03375
     2011.68240        14.74021        10.33413
     2011.68514        18.35834        10.32312
     2011.68788         8.70546        10.26336
     2011.69062         4.95559        10.29796
     2011.69336        10.39872        10.31211
     2011.69609         6.11384        10.46624
     2011.69883         8.31697        10.47882
     2011.70157         5.95709        10.15956
     2011.70431         9.39122        10.07149
     2011.70705         6.61834        10.25393
     2011.70978         9.17147        10.00859
     2011.71252         4.97659        10.06048
     2011.71526         5.76772        10.29482
     2011.71800         8.00084        10.25550
     2011.72073        19.52797         9.85289
     2011.72347        14.24309        10.03375
     2011.72621        16.21322        10.10609
     2011.72895        19.81034        10.06206
     2011.73169         4.90047        10.39704
     2011.73442         7.91859        10.04633
     2011.73716        10.82972        10.12654
     2011.73990         9.43284        10.15170
     2011.74264        13.03797        10.25078
     2011.74538        12.48609        10.51656
     2011.74811        16.04422        10.37817
     2011.75085        20.15134        10.21933
     2011.75359        10.56947        10.54173
     2011.75633        10.48459        10.41119
     2011.75906         1.84672        10.26493
     2011.76180        12.80284        10.41119
     2011.76454        -6.15003        11.97130
     2011.76728         9.29009        10.01173
     2011.77002        13.46022        10.20989
     2011.77275        21.91034        10.77291
     2011.77549         0.57047        11.05600
     2011.77823       -21.26641        10.48826
     2011.78097        10.62672        10.04790
     2011.78371        14.61984        10.11710
     2011.78644        22.77797        10.03689
     2011.78918        10.18709        10.37974
     2011.79192        14.94922         9.87963
     2011.79466        12.14034        10.03532
     2011.79739        16.88447         9.98971
     2011.80013        22.55760        10.19731
     2011.80287        13.44172        10.12182
     2011.80561         0.93985        10.01488
     2011.80835         5.02497         9.92209
     2011.81108         8.02910         9.82144
     2011.81382         8.23122         9.80885
     2011.81656        12.13935        10.00387
     2011.81930        16.78447         9.73022
     2011.82203        12.13760         9.89535
     2011.82477         6.32472         9.83716
     2011.82751        10.04885         9.74752
     2011.83025         2.53097        10.26493
     2011.83299         7.37210         9.72078
     2011.83572        12.26122         9.77740
     2011.83846        11.64135         9.86862
     2011.84120        22.63247         9.42197
     2011.84394        16.05260         9.40782
     2011.84668         6.52272         9.51162
     2011.84941        -4.40715         9.71292
     2011.85215        -6.31303         9.74437
     2011.85489        13.34110        10.18315
     2011.85763         4.34322         9.91422
     2011.86036        13.92635         9.66102
     2011.86310        24.26847         9.65473
     2011.86584         0.51460         9.98814
     2011.86858         2.48972         9.95197
     2011.87132       -12.06415         9.78998
     2011.87405       -26.79603        10.04004
     2011.87953       -32.47978        10.40962
     2011.88227       -27.92865        10.15956
     2011.88501       -24.13053        10.59363
     2011.88774       -31.04540        10.19416
     2011.89048       -28.94828        10.49455
     2011.89322         1.40985        10.28223
     2011.89596         2.11497        10.32312
     2011.89869         4.08710         9.99600
     2011.90143         2.94823        10.25235
     2011.90417        -0.84265         9.83874
     2011.90691        -8.20352         9.99758
     2011.90965         9.54660         9.77583
     2011.91238        17.05773        10.22719
     2011.91512        -9.82815         9.68304
     2011.91786        -0.23602         9.92209
     2011.92060         0.27810         9.75067
     2011.92334         4.96223         9.87333
     2011.92607        -0.17565         9.97084
     2011.92881         7.30648         9.94096
     2011.93155        14.61560         9.93782
     2011.93429         5.06773        10.00230
     2011.93702        15.56185         9.99443
     2011.93976         5.39498        10.11553
     2011.94250        16.73810         9.78055
     2011.94524        10.66023         9.79785
     2011.94798        17.89835         9.81829
     2011.95071        12.53048         9.85132
     2011.95345        10.53260         9.95669
     2011.95619        -4.15527        10.15956
     2011.95893         7.23585         9.50375
     2011.96167        11.50898         9.48016
     2011.96440         9.67710         9.58868
     2011.96714        13.04623         9.80728
     2011.96988         9.98835         9.72707
     2011.97262         3.88548         9.37794
     2011.97535         4.42660         9.68304
     2011.97809         9.79473         9.36693
     2011.98083         2.56585         9.76796
     2011.98357        11.78398         9.58396
     2011.98631         1.84010         9.92681
     2011.98904        11.99323        11.27145
     2011.99178         4.30135         9.87648
     2011.99452        -5.82152        10.14856
     2011.99726         4.15560         9.58711
     2012.00273        12.38985         9.86390
     2012.00547        12.84298         9.59340
     2012.00821        11.47811         9.70820
     2012.01095         0.98923         9.70820
     2012.01368         2.90936         9.62485
     2012.01642        14.51448         9.68933
     2012.01916        12.74561         9.70663
     2012.02190        12.82973         9.50847
     2012.02464        -0.20614         9.62800
     2012.02737         8.42798         9.60441
     2012.03011        10.93011         9.56981
     2012.03285        -0.47177         9.75381
     2012.03559         9.76336         9.64215
     2012.03833         5.07848         9.50533
     2012.04106         4.77061         9.69090
     2012.04380         5.22773         9.59182
     2012.04654        19.35486         9.74595
     2012.04928        17.60798         9.96455
     2012.05201       -18.98389        10.18315
     2012.05475       -14.75777        10.25235
     2012.05749       -21.84364        10.53386
     2012.06023       -11.20752        10.69900
     2012.06297         7.80061        10.77763
     2012.06570       -22.67427        11.53252
     2012.06844       -20.48814         9.89063
     2012.07118       -25.35102         9.73808
     2012.07392         8.06911         9.69090
     2012.07666        10.25923         9.48174
     2012.07939         9.77136         9.89850
     2012.08213         5.08748         9.60283
     2012.08487         6.89261         9.50847
     2012.08761         5.89173         9.83716
     2012.09034         5.11486         9.62328
     2012.09308         9.44398         9.63271
     2012.09582        14.44411         9.72865
     2012.09856        12.69623         9.50218
     2012.10130         4.79636         9.91894
     2012.10403         5.26248         9.57767
     2012.10951        -0.49027        10.15642
     2012.11225         3.29386         9.86547
     2012.11498         5.76699         9.72707
     2012.11772         4.29111         9.73808
     2012.12046         4.80424         9.80256
     2012.12320        11.77136        10.11867
     2012.12594         1.29949         9.78998
     2012.12867         9.02861        10.06835
     2012.13141       -17.28926         9.89221
     2012.13415        -6.15414         9.98342
     2012.13689        10.89599        10.06520
     2012.14236        19.45624        12.83313
     2012.14510       -11.26564        10.11081
     2012.15058        -2.25539         9.41726
     2012.15331         2.12774         9.45343
     2012.15605        -2.59514         9.66259
     2012.15879         6.44399         9.62800
     2012.16153         0.55311         9.53049
     2012.16427        -6.43576         9.65473
     2012.16700        -1.09464         9.91108
     2012.16974        -5.10551         9.89063
     2012.17248        -6.62139         9.70034
     2012.17522        -7.08526         9.65159
     2012.17796         6.02786         9.42512
     2012.18069        -3.66401        10.09666
     2012.18343         4.66211         9.76954
     2012.18617        -5.24476         9.67203
     2012.18891         3.54336         9.93152
     2012.19164         2.44749         9.48174
     2012.19438         3.06861         9.57767
     2012.19712         1.67874         9.76167
     2012.19986        -2.49614         9.77426
     2012.20260        -8.82801         9.98028
     2012.20533         2.07611        10.05419
     2012.20807         5.94124        10.10767
     2012.21081         2.96836         9.92209
     2012.21355        -3.19051         9.85289
     2012.21629         4.58562         9.90793
     2012.21902       -10.84426         9.90007
     2012.22176        -9.99313        10.29167
     2012.22450       -31.29901        10.44737
     2012.22724       -17.19588        10.17372
     2012.22997        -4.47276        10.18630
     2012.23271        -2.68863         9.81200
     2012.23545         0.33349         9.98342
     2012.23819         6.14062         9.79627
     2012.24093         2.84574         9.86390
     2012.24366        -4.71913        10.34357
     2012.24640       -14.00001        10.19259
     2012.24914        -0.31188         9.81672
     2012.25188       -10.80076        10.16271
     2012.25462       -16.94963        10.17057
     2012.25735       -10.15051         9.63114
     2012.26009       -16.31638         9.56666
     2012.26283       -27.13026         9.99129
     2012.26557       -32.18213        10.47410
     2012.26830        -6.09401         9.87648
     2012.27104        -6.49688        10.11867
     2012.27378        -5.15976         9.99443
     2012.27652        -1.72163         9.97556
     2012.30498        -8.33089        21.35710
     2012.30663       -15.93426         9.81043
     2012.30937         0.24187         9.80256
     2012.31211       -20.13701        10.31369
     2012.31485         0.23212         9.89693
     2012.31759       -13.24476         9.92838
     2012.32032       -22.96663        10.82953
     2012.32306        -2.03250        10.19731
     2012.32580        -7.74938         9.86390
     2012.32854       -29.29925        10.85312
     2012.33128        20.41387        11.33279
     2012.33401        21.60000        11.09846
     2012.33675        22.92112        10.36559
     2012.34223        -5.47563         9.82458
     2012.34496       -16.87950         9.96141
     2012.34770        -5.81638        10.04790
     2012.35044        -9.92725         9.86704
     2012.35318        -5.16813         9.81986
     2012.35592        -7.79900         9.67675
     2012.35865        -6.16788         9.68619
     2012.36139       -12.31875         9.87176
     2012.36413       -11.95563         9.84031
     2012.36687        -8.32150         9.73179
     2012.36961        -4.87138         9.66259
     2012.37234        -5.86325        10.26651
     2012.37508        -5.52413         9.81200
     2012.37782        -2.67100        10.03218
     2012.38056        -5.59688         9.87648
     2012.38329        -6.12775         9.76639
     2012.38603       -10.04763        10.58419
     2012.38877       -14.08250        11.49635
     2012.39151        -7.33138        10.52443
     2012.39425         5.63475        10.15799
     2012.39698       -49.68713        10.74932
     2012.39972        19.75500        10.16743
     2012.40520        -5.78575        10.02117
     2012.40794        -6.36563         9.79313
     2012.41067        -5.59050         9.66731
     2012.41341        -7.99738         9.57610
     2012.41615        -8.39525         9.67832
     2012.41889        -3.73713        10.23034
     2012.42162        -0.55600         9.61699
     2012.42436        -6.71787         9.92838
     2012.42710       -16.50975        10.15170
     2012.42984        30.54438        13.60218
     2012.43258        -6.47350        10.28538
     2012.43531       -13.78937        10.01802
     2012.43805        15.46975        10.59520
     2012.44079        -0.21612        10.36559
     2012.44353       -14.42800         9.54622
     2012.44626        -8.81387         9.57767
     2012.44900       -10.09875         9.79785
     2012.45174        -2.87862         9.52263
     2012.45448        -1.34550         9.55408
     2012.45722        -8.63837         9.75067
     2012.45995        -4.50125         9.76954
     2012.46269       -14.72712        10.71944
     2012.46543        -2.32600         9.97399
     2012.46817         3.46813         9.65473
     2012.47091         0.14425         9.57767
     2012.47364        -4.74862         9.70506
     2012.47638       -13.91950         9.95826
     2012.47912        -9.16737         9.95197
     2012.48186        -8.78425         9.84503
     2012.48459        -6.98412        10.02274
     2012.48733        -8.95100         9.67675
     2012.49007        -9.98587         9.44085
     2012.49281        -1.65475         9.82615
     2012.49555        -4.86762         9.66731
     2012.49828       -10.65850         9.80256
     2012.50102         3.25463         9.50218
     2012.50376        -1.95725         9.62957
     2012.50650         2.64088         9.46129
     2012.50924         3.32000         9.89063
     2012.51197        -1.03787         9.95511
     2012.51471        -0.35475         9.60441
     2012.51745        -1.07462         9.73808
     2012.52019         5.85550         9.80256
     2012.52292        -9.49337        10.04319
     2012.52566        -2.06725         9.77583
     2012.52840        -3.31112         9.80728
     2012.53114         6.86601         9.73651
     2012.53388        -0.31487         9.70663
     2012.53661        -0.87474         9.84660
     2012.53935         3.37338         9.73494
     2012.54209         5.33651         9.53993
     2012.54483        -8.07837        10.14698
     2012.54757         1.43676         9.59654
     2012.55030        -1.42512         9.68147
     2012.55304         8.48101         9.63429
     2012.55578         1.65313         9.73808
     2012.55852        -3.33674         9.50375
     2012.56125         9.16538         9.67832
     2012.56399         5.62951         9.67046
     2012.56673         5.98463         9.47073
     2012.56947         4.91576         9.75696
     2012.57221        10.70688         9.58711
     2012.57494        -0.82999         9.85918
     2012.57768        -1.47387         9.95511
     2012.58042         7.50126         9.50533
     2012.58316         1.29138         9.57610
     2012.58590         7.56551         9.79470
     2012.58863         9.37163         9.45657
     2012.59137        12.17876         9.77111
     2012.59411         2.58088         9.72707
     2012.59685        -8.97799        10.01802
     2012.59958         1.26913         9.77897
     2012.60232         4.11326        10.01645
     2012.60506         7.04538         9.25370
     2012.60780         4.89951         9.40782
     2012.61054        10.03963         9.40153
     2012.61327         9.69576         9.42984
     2012.61601         7.42288         9.50061
     2012.61875        13.44401         9.41568
     2012.62149        11.93813         9.48960
     2012.62423        15.09526         9.45343
     2012.62696         2.39238         9.74909
     2012.62970        -0.27549         9.74280
     2012.63244        11.20764         9.53678
     2012.63518        17.10876         9.43927
     2012.63791         9.13489         9.74595
     2012.64065        13.22701         9.47702
     2012.64339        11.79414         9.34648
     2012.64613        13.30626         9.48803
     2012.64887        18.24739         9.45815
     2012.65160         7.97051         9.68147
     2012.65434        13.15964         9.62013
     2012.65708         6.64076         9.81200
     2012.65982        14.60889         9.85289
     2012.66256        15.65601         9.49117
     2012.66529        14.05914         9.66731
     2012.66803        10.84526         9.65159
     2012.67077        13.94839         9.54622
     2012.67351         9.04351         9.65473
     2012.67624        14.44964         9.46286
     2012.67898        19.60976         9.40310
     2012.68172        17.20989         9.41254
     2012.68446        10.80701         9.50847
     2012.68720        10.35514         9.52420
     2012.68993        12.21726         9.42355
     2012.69267        12.48339         9.86862
     2012.69541        12.74051         9.73808
     2012.69815        16.15664         9.83245
     2012.70089         7.00676         9.66417
     2012.70362         5.81089         9.65788
     2012.70636        12.45401         9.55093
     2012.70910        12.09714         9.62485
     2012.71184        11.04026         9.54307
     2012.71457        11.72039         9.52734
     2012.71731        19.31051         9.41254
     2012.72005        11.16064         9.42197
     2012.72279        10.98176         9.50847
     2012.72553        16.02989         9.57452
     2012.72826         0.76401        10.02117
     2012.73100        12.24614         9.53206
     2012.73374         5.57926         9.69877
     2012.73648        11.52839         9.54936
     2012.73921        12.28052         9.74280
     2012.74195        16.78064         9.57452
     2012.74469        12.81377         9.41883
     2012.74743        13.97589         9.49117
     2012.75017         9.66502         9.51162
     2012.75290        11.58114         9.65001
     2012.75564        11.64727         9.59969
     2012.75838        11.03839         9.43613
     2012.76112        18.68352         9.48803
     2012.76386        18.16164         9.40153
     2012.76659        18.74477         9.53521
     2012.76933        14.71389         9.70348
     2012.77207        14.97002         9.44714
     2012.77481        19.11214         9.49274
     2012.77754        17.23027         9.47230
     2012.78028        16.54239         9.51004
     2012.78302         5.83952         9.67360
     2012.78576         9.26864         9.52892
     2012.78850        12.66177         9.69248
     2012.79123         1.77989        10.18787
     2012.79397        11.95302         9.32604
     2012.79671        11.06314         9.51319
     2012.79945        14.92727         9.61070
     2012.80219        17.78739         9.48016
     2012.80492        14.74252         9.53521
     2012.80766        12.54264         9.50061
     2012.81040        14.50277         9.49432
     2012.81314         9.82789         9.72078
     2012.81587         8.17602         9.83402
     2012.81861         7.08914        10.99623
     2012.82135         1.60127         9.73337
     2012.82409        -3.74361         9.72393
     2012.82683        -0.58048         9.85918
     2012.82956        10.52064         9.59654
     2012.83230         9.63277         9.54936
     2012.83504         0.68789         9.60755
     2012.83778        16.08802         9.54464
     2012.84052        -2.12485         9.68147
     2012.84325         1.14727         9.71607
     2012.84599         7.92740         9.56037
     2012.84873         8.72852         9.58396
     2012.85147         6.52765         9.64530
     2012.85420        12.52277         9.32289
     2012.85694        -3.86910         9.53521
     2012.85968       -12.58398         9.51319
     2012.86242        -5.01785         9.54779
     2012.86516       -21.05873         9.74909
     2012.87063       -12.41348        10.46309
     2012.87337        13.05765         9.74752
     2012.87611        10.36577         9.54622
     2012.87885        10.78890         9.48960
     2012.88158         3.75602         9.51633
     2012.88432        -7.80285         9.82144
     2012.88706         0.75227        11.79359
     2012.88980         2.61540        10.46624
     2012.89253        -6.71948         9.93310
     2012.89527        -2.21335         9.67203
     2012.89801        11.17977        11.09060
     2012.90349         2.13302         9.92681
     2012.90622        12.08915         9.73494
     2012.90896        12.05727         9.88592
     2012.91170         5.11040         9.53521
     2012.91444        -6.85548         9.78998
     2012.91718         4.43465         9.83402
     2012.91991         4.75777         9.96927
     2012.92265         2.23690         9.83716
     2012.92539       -16.98998         9.85918
     2012.92813       -14.23185         9.65473
     2012.93086       -10.34273         9.74280
     2012.93360        11.10940         9.64058
     2012.93634        -3.70848         9.53521
     2012.93908        -0.12535         9.75853
     2012.94455         4.40990         9.61070
     2012.94729        15.55303         9.69090
     2012.95003         8.30015         9.91894
     2012.95277        21.15928         9.41096
     2012.95551        16.73240         9.52105
     2012.95824        17.18153         9.48488
     2012.96098        24.00465         9.80256
     2012.96372        20.80278         9.73651
     2012.96646        17.17990         9.43456
     2012.96919         9.51703         9.72865
     2012.97193        14.30115         9.72550
     2012.97467        16.59528         9.77111
     2012.97741        15.12940         9.61070
     2012.98015         5.94253         9.81829
     2012.98288        17.23065         9.69090
     2012.98562        11.86178         9.85918
     2012.98836         6.98590        10.07778
     2012.99110         5.04603         9.92209
     2012.99384        -0.45485        10.13283
     2012.99657        -0.29972         9.95040
     2012.99931         5.72540         9.55565
     2013.00205        -0.36247         9.76167
     2013.00479         1.35465         9.64215
     2013.00752         3.38378         9.66102
     2013.01026        -2.21910         9.74752
     2013.01300         3.19303         9.55093
     2013.01574         1.81615         9.45657
     2013.02121       -20.79260        13.04859
     2013.02395        17.01753        10.00859
     2013.02669        27.84265         9.78841
     2013.02943        15.07178         9.51633
     2013.03216        14.19690         9.46129
     2013.03490         6.18803         9.55722
     2013.03764        15.17615         9.66889
     2013.04038        -5.18272         9.73337
     2013.04312        -7.29260         9.93782
     2013.04585        -1.82647         9.85289
     2013.04859         0.87166         9.75067
     2013.05133         4.57278         9.51948
     2013.05407         1.48291         9.62485
     2013.05681         2.66603         9.58553
     2013.05954        -2.39584         9.61227
     2013.06228         2.63428         9.66102
     2013.06502        -5.16759         9.73651
     2013.07323        12.55478         9.73808
     2013.07597        -3.17909         9.60598
     2013.08145       -18.27384         9.82615
     2013.08418       -23.22472         9.64844
     2013.08692         3.22741         9.91737
     2013.08966        -2.90947         9.54936
     2013.09240         2.90966         9.49432
     2013.09514         9.51678         9.36536
     2013.09787         3.90691         9.85918
     2013.10061        -3.45397        10.26022
     2013.10335        -3.13084         9.75224
     2013.10609       -14.17772         9.50375
     2013.10882        -3.74359         9.13574
     2013.11156       -21.40247         9.83559
     2013.11430        -4.60534         9.60755
     2013.11704       -17.59622        10.15799
     2013.11978        -1.45309         9.85604
     2013.12251        -7.66697         9.52105
     2013.12525        -1.61584         9.64215
     2013.12799        -6.02472         9.48016
     2013.13073        -5.52559         9.69090
     2013.13347        -1.70547         9.73022
     2013.13620         0.34266         9.61699
     2013.13894        -1.11222         9.53049
     2013.14168        -4.27009         9.61699
     2013.14442       -20.72297         9.97871
     2013.14715       -23.71584        10.14226
     2013.14989       -35.03372        10.01802
     2013.15263        -7.43759         9.96455
     2013.15537       -10.22846         9.56194
     2013.15811        -1.05434         9.54464
     2013.16084         3.45179        10.54959
     2013.16632        -2.78096         9.59811
     2013.16906       -11.13184        10.23977
     2013.17180       -16.58271         9.86704
     2013.17453        -0.43059         9.54464
     2013.17727        -2.38646         9.83245
     2013.18001       -12.70234        10.09666
     2013.18275       -11.26421         9.48488
     2013.18548        -6.11809         9.45815
     2013.18822       -13.63296         9.73494
     2013.19096         9.88016        10.23820
     2013.19370        -4.30971         9.74437
     2013.19644        -8.29259         9.74123
     2013.19917        -0.52746         9.50218
     2013.20191        -9.69934        10.08408
     2013.20465         0.89879         9.62013
     2013.20739         1.24491         9.57610
     2013.21013        -6.11496         9.64372
     2013.21286        -6.57084         9.46286
     2013.21560        -5.45771        10.14541
     2013.21834        -2.66759         9.71449
     2013.22108       -10.72046         9.98500
     2013.22381       -13.55734         9.76167
     2013.22655        -6.05221         9.78055
     2013.22929        -7.32909         9.69090
     2013.23203       -13.77096         9.82615
     2013.23477        -6.08784         9.54936
     2013.23750        -8.08071         9.79627
     2013.24024        -9.58559         9.87648
     2013.24298         2.34054         9.67989
     2013.24572        -0.42234         9.82301
     2013.24846         0.80079         9.84503
     2013.25119        -4.38709        10.00387
     2013.25393        -7.01896         9.67675
     2013.25667        -6.79884        10.19259
     2013.25941         7.80229        10.28223
     2013.26214         1.34542        10.35300
     2013.26488        14.28554         9.77583
     2013.26762       -28.90733        10.47567
     2013.27036        -5.50021        10.14541
     2013.27310        -1.65108        10.22719
     2013.27583        -4.72296         9.94568
     2013.27857        -4.53783         9.97399
     2013.28131        -1.91871        10.01173
     2013.28405       -15.56258         9.60283
     2013.28679       -34.97446        10.26965
     2013.28952       -13.62433        11.15508
     2013.29226        -5.86421        10.41119
     2013.29500        -9.65708         9.65473
     2013.29774       -23.49296        10.94591
     2013.30321       -16.65571         9.78055
     2013.30595        -4.27958         9.79785
     2013.30869       -12.59746         9.51633
     2013.31143        -5.95533         9.79785
     2013.31416        -4.16421         9.75067
     2013.31690        -3.41008         9.68147
     2013.31964        -5.88496         9.55880
     2013.32238       -10.34083         9.64687
     2013.32512        -1.96871         9.52105
     2013.32785        -1.32558         9.54464
     2013.33059        -4.52146         9.60283
     2013.33333       -12.99133         9.76482
     2013.33607       -12.78921         9.56194
     2013.33880        -2.26108         9.58082
     2013.34154        -4.85396         9.75067
     2013.34428       -10.27983         9.77583
     2013.34702         2.84729         9.73494
     2013.34976         0.79542         9.66889
     2013.35249        -9.11246         9.76167
     2013.35523        -7.81733        10.08093
     2013.35797        -9.33021        10.12182
     2013.36071        -2.98008         9.55722
     2013.36344        -1.18095         9.54936
     2013.36618        -0.96683         9.66731
     2013.36892        -0.18370         9.56194
     2013.37166        -4.79058         9.77268
     2013.37440        -6.12445         9.88434
     2013.37713        -5.83233         9.79627
     2013.38261        -5.29408         9.61070
     2013.38535        -8.86295        10.01016
     2013.38809        -6.97383         9.39524
     2013.39082       -11.42970         9.97084
     2013.39356       -12.11358        10.22404
     2013.39630         1.35855         9.67518
     2013.39904        -9.34833        10.14384
     2013.40177       -11.38320         9.88120
     2013.40725        -4.25395        11.49635
     2013.40999        -9.97783        10.19416
     2013.41273         3.40830         9.47073
     2013.41546         1.35842        10.04161
     2013.41820        -1.95845         9.62485
     2013.42094         0.26667         9.76482
     2013.42368        -5.49020         9.71607
     2013.42642        -3.60208         9.63586
     2013.43189         0.73017         9.84345
     2013.43463         2.00130         9.75538
     2013.43737         2.38642         9.90322
     2013.44010         4.78355         9.67203
     2013.44284         2.51367         9.71921
     2013.44558         5.32580         9.71921
     2013.44832       -11.01208         9.71607
     2013.45106       -31.10395        11.08116
     2013.45379         2.79917         9.74123
     2013.45653         0.05830         9.78684
     2013.45927         2.14642         9.69405
     2013.46201         6.75355         9.65316
     2013.46475         1.08167        10.24921
     2013.46748        10.62780        10.64552
     2013.47022        -2.73707         9.74595
     2013.47296         1.78305         9.53206
     2013.47570        -2.29282         9.50533
     2013.47843        -7.32770         9.75696
     2013.48117         1.97943         9.91108
     2013.48391        -4.40645         9.76167
     2013.48665        -0.63532         9.70191
     2013.48939         3.27380         9.50847
     2013.49212        -8.80407         9.69090
     2013.49486         3.25105         9.77897
     2013.49760         3.52218         9.84660
     2013.50034         3.48130         9.52577
     2013.50308        -1.55357         9.65316
     2013.50581         3.17055         9.47859
     2013.50855         3.04168         9.25527
     2013.51129         4.97180         9.60755
     2013.51403         8.92593         9.65001
     2013.51676         8.36805         9.53049
     2013.51950         4.60718         9.62800
     2013.52224         8.17930         9.70506
     2013.52498         6.02543        10.05577
     2013.52772         7.32355         9.63271
     2013.53045         6.28668         9.51319
     2013.53319         2.93880         9.72078
     2013.53593         5.38593         9.76167
     2013.53867         2.92705         9.86075
     2013.54141         6.26118         9.83402
     2013.54414        -0.40770         9.74752
     2013.54688         3.36143         9.58868
     2013.54962         7.10455         9.64687
     2013.55236        10.57668         9.62642
     2013.55509         5.05980         9.63429
     2013.55783         2.11093         9.83402
     2013.56057         3.16505        10.06520
     2013.56331         8.76518         9.86233
     2013.56605         2.79230         9.69090
     2013.56878        -0.86257         9.70663
     2013.57152         7.55156         9.83245
     2013.57426        13.01368         9.67832
     2013.57700        10.23381         9.59025
     2013.57974        11.81693         9.86233
     2013.58247        16.88506         9.62642
     2013.58521         8.70318         9.62800
     2013.58795         8.49831         9.89063
     2013.59069         9.89343         9.66731
     2013.59342        11.86856         9.58553
     2013.59616        10.82268         9.78369
     2013.59890        10.48281         9.75067
     2013.60164         9.65593         9.86075
     2013.60438         7.85406         9.93782
     2013.60711         8.69118         9.85289
     2013.60985         9.85431         9.77897
     2013.61259         8.02943         9.93624
     2013.61533        14.29056        10.16428
     2013.61807        11.44868        10.16114
     2013.62080         6.42181         9.85289
     2013.62354         5.41493        10.13755
     2013.62628        15.38406         9.73651
     2013.62902         4.25918         9.90479
     2013.63175        12.42731         9.76639
     2013.63449        11.51843         9.99129
     2013.63723        12.87056         9.80414
     2013.63997         9.64868        10.13597
     2013.64271        11.99581         9.82930
     2013.64544        13.92793         9.62485
     2013.64818         6.73806         9.69090
     2013.65092        13.10918         9.63114
     2013.65366        10.89831         9.66574
     2013.65639         7.05943         9.71607
     2013.65913        14.63756         9.97241
     2013.66187        18.83668         9.71607
     2013.66461        19.22081         9.73808
     2013.66735        21.55593         9.45972
     2013.67008         9.60406         9.75224
     2013.67282        13.36718         9.74123
     2013.67556        12.88931         9.67360
     2013.67830        18.71144         9.76954
     2013.68104         2.06756         9.86233
     2013.68377        15.75469         9.67675
     2013.68651         8.39981         9.88906
     2013.68925        10.59194        10.08250
     2013.69199        13.69006         9.61541
     2013.69472        21.37019         9.54936
     2013.69746        10.63231         9.61856
     2013.70020        17.64744         9.77897
     2013.70294        22.02656         9.45028
     2013.70568        10.86869         9.94096
     2013.70841        13.55181         9.48960
     2013.71115        21.65194         9.60912
     2013.71389         9.28906         9.73022
     2013.71663        13.66919         9.62800
     2013.71937        14.66531         9.81986
     2013.72210        21.92244         9.48960
     2013.72484        17.27056         9.67046
     2013.72758        11.10569         9.92995
     2013.73032        28.08181         9.89850
     2013.73853        15.26919         9.46286
     2013.74127         7.20931         9.63743
     2013.74401        13.32044         9.83559
     2013.74674         9.29656         9.89221
     2013.74948       -14.31331         9.60126
     2013.75222        21.08881         9.64844
     2013.75496        11.29394         9.90479
     2013.75770         8.19206         9.41096
     2013.76043         4.04019         9.51633
     2013.76317        13.11431         9.57767
     2013.76591         8.70144         9.63900
     2013.76865        13.93056         9.64058
     2013.77138        21.91469        10.03847
     2013.77412        14.27381        10.16743
     2013.77686         4.70894         9.55408
     2013.77960         9.68207         9.48960
     2013.78234        10.77219         9.46286
     2013.78507         5.36132         9.67989
     2013.78781        10.49644         9.49274
     2013.79055         8.16357         9.45657
     2013.79329         9.21269         9.47702
     2013.79603        15.27282         9.40467
     2013.79876         9.89094         9.47702
     2013.80150        14.27107         9.64058
     2013.80424        14.52719         9.51948
     2013.80698        13.55132         9.44399
     2013.80971        14.13444         9.55251
     2013.81245        18.58257         9.40939
     2013.81519        11.73069         9.48174
     2013.81793        11.88082         9.52105
     2013.82067         9.76794         9.67518
     2013.82340         5.19607         9.63114
     2013.82614        23.16319        10.14226
     2013.82888        14.84232         9.56981
     2013.83162        12.75144         9.50061
     2013.83436        11.59557         9.70506
     2013.83709         8.09869         9.83245
     2013.83983         3.47482         9.49746
     2013.84257         5.50094         9.46129
     2013.84531        -6.86193        11.19597
     2013.84804        40.14919        16.20026
     2013.85078         1.64032         9.93939
     2013.85352         3.25444         9.51162
     2013.85626        18.21357        10.28066
     2013.85900         7.28869         9.34019
     2013.86173        10.16282         9.38266
     2013.86447         3.85794         9.74752
     2013.86721         5.93907         9.35907
     2013.86995         2.66819         9.54936
     2013.87269        15.42832         9.29144
     2013.87542        19.49744         9.33548
     2013.87816        12.41657         9.39367
     2013.88090         9.80869         9.78841
     2013.88364        22.21582        11.02612
     2013.88911       -11.60493         9.70820
     2013.89185        13.31020         9.21752
     2013.89459        14.45032         9.38580
     2013.89733         3.06145         9.55880
     2013.90006         3.59557         9.42669
     2013.90280         0.69670         9.66731
     2013.90554        10.54682         9.37951
     2013.90828        10.20895         9.53835
     2013.91102         7.36007         9.52420
     2013.91375         6.45420         9.57767
     2013.91649         5.84232         9.81986
     2013.91923        -4.53655        10.00701
     2013.92197         6.57957         9.62800
     2013.92470         2.97870         9.44556
     2013.92744         0.42082         9.62800
     2013.93018         4.17495         9.47702
     2013.93292        -5.63893         9.51004
     2013.93566         0.22220         9.36221
     2013.93839        -9.93568         9.41726
     2013.94113        -6.98455         9.39524
     2013.94387        -4.32043         9.91580
     2013.94661       -16.49530        10.24606
     2013.94935         9.41682         9.42669
     2013.95208         1.53795         9.61227
     2013.95482         2.80807         9.49904
     2013.95756         4.70020         9.41096
     2013.96030        10.20032         9.49589
     2013.96303         7.68145         9.48174
     2013.96577         5.80857         9.25370
     2013.96851         6.58770         9.33233
     2013.97672        35.66207         9.96770
     2013.97946        10.39620         9.74437
     2013.98220        11.08532         9.57295
     2013.98494         6.38345         9.40153
     2013.98767         4.16458         9.56037
     2013.99041         4.98370         9.37165
     2013.99315        -6.00417         9.54150
     2013.99589         7.79895         9.58239
     2013.99863         6.74808         9.38423
     2014.00410         0.42333         9.54150
     2014.00684         6.13245         9.67832
     2014.00958         9.07858         9.17663
     2014.01232         5.00570         9.53835
     2014.01505         1.99883         9.76167
     2014.01779         7.07395         9.56037
     2014.02053        12.90008         9.47702
     2014.02327        22.55520         9.85604
     2014.02600         8.44133        10.08879
     2014.03148        11.21458         9.51791
     2014.03696        19.72983         9.70978
     2014.03969        32.18695         9.76010
     2014.04243         5.48808         9.80885
     2014.04517         9.17420         9.95669
     2014.04791         2.30333         9.46601
     2014.05065         8.24945         9.48331
     2014.05338        -0.67142         9.42669
     2014.05612        -0.45930         9.42984
     2014.05886        -0.57517         9.61227
     2014.06160        -1.92305         9.51319
     2014.06433        10.11108         9.69248
     2014.06707         7.25620         9.79627
     2014.06981         6.23833         9.68461
     2014.07255         8.39845         9.50690
     2014.07529        -8.71442         9.66417
     2014.07802       -19.32530         9.80728
     2014.08076        13.03083         9.81515
     2014.08350        15.53495         9.62328
     2014.08624        14.57708         9.83716
     2014.08898        10.07420        10.16114
     2014.09171        10.05533        10.01330
     2014.09445         7.74546         9.47073
     2014.09719        -4.83142         9.91894
     2014.09993        -0.89029         9.72550
     2014.10266        -1.11617         9.83245
     2014.10540         6.73296         9.67203
     2014.10814       -20.06692        10.68012
     2014.11088       -10.90979        10.23348
     2014.11362        -6.52567         9.89850
     2014.59274         4.71723         9.89850
     2014.59548         0.89535         9.94253
     2014.59822         9.32848         9.83559
     2014.60095         7.88460         9.71764
     2014.60369         9.62873         9.53049
     2014.60643         5.43085         9.63743
     2014.60917         4.69798        10.09666
     2014.61190         9.43110         9.93467
     2014.61464         9.90223         9.81200
     2014.61738         4.67436         9.69719
     2014.62012         8.41648         9.88749
     2014.62286         9.99561         9.72078
     2014.62559         7.46973        10.00072
     2014.62833         5.66686        10.08408
     2014.63107         7.71698        10.08879
     2014.63381        -3.61789        10.08408
     2014.63655        11.97223         9.79470
     2014.63928         1.86936         9.87648
     2014.64202         2.11148         9.70348
     2014.64476         4.90661         9.69405
     2014.64750        20.01873         9.48645
     2014.65023         3.91586         9.52577
     2014.65297         9.05398         9.74909
     2014.65571         4.07411         9.80414
     2014.65845        12.90823         9.69405
     2014.66119        18.70636         9.97871
     2014.66392         3.10048         9.75853
     2014.66666        12.28061         9.51633
     2014.66940         6.68473         9.67046
     2014.67214        15.07786         9.75538
     2014.67488         8.27298         9.59025
     2014.67761         6.68211         9.61856
     2014.68035        10.28723         9.51004
     2014.68309         3.51836         9.65788
     2014.68583        12.05848         9.59654
     2014.68856         3.04461         9.42197
     2014.69130        15.56573         9.54936
     2014.69404        15.43486         9.43456
     2014.69678         9.27698         9.46915
     2014.69952        15.94111         9.39367
     2014.70225        17.71723         9.65945
     2014.70499        13.22636         9.88120
     2014.70773        24.94648         9.63900
     2014.71047        10.89161         9.53363
     2014.71321        11.99473         9.70034
     2014.71594        13.41386         9.61227
     2014.71868        18.11999         9.65159
     2014.72142        20.43211         9.50847
     2014.72416        17.28524         9.40310
     2014.72689        17.23036         9.45343
     2014.72963        19.19849         9.32289
     2014.73237        11.47161         9.54936
     2014.73511        12.44474         9.49589
     2014.73785        12.32086         9.41568
     2014.74058         6.28099         9.77111
     2014.74332         7.20911         9.66259
     2014.74606        11.20024         9.68619
     2014.74880        18.19436         9.64372
     2014.75154        10.02149         9.75538
     2014.75427        13.55861         9.39681
     2014.75701        14.12174         9.44242
     2014.75975        13.84486         9.42669
     2014.76249        17.89999         9.63271
     2014.76522        17.13211         9.48174
     2014.76796        17.02224         9.31660
     2014.77070        15.99736         9.39209
     2014.77344        11.85249         9.45972
     2014.77618        19.75061         9.61070
     2014.77891        10.39374         9.54936
     2014.78165        16.63086         9.36064
     2014.78439        20.39999         9.59025
     2014.78713         1.86111         9.42826
     2014.79260        13.78736         9.46286
     2014.79534         8.19749         9.39524
     2014.79808        20.07561         9.64844
     2014.80082        16.51174         9.50218
     2014.80355        17.79186         9.99443
     2014.80629        13.70499         9.94568
     2014.80903        -4.38989         9.90007
     2014.81177        11.73324        10.22719
     2014.81451        21.92236         9.37951
     2014.81724        -1.57851         9.54622
     2014.81998         2.87661        10.31683
     2014.82272        12.31874        10.68327
     2014.82546         8.99487         9.49589
     2014.82820        12.11299         9.44085
     2014.83093         3.45812         9.72550
     2014.83367        25.06524         9.73337
     2014.83641        17.98037         9.77897
     2014.83915        -2.50751        12.83785
     2014.84188        -2.52738        11.04656
     2014.84462         3.25974         9.66574
     2014.84736        13.63587         9.74280
     2014.85010         9.09199         9.76796
     2014.85284        13.11312         9.66889
     2014.85557         7.32324         9.82930
     2014.85831        21.72937         9.48645
     2014.86105         9.75949         9.34334
     2014.86379        10.57162         9.47230
     2014.86653        10.62974         9.61227
     2014.87200        -3.26601        11.03712
     2014.87474        -7.66188        10.39547
     2014.87748        31.12724         9.94725
     2014.88021         7.94937         9.71921
     2014.88295        11.86749         9.94411
     2014.88569       -11.01638        10.55745
     2014.88843       -10.49626        10.34042
     2014.89117         4.34887        10.28066
     2014.89390        15.66099         9.91894
     2014.89664        27.01612        10.33885
     2014.89938         5.60924        10.93804
     2014.90212         5.06037         9.70348
     2014.90485         6.83649         9.82615
     2014.90759        -2.13838         9.70663
     2014.91033        -1.88426         9.84817
     2014.91307         6.48587         9.56037
     2014.91581       -12.35401         9.62957
     2014.92128        54.92024        20.51414
     2014.92402         0.16337        11.29033
     2014.92676         9.69850         9.77111
     2014.92950         1.78662         9.80885
     2014.93223         6.74175         9.80099
     2014.93497        14.35287         9.89221
     2014.93771         0.38400        10.04633
     2014.94045         9.64612         9.73337
     2014.94318        12.15025        10.21618
     2014.94592         6.36137         9.69405
     2014.94866        -3.07050         9.55251
     2014.95140         1.44162         9.43141
     2014.95414        -3.15325         9.25999
     2014.95687         4.26487         9.46601
     2014.95961         9.22200         9.48331
     2014.96235        10.97212         9.57767
     2014.96509        21.51325         9.73651
     2014.96783         4.50337         9.63586
     2014.97056       -37.67350        12.70260
     2014.97878        -1.32413         9.50847
     2014.98151         5.52200         9.51162
     2014.98425        -1.22188         9.50533
     2014.98699         7.54325         9.38423
     2014.98973        20.86537         9.28200
     2014.99794         0.37575         9.83559
     2015.00068         2.16987        10.12025
     2015.00342         1.57700         9.24741
     2015.00616        -7.12588         9.43141
     2015.00889         1.65425         9.37165
     2015.01163        -6.65463         9.65001
     2015.01437       -27.31350        10.42535
     2015.01711         7.52562         9.52420
     2015.01984         9.20175         9.52263
     2015.02258        11.97487         9.63114
     2015.02532        11.25200         9.68147
     2015.02806         6.57312         9.49904
     2015.03080         4.04325         9.79470
     2015.03353         1.21338         9.53363
     2015.03627         5.56250         9.36378
     2015.03901         9.79163         9.48645
     2015.04175        20.36875         9.76167
     2015.04449         9.42388        10.15327
     2015.04722        10.92700         9.89378
     2015.04996        -1.61687         9.58868
     2015.05270         1.62225         9.78998
     2015.05544        -7.99562         9.59025
     2015.05817         0.74250         9.41096
     2015.06091        -4.16337         9.56037
     2015.06365         3.56775        10.01959
     2015.06639        12.67088         9.52734
     2015.06913         7.45600         9.82930
     2015.07186         2.58013         9.43770
     2015.07460         6.14125         9.36064
     2015.07734         6.21438         9.24269
     2015.08008         5.39650         9.32604
     2015.08282         9.04563         9.45185
     2015.08555         4.31875         9.82930
     2015.08829        12.15788         9.83087
     2015.09650        11.90425         9.63271
     2015.09924        12.62938         9.74909
     2015.10198         0.32750         9.68776
     2015.10472         5.09163         9.51791
     2015.10746        10.74875         9.51476
     2015.11019       -12.66612        10.33256
     2015.11293        -6.52200         9.77111
     2015.11567        -0.12687         9.52577
     2015.11841         6.05725         9.29616
     2015.12115        10.26338         9.31189
     2015.12388         2.26750         9.38737
     2015.12662         6.22063         9.34648
     2015.12936         5.56475         9.60126
     2015.13210         2.71688         9.45343
     2015.13483         6.23901         9.59811
     2015.13757         7.18113         9.51791
     2015.14031         3.22026         9.39367
     2015.14305         5.51038         9.37951
     2015.14579         2.51351         9.29144
     2015.14852         9.27663         9.42197
     2015.15126         0.44076         9.59340
     2015.15400        -0.55612         9.47230
     2015.15674       -18.10899         9.45343
     2015.15948       -16.07687         9.55251
     2015.16221       -22.73274        10.13283
     2015.16495        17.76938        10.72416
     2015.16769        19.98051         9.39209
     2015.17043         7.65463         9.37637
     2015.17316         7.21176         9.76010
     2015.17590         3.89288         9.60598
     2015.17864         7.79901         9.39996
     2015.18138         9.26813         9.43141
     2015.18412         7.62226         9.41411
     2015.18685         4.70638         9.51476
     2015.18959        11.69551        10.17529
     2015.19233       -20.70237        10.17057
     2015.19507         6.82476         9.41096
     2015.19780        11.34588         9.42669
     2015.20054         3.03601         9.53678
     2015.20328        -0.59587         9.64530
     2015.20602        -1.86374         9.55408
     2015.20876         7.33538         9.73337
     2015.21149         0.70251         9.31503
     2015.21423         2.45663         9.87176
     2015.21697        -6.45124         9.65473
     2015.21971         2.29188         9.43613
     2015.22245       -10.37899         9.39996
     2015.22518         4.12113         9.52263
     2015.22792       -26.04374         9.91737
     2015.23066        -3.49362         9.49746
     2015.23340         8.49951         9.66259
     2015.23613       -11.74737        10.18473
     2015.23887        -1.69724         9.99129
     2015.24161         9.06289         9.93624
     2015.24435         2.85901         9.92209
     2015.24709         0.05614         9.74595
     2015.24982       -23.45374         9.64687
     2015.25256        -1.85661         9.71921
     2015.25530        13.83351         9.25212
     2015.25804         7.87064         9.27257
     2015.26078        -3.12424         9.13260
     2015.26351        -1.04811         9.16248
     2015.26625        -1.87699         9.28830
     2015.26899        -5.67086         9.55251
     2015.27173        11.36026         9.55251
     2015.27446         4.65839         9.57295
     2015.27720       -10.79749         9.62170
     2015.27994         3.24164         9.39367
     2015.28268        -8.76424         9.37165
     2015.28542       -13.80911         9.57295
     2015.28815        -0.55899         9.46915
     2015.29089         2.47814         9.42355
     2015.29363         3.10826         9.37951
     2015.29637         6.24039         9.50218
     2015.29911         3.48351         9.30559
     2015.30184         5.71964         9.24741
     2015.30458         2.83176         9.21438
     2015.30732        -6.50611         9.09328
     2015.31006        15.92101         9.62800
     2015.31279        -2.16386        10.07778
     2015.31827        21.95639        10.29953
     2015.32101        -0.19149         9.10272
     2015.32375         3.78764         9.06340
     2015.32648         5.40476         9.40310
     2015.32922         7.16689         9.30559
     2015.33196         5.85201         9.21752
     2015.33470         1.89114         9.24741
     2015.33744        -3.12874         9.28672
     2015.34017         1.31039         9.37165
     2015.34291        -2.02448         9.23640
     2015.34565         7.83864         9.13732
     2015.34839         8.91177         9.07755
     2015.35112        -4.43211         9.16091
     2015.35386         4.56202         9.35592
     2015.35660        -2.39686         9.37637
     2015.35934       -25.01673         9.69248
     2015.36208         4.77639         9.65788
     2015.36481         1.22552         9.28515
     2015.36755         6.60464         9.28830
     2015.37029         0.52177         9.32761
     2015.37303         1.23989         9.38108
     2015.37577        -6.16398         9.35278
     2015.37850        -6.27786         9.57767
     2015.38124        -5.81273         9.21752
     2015.38398        -6.09861         9.38423
     2015.38672        -1.33048         9.45972
     2015.38945        -8.65236         9.41568
     2015.39219        -6.21123         9.40939
     2015.39493        -4.02111         9.32918
     2015.39767        -1.33598         9.29301
     2015.40041         5.55814         9.31189
     2015.40314        -0.93173         9.50061
     2015.40588         0.66939         9.37007
     2015.40862        -3.83248         9.56037
     2015.41136        -0.04236         9.39367
     2015.41410        -2.10923         9.32447
     2015.41683        -8.90111         9.45815
     2015.41957        -7.62498         9.47702
     2015.42231        -4.16086         9.26156
     2015.42505        -6.55673         9.45657
     2015.42778         5.98339         9.25999
     2015.43052        11.96352         9.48331
     2015.43326         4.27964         9.40310
     2015.43600         4.08577         9.51004
     2015.43874         3.35889         9.45815
     2015.44147         3.13602         9.57924
     2015.44421         5.91714         9.32447
     2015.44695         3.87327         9.25684
     2015.44969         3.17840         9.29459
     2015.45243        -2.73148         9.69562
     2015.45516        -3.20335         9.30874
     2015.45790        -0.45323         9.57452
     2015.46064         7.11390         9.98500
     2015.46338         7.90102         9.83559
     2015.46611         9.33015         9.64372
     2015.46885         3.23827         9.90479
     2015.47159         2.05640         9.52263
     2015.47433         3.47352         9.61070
     2015.47707         4.81565         9.77111
     2015.47980         3.89877         9.72236
     2015.48254        -0.17210         9.55251
     2015.48528        -5.91898         9.74595
     2015.48802         0.66615         9.54464
     2015.49076         3.78827        10.04790
     2015.49349        11.86740         9.92052
     2015.49623         6.41552         9.85446
     2015.49897        -8.39335         9.79156
     2015.50171         6.50477         9.28043
     2015.50444         2.35090         9.54936
     2015.50718         6.02002         9.42984
     2015.50992         1.23115         9.98028
     2015.51266         9.47927         9.76010
     2015.51540         4.16440         9.61541
     2015.51813         8.83552         9.65473
     2015.52087        13.08065         9.58553
     2015.52361         7.91477         9.65001
     2015.52635         1.54390         9.58711
     2015.52908        10.31702         9.78998
     2015.53182         5.70315         9.56981
     2015.53456         7.48027         9.34806
     2015.53730         7.71740         9.63586
     2015.54004         4.43752         9.66259
     2015.54277        12.38365         9.63900
     2015.54551        12.99977         9.71607
     2015.54825        15.42390         9.62013
     2015.55099         8.68203        10.18630
     2015.55373        17.60015         9.76167
     2015.55646        11.73428        10.13126
     2015.55920        16.26540        10.28695
     2015.56194        16.32353         9.79785
     2015.56468        17.02065         9.79785
     2015.58110        11.20140         9.88749
     2015.58384        12.57453        10.22719
     2015.58658        18.30065        10.14069
     2015.58932        12.23278         9.98342
     2015.59206         6.02590         9.85761
     2015.59479        12.23703         9.85918
     2015.59753        19.77415         9.79156
     2015.60027        18.12328         9.99758
     2015.60301        16.00740        10.20517
     2015.60574        11.57553         9.92052
     2015.60848        10.15665         9.78841
     2015.61122        10.44878        10.52915
     2015.61396        22.38890         9.99443
     2015.61670         9.65903         9.61541
     2015.61943        13.86015         9.53678
     2015.62217        14.07328         9.54779
     2015.62491        18.91640         9.63743
     2015.62765        15.04953         9.73337
     2015.63039        10.80265         9.72707
     2015.63312        12.94778         9.66417
     2015.63586        10.71090        10.01645
     2015.63860         6.84903         9.45657
     2015.64134        11.88115         9.87648
     2015.64407         9.17328         9.59182
     2015.64681        14.84440         9.74752
     2015.64955        12.90753        10.61093
     2015.65229         5.66465         9.60755
     2015.65503         9.82478         9.65159
     2015.65776        10.59591         9.78055
     2015.66050         4.28803         9.82773
     2015.66324         8.09316         9.67518
     2015.66598         8.22428         9.65630
     2015.66872         8.02241        10.01330
     2015.67145         8.10653         9.48488
     2015.67419        13.91466         9.35592
     2015.67693         1.59678         9.91422
     2015.67967        14.23791         9.37479
     2015.68240        15.26303         9.41883
     2015.68514         8.39016         9.45028
     2015.68788        19.43828         9.55722
     2015.69062        18.69441         9.52734
     2015.69336        14.78853         9.69877
     2015.69609        14.19766         9.42512
     2015.69883        14.65178         9.51476
     2015.70157        16.05191         9.54936
     2015.70431        12.27203         9.47387
     2015.70705        15.58316         9.51319
     2015.70978        18.80428        12.04522
     2015.71252         4.21241         9.60598
     2015.71526        10.05353         9.34963
     2015.71800        18.10666         9.55093
     2015.72073        14.80278         9.51948
     2015.72347        10.10491         9.50375
     2015.72621         9.17403         9.40625
     2015.72895         6.44016         9.48174
     2015.73169        18.31428         9.50375
     2015.73442        10.93341         9.59025
     2015.73716        11.47053         9.41883
     2015.73990        15.14566         9.76167
     2015.74264        14.14578         9.83716
     2015.74538        17.96491         9.87491
     2015.74811        16.85303         9.89063
     2015.75085         9.23216         9.44556
     2015.75359         4.92328         9.69562
     2015.75633        25.78441         9.81515
     2015.75906        13.50753         9.63743
     2015.76180        16.15266         9.78684
     2015.76454         8.94979         9.65001
     2015.76728         9.47091         9.44871
     2015.77002         0.89304         9.64530
     2015.77275        14.36016         9.45972
     2015.77549        11.36429         9.53993
     2015.77823        17.70541         9.73022
     2015.78097        13.68154         9.53835
     2015.78371        16.44766         9.59497
     2015.78644        12.04079         9.77897
     2015.78918        10.91191         9.48331
     2015.79192        17.89204         9.57924
     2015.79466        15.99616         9.54150
     2015.79739        11.95129         9.55565
     2015.80013        13.89841         9.59654
     2015.81930        17.30929         9.44714
     2015.82203         9.59441         9.60283
     2015.82477        13.62954         9.51633
     2015.82751        19.67566         9.70663
     2015.83025        24.61279         9.74752
     2015.83299         0.50491         9.93782
     2015.83572         9.71904         9.87019
     2015.83846        26.28016         9.56666
     2015.84120        34.37829        10.12968
     2015.84394       -33.14359        11.64733
     2015.84668        19.98454        10.55274
     2015.84941        11.93266        11.26516
     2015.85215        -2.23121         9.82773
     2015.85489        11.40991         9.41568
     2015.85763         6.16604         9.67046
     2015.86036        11.51016         9.69562
     2015.86310        31.43329         9.75696
     2015.86858        13.21854         9.50375
     2015.87132        12.97867         9.37165
     2015.87405         6.02979         9.31189
     2015.87953        -8.58896        11.02769
     2015.88227        43.47217        12.61925
     2015.89048         1.00054         9.61070
     2015.89322        14.64167         9.51791
     2015.89596        12.60679         9.33233
     2015.89869         7.21692         9.36064
     2015.90143        -1.30996         9.51633
     2015.90417         6.47417         9.50375
     2015.90691        18.21029         9.55565
     2015.90965        13.38242         9.46601
     2015.91238        12.31654         9.52420
     2015.91512         7.16167         9.51476
     2015.91786        37.67079        10.19574
     2015.92060        28.40292         9.93152
     2015.92334         2.57104         9.68776
     2015.92607         4.66217         9.54150
     2015.92881         8.32529         9.47387
     2015.93155         3.60442        10.11710
     2015.93429         7.84054        10.29639
     2015.93702        11.31167         9.96455
     2015.93976         6.51479        10.20989
     2015.94250         9.11592         9.93310
     2015.94524        14.26504         9.87019
     2015.94798        -2.32783        10.04633
     2015.95071        17.33229         9.91422
     2015.95345        11.05142         9.93939
     2015.95619        21.18854        10.12339
     2015.95893        -1.30833        10.21618
     2015.96440        -7.21308        10.06992
     2015.96714       -11.62496        10.34514
     2015.96988       -24.05383        10.36716
     2015.97262         1.41730         9.81672
     2015.97535       -12.93258        10.16271
     2015.97809       -12.39945        10.12968
     2015.98083       -28.49633        10.16271
     2015.98357       -41.92020        10.49297
     2015.98631       -42.25408        10.24606
     2016.00000       -30.98245        10.23820
     2016.00273       -11.09733         9.41254
     2016.00547         0.61480         9.48488
     2016.00821        -2.67508         9.67832
     2016.01095         4.34005         9.88906
     2016.01368       -14.15683         9.85918
     2016.01642        -5.50270         9.90951
     2016.01916       -11.38158        10.36559
     2016.02190        -3.83245         9.90793
     2016.02464        -6.73333         9.96612
     2016.02737       -15.45920         9.74123
     2016.03011        -5.99108         9.63586
     2016.03285         2.22905         9.89378
     2016.03559       -14.52483        10.39704
     2016.03833       -34.25270        10.37817
     2016.04380       -11.49845         9.87648
     2016.05475        -7.74695        10.37974
     2016.05749        -2.77083         9.87805
     2016.06023        -5.52070         9.36064
     2016.06297        -3.58158         9.37479
     2016.06570         4.79155         9.78998
     2016.06844        -9.70133        10.17372
     2016.07118        -6.22420         9.91108
     2016.07392        -1.35207        10.03375
     2016.07666        22.86005         9.88592
     2016.07939        13.58218         9.85446
     2016.08213         9.19630        10.02274
     2016.08487        15.56543         9.87963
     2016.08761        -2.46645         9.74909
     2016.09034        -3.09732         9.64844
     2016.09308        -9.40620         9.88277
     2016.09582       -19.73607         9.87176
     2016.09856       -43.03495        10.33885
     2016.10130       -33.60482        10.73674
     2016.10403        -5.01770         9.55408
     2016.10677       -13.75957         9.58239
     2016.10951        -4.77045         9.65945
     2016.11225        -4.40332         9.36378
     2016.11498        -7.80420         9.42355
     2016.11772       -10.82107         9.45500
     2016.12046        -0.50395        10.81852
     2016.12320         8.30018        11.92884
     2016.12594       -11.04570         9.76167
     2016.12867         8.18843         9.52734
     2016.13141         4.60155         9.19708
     2016.13415         4.34668         9.46601
     2016.13689         2.28480         9.27414
     2016.13963        -3.17607         9.45028
     2016.14236       -15.44095         9.39524
     2016.14510         3.74318         9.25999
     2016.14784        -3.62070         9.33862
     2016.15058        -1.15557         9.31975
     2016.15331       -10.04545         9.68619
     2016.15605       -20.49332         9.87176
     2016.15879       -47.80220        10.30897
     2016.16153       -30.76907         9.85289
     2016.16427        -6.91595        10.16743
     2016.16700        -3.28982         9.52734
     2016.16974        -4.23870         9.97084
     2016.17248       -10.96057         9.55093
     2016.17522       -15.29745         9.63586
     2016.17796        -8.87732         9.41726
     2016.18069         5.76081         9.49904
     2016.18343        -6.55607         9.79785
     2016.18617         0.73406         9.49274
     2016.18891        -8.95382         9.45028
     2016.19164        -1.13269         9.50690
     2016.19438         6.08743         9.03037
     2016.19712        -0.45944         9.10115
     2016.19986        -0.73732         9.43770
     2016.20260        -7.14619         9.46129
     2016.20533        -8.69007        10.42692
     2016.20807        -6.16394         9.71921
     2016.21081        -1.31282         9.65159
     2016.21355       -10.53069         9.54936
     2016.21629       -10.53357         9.32918
     2016.21902        -3.64244         9.13574
     2016.22176        -7.14332         9.17821
     2016.22450        -7.56819         9.55722
     2016.22724       -11.61007         9.70348
     2016.22997       -31.40794        10.42220
     2016.23271       -10.69282         9.43141
     2016.23545        -2.41369         9.87491
     2016.23819        -8.52357         9.31346
     2016.24093        -7.37444         9.63900
     2016.24366         3.18468         9.80414
     2016.24640        -3.97519         9.28672
     2016.24914       -13.27607         9.33705
     2016.25188        -0.01594         9.22067
     2016.25462        -6.62282         9.25055
     2016.25735       -21.35969         9.34019
     2016.26009       -11.09657         9.57924
     2016.26283       -12.46544         9.22696
     2016.26557       -11.29132         9.37951
     2016.26830        -9.62219         9.40782
     2016.27104        -1.73007         9.49274
     2016.27378        -3.42894         9.26942
     2016.27652        -6.93682         9.24583
     2016.27926        -8.54869         9.51004
     2016.28199       -10.23256         9.14833
     2016.28473        -8.32844         9.16405
     2016.28747         0.90669        10.06835
     2016.29021         1.24681         9.25841
     2016.29295       -11.54506         9.29144
     2016.29568        -6.23394         9.12316
     2016.29842         0.04319         9.41568
     2016.30116        -1.48369         9.63429
     2016.30390       -12.91656         9.17034
     2016.30663        -8.24144         9.40939
     2016.30937        -2.58031         9.90951
     2016.31759         7.45306        10.93018
     2016.32032       -17.81481        10.73360
     2016.32306         1.86331         9.87333
     2016.32580       -16.52356         9.26628
     2016.32854        12.14456         9.62485
     2016.33128        -8.26531         9.41568
     2016.33401        -5.42519         9.14361
     2016.33675        -5.87706         9.28672
     2016.33949         1.41406         9.47387
     2016.34223        -7.25681         9.39367
     2016.34496        -9.52969         9.66574
     2016.34770       -15.22856         9.75538
     2016.35044        -1.90444         9.37007
     2016.35318        -3.59631         9.00993
     2016.35592        -5.91419         9.21281
     2016.35865       -10.62706         9.21910
     2016.36139        -7.33194         9.20337
     2016.36413         7.78719         9.20494
     2016.36687         0.02331         9.26156
     2016.36961        -1.42456         9.24426
     2016.37234        -4.01944         9.53678
     2016.37508        -5.55531         9.35435
     2016.37782        -6.56619         9.22381
     2016.38056         6.04594         9.80256
     2016.38329         9.16006         9.28830
     2016.38603       -36.88481         9.33705
     2016.38877         9.86232         9.27571
     2016.39151        -2.96456         9.03824
     2016.39425        -4.17943         9.17192
     2016.39698         8.93569         9.07441
     2016.39972         4.40682         9.01465
     2016.40246         2.92994         9.04767
     2016.40520        -5.85793         9.24426
     2016.40794        -6.37781         9.12159
     2016.41067        -1.77968         9.21281
     2016.41341        -8.74156         9.16720
     2016.41615        -6.72143         9.21123
     2016.41889        -4.99131         9.15933
     2016.42162        -3.99918         9.33705
     2016.42436       -13.51906         9.43141
     2016.42710         0.83107         9.51162
     2016.42984         0.99819         9.40310
     2016.43258        -0.81668         9.23325
     2016.43531        12.81144         9.52577
     2016.43805         0.46757         9.11373
     2016.44079       -12.41831         9.35592
     2016.44353        -6.25618         9.59654
     2016.44626         4.02094         9.05711
     2016.44900         7.13607         9.26470
     2016.45174        -4.19981         9.20966
     2016.45448       -11.35268         9.70348
     2016.45722         5.72144         9.35120
     2016.45995        -7.23143         9.12788
     2016.46269       -15.04431         9.16091
     2016.46543        -6.82718         9.63114
     2016.46817        -1.72506         9.21281
     2016.47091         7.05207         9.10272
     2016.47364         5.55619         9.39367
     2016.47638         6.74032         9.28987
     2016.47912       -29.23456        10.38446
     2016.48186        -7.45043         9.58082
     2016.48459         0.39669         9.68304
     2016.48733         7.80082         9.14675
     2016.49007         9.53095         9.25684
     2016.49281         1.87007         9.39681
     2016.49555         5.29320         9.19236
     2016.49828         2.63432         9.28043
     2016.50102         8.50145         9.06497
     2016.50376         3.84657         9.61384
     2016.50650         4.96470         9.30402
     2016.50924        13.42682         9.12788
     2016.51197         7.61695         9.13417
     2016.51471        -0.75493         9.29144
     2016.51745         2.33620         9.47859
     2016.52019         2.64032         9.30088
     2016.52292        -9.64755         9.36221
     2016.52566        -1.08043         9.34491
     2016.52840         0.25870         9.13889
     2016.53114         2.86482         9.09957
     2016.53388         0.57895         9.42512
     2016.53661         7.27207         9.21281
     2016.53935        11.08620         9.14990
     2016.54209         8.00432         9.29773
     2016.54483         8.38045         9.27729
     2016.54757         4.10957         9.31818
     2016.55030         3.39670         9.31660
     2016.55304         7.78282         9.36064
     2016.55578        10.72095         9.63271
     2016.55852        12.88507         9.37951
     2016.56125         5.06420         9.39681
     2016.56399        11.16532         9.32918
     2016.56673         5.89145         9.74280
     2016.56947         4.26957         9.48174
     2016.57221        12.72870         9.50375
     2016.57494        14.34582         9.75853
     2016.57768        12.04595         9.24898
     2016.58042        11.06307         9.26156
     2016.58316         2.50720         9.26942
     2016.58590         8.82432         9.38737
     2016.58863         7.50345         9.27571
     2016.59137         7.34057         9.42512
     2016.59411         7.86670         9.37007
     2016.59685         9.42583         9.31031
     2016.59958        11.62495         9.31189
     2016.60232         8.89108         9.23640
     2016.60506         2.60120         9.35907
     2016.60780         6.84333         9.39838
     2016.61054         7.94845         9.32918
     2016.61327         9.22558         9.40467
     2016.61601         9.16670         9.26156
     2016.61875         6.58783         9.30245
     2016.62149         7.62895         9.28358
     2016.62423         7.64908         9.68304
     2016.62696        12.54820         9.25841
     2016.62970        13.91733         9.14046
     2016.63244         9.90645         9.41411
     2016.63518        10.87458         9.26156
     2016.63791         9.99970         9.26942
     2016.64065        17.54883         9.24583
     2016.64339        15.20795         9.00993
     2016.64613        13.95908         9.21281
     2016.64887         8.24320         9.28515
     2016.65160        14.21933         9.41254
     2016.65434         9.64445         9.41096
     2016.65708         9.17558         9.18922
     2016.65982        15.15470         9.25841
     2016.66256         2.01383         9.72236
     2016.66529        10.69595         9.27414
     2016.66803        15.40008         9.34648
     2016.67077        10.06520         9.38737
     2016.67351        13.39633         9.28672
     2016.67624        13.22145         9.21910
     2016.67898        10.07858         9.15776
     2016.68172        15.70770         9.28987
     2016.68446        12.64683         9.78369
     2016.68993        14.71808         9.42826
     2016.69267         8.21320         9.18135
     2016.69541         9.45033         9.34648
     2016.69815        27.88146         9.38737
     2016.70089        13.83458         9.19551
     2016.70362        15.35471         9.44556
     2016.70636         9.75783         9.73022
     2016.70910         8.92196         9.75853
     2016.71184        11.83808         9.38580
     2016.71457        13.75921         9.47073
     2016.71731        13.97633         9.46444
     2016.72005        15.17646         9.36378
     2016.72279        10.87958         9.22381
     2016.72553         1.98671         9.47073
     2016.72826         5.08183         9.69562
     2016.73100         8.07696         9.27571
     2016.73374         5.73308         9.29773
     2016.73648        11.53421         9.13732
     2016.73921         6.86733         9.25055
     2016.74195        12.92746         9.25370
     2016.74469        10.02558         9.21595
     2016.74743        13.48771         9.17349
     2016.75017        13.74683         9.02723
     2016.75290        17.51696         8.98791
     2016.75564        -2.34192         9.15147
     2016.75838         6.14221        11.10318
     2016.76659         7.08358         9.22381
     2016.76933        16.64371         9.02723
     2016.77207         8.49583         9.01937
     2016.77481        10.46196         9.38895
     2016.77754        11.37408         9.09643
     2016.78028         5.87321         9.30245
     2016.78302        13.44033         9.16405
     2016.78576        24.30446        10.36716
     2016.78850        21.33558        11.15979
     2016.79123       -16.75429         9.42512
     2016.80492         5.02534         9.37007
     2016.80766         9.20746         9.16563
     2016.81040         5.91659         9.15147
     2016.81314        15.26471         9.25999
     2016.81587         1.41084         9.48488
     2016.81861         3.85196         9.37479
     2016.82135        -3.30391         9.41411
     2016.82409        -1.74779         9.21123
     2016.82683         7.48434         9.29616
     2016.82956        -0.81054         9.55093
     2016.83230         3.22859         9.24111
     2016.83504         2.09771         9.53049
     2016.83778         3.88284         9.33076
     2016.84052         3.83696         9.28200
     2016.84325        11.30209         9.15147
     2016.84599         5.61521         9.50375
     2016.84873         3.95834         9.40467
     2016.85147        -0.37254         9.40153
     2016.85420         6.37659         9.26942
     2016.85694        11.87271         9.32761
     2016.85968         9.31284         9.40467
     2016.86242        15.29196         9.18764
     2016.86516         5.48309         9.56194
     2016.86789        11.43721         9.55093
     2016.87063         4.12034         9.42984
     2016.87337        12.21546         9.61227
     2016.87611         2.16959         8.98948
     2016.87885        -2.31229         9.38580
     2016.88158       -11.89416         9.33390
     2016.88432         3.58696         9.27414
     2016.88706        -3.61191         9.27571
     2016.88980       -19.20779         9.35592
     2016.89253       -10.72166         9.56509
     2016.89527        12.05546         9.66102
     2016.89801        21.43759         9.50847
     2016.90075        11.79971         9.52734
     2016.90349        31.85384         9.69562
     2016.90622         7.07196         9.56509
     2016.90896        19.17709         9.41254
     2016.91170       -15.77078         9.64530
     2016.91444        -2.21466         9.91265
     2016.91718        -4.34653        10.40333
     2016.91991        -2.26641         9.77897
     2016.92265       -29.82328        10.14856
     2016.92539        -4.38916         9.91265
     2016.92813        -0.26203         9.76010
     2016.93086       -11.59591        10.12339
     2016.93360       -27.84378        10.13912
     2016.93634       -16.61766         9.74752
     2016.99657        22.60109         9.28672
     2016.99931        23.60822         9.27886
     2017.00205        10.11834         9.12631
     2017.00479        13.92247         8.90456
     2017.00752         4.38459         8.95017
     2017.01026         3.90172         9.17034
     2017.01300        -0.59715         9.10429
     2017.01574        -7.49103         9.03195
     2017.01848        -3.67490         8.95331
     2017.02121        -7.29178         9.30559
     2017.02395        -0.65265         9.49274
     2017.02669         1.62047         9.65473
     2017.02943         1.85160         9.42512
     2017.03216        -7.01128         9.55565
     2017.03490         6.79885         9.31346
     2017.03764        -5.81603         9.08070
     2017.04038       -14.42390         9.29773
     2017.04312        -4.25578         9.18764
     2017.04585         0.63435         9.77426
     2017.04859        -9.80053        10.00072
     2017.05133        -9.22940         9.39838
     2017.05407         3.35872         9.44242
     2017.05681         0.37385         9.55251
     2017.05954       -13.29303         9.59654
     2017.06228        -8.38490         9.43613
     2017.06502       -25.63178         9.72550
     2017.06776       -12.98565         9.28830
     2017.07049       -12.39153         9.29459
     2017.07597       -18.67628         9.59497
     2017.07871       -14.11415         9.29773
     2017.08145       -10.47703         9.21123
     2017.08418       -13.23790         9.25212
     2017.08692       -21.06678         9.56666
     2017.08966       -17.39565         9.17506
     2017.09240       -19.32453         9.23954
     2017.09514       -16.72040         9.55251
     2017.09787        -4.01928         9.47859
     2017.10061         9.20985         9.08227
     2017.10335        -9.95403         9.42197
     2017.10609       -10.77090        10.00387
     2017.10882       -12.85578         9.45815
     2017.11156       -11.85265         9.23325
     2017.11430       -23.19353         9.39524
     2017.11704       -18.78540         9.42197
     2017.11978       -12.11827         9.06340
     2017.12251       -14.72115         9.13732
     2017.12525        -8.07402         9.22853
     2017.12799        -3.61290         9.44714
     2017.13073       -24.72077         9.64530
     2017.13347       -16.20165         9.30717
     2017.13620        -6.74952         9.11530
     2017.13894       -11.63240         9.10586
     2017.14168        -9.17527         9.36064
     2017.14442       -13.01915         9.40625
     2017.14715       -14.57802         9.29459
     2017.14989       -24.58490         9.35592
     2017.15263       -11.31277         9.38266
     2017.15811       -32.94252         9.66259
     2017.16084       -35.01140         9.51791
     2017.16358       -46.07427         9.72236
     2017.16906       -23.83902         9.50533
     2017.17180       -14.27590         9.47073
     2017.17453       -20.06177         9.41411
     2017.17727       -18.60265         9.62800
     2017.18001       -12.67252         9.44085
     2017.18275        -4.47540         9.87963
     2017.18822       -32.18515         9.83559
     2017.19096       -18.07502         9.35907
     2017.19370       -14.29090         9.44242
     2017.19644       -20.99077         9.33076
     2017.19917       -13.96265         9.72078
     2017.20191       -19.11152         9.46444
     2017.20465       -24.26740        10.30740
     2017.20739       -34.16527         9.70191
     2017.21013       -19.71415         9.96612
     2017.21286       -25.60802         9.82144
     2017.21560       -16.03390         9.51319
     2017.21834       -19.90377         9.37479
     2017.22108       -11.00964         9.28358
     2017.22381        -3.58452         9.35278
     2017.22655       -13.16439         9.54779
     2017.22929        -9.92327         9.32761
     2017.23203       -15.87014         9.23954
     2017.23477       -30.59602         9.43770
     2017.23750       -24.27389         9.78998
     2017.24024       -38.15277        10.08250
     2017.24298        12.05036         9.74123
     2017.24846       -15.04339         9.34019
     2017.25119       -15.49827         9.13732
     2017.25393       -12.51014         9.01150
     2017.25667       -15.81502         9.26313
     2017.25941       -20.20389         9.48016
     2017.26214       -20.87577         9.44871
     2017.26488        -7.01064         9.41883
     2017.26762       -11.18252         9.06026
     2017.27036       -11.48839         8.97848
     2017.27310       -21.12827         9.09485
     2017.27583       -32.32914         9.42826
     2017.27857       -36.79002         9.32132
     2017.28131       -30.30389         9.22853
     2017.28679       -23.48164         9.21123
     2017.28952       -11.95752         9.32289
     2017.29226       -23.85039         9.51791
     2017.29500        -2.65527        10.07149
     2017.29774       -31.42214         9.27729
     2017.30047       -27.42902         9.35749
     2017.30321       -33.53989         9.34806
     2017.30595       -17.88677         9.30088
     2017.30869       -22.98564         9.33548
     2017.31143       -25.89452         9.35435
     2017.31416        -8.86139         9.48016
     2017.31964       -46.92514        10.14069
     2017.32238       -38.74802        10.17215
     2017.32512       -25.22189         9.46915
     2017.32785       -41.17276        10.91288
     2017.33059       -25.84064         9.31189
     2017.33333       -31.50451         9.51633
     2017.33607       -29.03339         9.29459
     2017.33880       -29.23326         9.46444
     2017.34154       -20.41014         9.94882
     2017.34428       -21.28701         9.10901
     2017.34702       -20.27589         8.90928
     2017.34976       -20.19376         9.45343
     2017.35249       -23.06864         9.25212
     2017.35523       -20.04151         9.15147
     2017.35797       -21.18439         9.12316
     2017.36071       -22.76826         9.00836
     2017.36344       -20.61614         9.38737
     2017.36892       -17.62889        10.12497
     2017.37166       -18.72976         9.40310
     2017.37440       -17.21564         9.43141
     2017.37713       -24.15251         9.55880
     2017.37987       -24.51739         9.55880
     2017.38261       -22.98826         9.59182
     2017.38535       -23.23014         9.37479
     2017.38809       -21.54001         9.32604
     2017.39082       -15.19189         9.43927
     2017.39356        -6.63976         9.20652
     2017.39630        -9.94664         9.12474
     2017.39904       -10.92651         9.32447
     2017.40177       -18.11439         9.45500
     2017.40451       -14.66426         9.44399
     2017.40725        -8.31214         9.25527
     2017.40999       -17.56001         9.40939
     2017.41273        -9.57389         9.09485
     2017.41546       -12.29176         9.16720
     2017.41820       -15.31464         9.28200
     2017.42094        -7.79451         9.19865
     2017.42368        -9.98639         9.09171
     2017.42642        -5.98926         9.02723
     2017.42915       -14.09513         9.12631
     2017.43189        -2.07601         9.40939
     2017.43463       -13.66888         9.19865
     2017.43737        -0.73476         9.21123
     2017.44010       -31.86263         9.38266
     2017.44284       -29.51251        10.08565
     2017.44558        -9.72938         9.34491
     2017.44832        -5.72826         9.24111
     2017.45106         1.46187         9.10901
     2017.45379        -2.49001         9.42197
     2017.45653        -0.55488         9.65473
     2017.45927        -6.39776         9.30559
     2017.46201        -0.79063         9.10586
     2017.46475        -8.56551         9.38737
     2017.46748        -8.04838         9.38108
     2017.47022        -7.68626         9.39209
     2017.47296       -10.49713         9.27886
     2017.47570        -3.54801         9.19079
     2017.47843        -6.70388         9.15933
     2017.48117        -2.46676         9.09643
     2017.48391        -7.23363         9.65788
     2017.48665         2.44149         9.20652
     2017.48939        -7.02138         9.33076
     2017.49212        -0.11226         9.04138
     2017.49486         0.57187         9.17349
     2017.49760        -4.27101         9.07284
     2017.50034        -2.26488         9.14990
     2017.50308         6.37624         9.31503
     2017.50581        -8.32563         9.39996
     2017.50855        -1.05951         9.15462
     2017.51129         0.70962         9.31031
     2017.51403        -3.58926         9.41254
     2017.51676        -2.12613         9.33862
     2017.51950        -2.80201         9.30402
     2017.52224        10.35712         9.19708
     2017.52498         1.19524         9.17821
     2017.52772         0.18937         9.46129
     2017.53045         1.37549         9.33862
     2017.53319         3.86862         9.14518
     2017.53593        -2.35125         9.46286
     2017.53867        -4.84613         9.12159
     2017.54141         7.45400         9.12002
     2017.54414         4.06012         9.26628
     2017.54688         0.70725         9.38737
     2017.54962         1.25337         9.33390
     2017.55236        -4.84150         9.25999
     2017.55509         2.60462         9.21123
     2017.55783         2.80575         9.34648
     2017.56057         1.81987         9.15304
     2017.56331        -6.78200         9.31660
     2017.56605         4.43212         9.25527
     2017.56878         4.55125         9.14361
     2017.57152         5.01737         9.29301
     2017.57426         1.67850         9.19708
     2017.57700         1.06462         9.14518
     2017.57974        -0.98625         9.12631
     2017.58247         0.59287         9.19079
     2017.58521         5.22200         9.22067
     2017.58795       -11.24888         9.43770
     2017.59069         2.73525         9.22696
     2017.59342         1.73337         9.18135
     2017.59616         0.01150         9.13574
     2017.59890         7.10662         9.16405
     2017.60164        14.16775         9.22224
     2017.60438         7.06687         9.50690
     2017.60711        -0.82900         9.54307
     2017.60904         2.26174        14.82258
     2017.61259         2.31125         9.37479
     2017.61533         1.13337         9.50690
     2017.61807         8.49850         9.27414
     2017.62080         8.49562         9.03352
     2017.62354         5.09775         9.12159
     2017.62628        -0.63713         9.61699
     2017.62902         6.92500         9.57138
     2017.63175         3.56512         9.27571
     2017.63449         8.13525         9.17978
     2017.63723         5.58038         9.01150
     2017.63997         4.59050         9.34177
     2017.64271         7.58463         9.16405
     2017.64544         5.04675         9.33076
     2017.64818        10.00188         9.26470
     2017.65092         5.63300         9.08070
     2017.65366        -3.21287         9.27414
     2017.65639         0.56025         9.26785
     2017.65913         6.57338         9.24426
     2017.66187         4.92950         9.12945
     2017.66461        11.62263         9.59811
     2017.66735         5.47075         9.39367
     2017.67008         5.34888         9.30402
     2017.67282         5.13100         9.44085
     2017.67556         4.93713         9.08542
     2017.67830         5.53025         9.11058
     2017.68104         9.46438         9.21281
     2017.68377         6.12750         9.64844
     2017.68651        -1.22037         9.56509
     2017.68925        11.13375         9.09485
     2017.69199         2.88388         9.22381
     2017.69472        14.29800         9.24898
     2017.69746         6.09913         9.50690
     2017.70020        10.19525         9.76639
     2017.70294        12.70538         9.67360
     2017.70568        10.92150         9.44399
     2017.70841        17.58863         9.17978
     2017.71115         2.36075         9.57610
     2017.71389         9.76388         9.82930
     2017.71663        -3.06600        10.25078
     2017.72210       -35.07975        13.61004
     2017.72758       -26.71450         9.49904
     2017.73032        -2.37437         9.22224
     2017.73305         9.88975         9.24111
     2017.73579         0.48388         9.36536
     2017.73853        -0.85500         9.24111
     2017.74127         0.25413         9.34334
     2017.74401         8.88926         9.16720
     2017.74674        -6.85262         9.20966
     2017.74948        -3.40549        10.08408
     2017.75496        10.11676         9.52263
     2017.75770         1.50688         9.58396
     2017.76043         5.53201         9.40310
     2017.76317         6.33813         9.41883
     2017.76591         5.05126         9.45343
     2017.76865         6.09238         9.73337
     2017.77138         1.46951         9.40939
     2017.77412         4.42463         9.17663
     2017.77686         2.85276         9.26313
     2017.77960        11.25888         9.47230
     2017.78507       -33.32587        10.11867
     2017.78781         8.85526         9.24426
     2017.79055        -0.33762         9.28515
     2017.79329        10.42351         9.26313
     2017.79603        10.04463         9.25527
     2017.79876        16.27176         9.51476
     2017.80150         2.77388         9.40153
     2017.80424        22.46401        10.33256
     2017.80698         0.77013         9.70820
     2017.80971        -1.73674         9.33548
     2017.81245        -2.60962         9.37951
     2017.81519         1.95851         9.39524
     2017.81793         2.19663         9.14046
     2017.82067        -2.50224         9.37322
     2017.82340         6.55788         9.21752
     2017.82614         1.50301         9.15304
     2017.82888        10.33013         9.23482
     2017.83162         3.45226         9.22224
     2017.83436         1.95938         9.15619
     2017.83709        14.07051         9.35907
     2017.83983        -4.51837         9.30874
     2017.84257       -10.44824         9.22381
     2017.84531         2.75589         9.23640
     2017.84804       -12.03599         9.12945
     2017.85078        -3.97486         9.12945
     2017.85352        -5.25774         9.30245
     2017.85626        -0.18561         9.81829
     2017.85900        -4.36649         9.64844
     2017.86173       -17.39336         9.63743
     2017.86447       -27.21824         9.80099
     2017.86721       -21.65411         9.37165
     2017.86995        -3.07299         9.53206
     2017.87269         1.09914         9.61070
     2017.87542         0.03626         9.49117
     2017.87816        -7.22461         9.64687
     2017.88090       -23.29949         9.64844
     2017.88364        -6.70136         9.65473
     2017.88637       -20.72324        10.09037
     2017.88911         1.74989         9.79156
     2017.89185         4.57301         9.70034
     2017.89459        -6.79186         9.90793
     2017.89733       -24.09974         9.93467
     2017.90006       -10.87561         9.39681
     2017.90280        -4.03349         9.65316
     2017.90554        -2.87736         9.51004
     2017.90828        -9.66724         9.29616
     2017.91102        -0.51711         9.77740
     2017.91375         7.82601         9.48016
     2017.91649        -1.49186         9.32447
     2017.91923        15.30526         9.26313
     2017.92197        10.96339         9.53363
     2017.92470         4.16451         9.72236
     2017.92744        21.24264        10.01173
     2017.93018        -2.80524         9.55880
     2017.93292         1.11489         9.33233
     2017.93566        -0.34499         9.44556
     2017.93839        -2.12486         9.48803
     2017.94113        -1.91174         9.36378
     2017.94387         2.36639         9.40467
     2017.94661         6.59751         9.58711
     2017.94935         6.17864         9.43770
     2017.95208         6.92577         9.32289
     2017.95482        -2.08811         9.37322
     2017.95756        -2.77098         9.06340
     2017.96030        -0.96386         9.30559
     2017.96303        -3.85173         9.42197
     2017.96577         3.69339         9.71135
     2017.96851         0.87152         9.14990
     2017.97125        -6.21636         9.61070
     2017.97399         9.15177         9.37637
     2017.97672        -3.57811         9.00678
     2017.97946         5.03802         9.09800
     2017.98220        -7.19986         9.35120
     2017.98494       -14.48773         9.43141
     2017.98767       -12.57161        10.47567
     2017.99041       -16.62848         9.97241
     2017.99315         3.04664         9.59811
     2017.99589        -6.26823         9.41568
     2017.99863        -1.87311         9.33548
     2018.00136       -12.77098         9.36536
     2018.00410        -9.26286         9.48803
     2018.00684        -3.74273         9.27571
     2018.00958        -5.29261         9.60755
     2018.01232       -13.62248         9.50533
     2018.01505       -11.81636         9.71135
     2018.01779        -0.28323         9.30245
     2018.02053        -5.68411         9.63271
     2018.02327       -16.47498        10.43007
     2018.02600        10.24614         9.23797
     2018.02874         2.47027         9.98971
     2018.03148       -13.30661         9.68933
     2018.03422        20.46152        10.27280
     2018.03696        -1.39236         9.51791
     2018.03969        -3.52123         9.41096
     2018.04243       -11.61211         9.38580
     2018.04517       -16.22898         9.43298
     2018.04791       -29.76286         9.41568
     2018.05065         6.01727         9.26313
     2018.05338         0.73539         9.36064
     2018.05612         7.05352         9.35749
     2018.05886       -21.16835         9.51319
     2018.06160       -16.16623         9.18135
     2018.06433       -14.02910         9.50533
     2018.06707        -2.72698         9.41096
     2018.06981       -15.67585         9.69248
     2018.07255       -13.23273         9.34334
     2018.07802         5.47452        10.13912
     2018.08076        -5.58835         9.42197
     2018.08350       -10.40023         9.22067
     2018.08624        -4.40310         9.21281
     2018.08898        -9.92398         9.34648
     2018.09171       -12.18485         9.77426
     2018.09445        -2.85973         9.53678
     2018.09719         4.07440         9.65630
     2018.09993        -2.78948         9.35749
     2018.10266       -12.95135         9.28830
     2018.10540       -14.41823         9.54779
     2018.10814       -12.08110         9.29301
     2018.11088        -4.69898         9.18450
     2018.11362        -3.80585         9.31346
     2018.11635       -11.69973         9.21910
     2018.11909       -12.17860         9.47544
     2018.12183        -0.66548         9.28358
     2018.12457        -1.47235         9.16091
     2018.12731        -9.42323         9.14204
     2018.13004         9.04790         9.99129
     2018.13278        -4.45498         9.59025
     2018.13552        -1.24685         9.64687
     2018.13826         1.71727         9.63429
     2018.14099       -21.77060        10.00859
     2018.14373        -9.87148         9.79627
     2018.14647       -12.20935        10.26022
     2018.14921       -13.18523         9.73651
     2018.15195        -8.38710         9.56823
     2018.15468       -11.15398         9.76482
     2018.15742        -6.91085         9.67832
     2018.16016        -9.82272         9.51162
     2018.16290        -8.45060         9.76325
     2018.16564        -5.70747         9.69719
     2018.16837       -19.26335         9.76167
     2018.17111       -10.62122         9.61070
     2018.17385       -19.90410         9.74752
     2018.17659        -9.92097         9.53206
     2018.17932        -8.22985         9.21438
     2018.18206         0.23628         9.57767
     2018.18480       -17.32460         9.83716
     2018.18754        -4.79647         9.22224
     2018.19028        -7.98135         9.45185
     2018.19301        -9.88922         9.29301
     2018.19575        -3.96910         9.52577
     2018.19849       -21.10597         9.34491
     2018.20123        -6.39985         9.37165
     2018.20397        -1.22472         9.15147
     2018.20670       -11.96960         9.06340
     2018.20944       -32.50047         9.60912
     2018.21765        -1.84410         9.35592
     2018.22039        -7.96597         9.18607
     2018.22313       -11.00785         9.13417
     2018.22587       -14.16872         8.95331
     2018.22861       -14.21160         8.96747
     2018.23134       -13.72647         8.96118
     2018.23408       -31.55935         9.69719
     2018.23682       -16.03522         9.25999
     2018.23956       -13.86710         8.96432
     2018.24230       -12.74797         9.07755
     2018.24503        -5.87785         9.39681
     2018.24777        -3.48172         9.10586
     2018.25051        -7.37860         9.03037
     2018.25325       -11.33947         9.41411
     2018.25598       -13.38335         9.29459
     2018.25872       -10.72622         9.24898
     2018.26146        -9.26310         9.63429
     2018.26420        -7.10497         9.20022
     2018.26694        -4.94284         9.31189
     2018.26967       -10.22972         9.11530
     2018.27241        -8.53659         9.27257
     2018.27515       -12.26647         9.33233
     2018.27789         2.38866         9.14518
     2018.28062       -18.08422         9.59654
     2018.28336        -3.17509         9.91265
     2018.28610         5.42503         9.37951
     2018.28884        -1.85584         9.27571
     2018.29158        -1.44272         9.24741
     2018.29431       -32.27259         9.67675
     2018.29705       -15.98147         9.11215
     2018.29979       -11.83334         9.03981
     2018.30253        -9.24522         9.25841
     2018.30527        -9.16009         9.08070
     2018.30800        -9.93297         9.14361
     2018.31074        -7.81484         9.20180
     2018.31348        -7.11872         8.98791
     2018.31622       -15.57359         9.28515
     2018.31895        -6.15847         9.53363
     2018.32169       -11.02534         9.02723
     2018.32443        -7.69922         9.44871
     2018.32717       -28.05209         9.39838
     2018.32991       -10.07297        10.28695
     2018.33264         0.14016         9.19236
     2018.33538       -13.38972         9.37165
     2018.33812       -11.84759         9.60441
     2018.34086        -6.45147         9.13417
     2018.34360        -9.96734         9.28358
     2018.34633        -9.62822         9.30245
     2018.34907       -14.72509         9.21752
     2018.35181        -9.86897         9.22381
     2018.35455        -8.91184         9.21910
     2018.35728         0.81928         9.67360
     2018.36002        -8.75259         9.58396
     2018.36276         0.82153         9.47702
     2018.36550        -8.83634         9.11530
     2018.36824        -1.81621         9.11215
     2018.37097        -7.88909         9.36693
     2018.37371        -8.72296         9.30245
     2018.37645        -3.29184         9.31818
     2018.37919       -11.47571         9.20180
     2018.38193        -4.68259         9.03352
     2018.38466         0.01454         9.04767
     2018.38740        -3.44634         9.34334
     2018.39014         8.45679         9.28515
     2018.39288       -10.45009         9.52263
     2018.39561        -8.06796         9.09014
     2018.39835       -16.11684         9.38423
     2018.40109         5.11529         9.28515
     2018.40383        -6.40859         9.24583
     2018.40657        -6.22146         9.20809
     2018.40930         5.34666         9.26785
     2018.41204         0.07179         9.02566
     2018.41478        -2.67309         9.28043
     2018.41752        -5.63896         9.31660
     2018.42026        -1.85084         9.21123
     2018.42299         1.93329         9.45972
     2018.42573         2.59041         9.02566
     2018.51334     -4045.73158         8.97533
     2018.51608     -4040.66146         9.12002
     2018.51882     -4041.00433         9.15619
     2018.52156     -4040.12021         9.04138
     2018.52429     -4047.88208         9.12002
     2018.52703     -4042.78596         9.08385
     2018.52977     -4044.33783         8.97533
     2018.53251     -4041.09471         8.97376
     2018.53525     -4031.49158         9.02251
     2018.53798     -4037.00446         9.19393
     2018.54072     -4033.26733         9.11844
