# ================= DQRFIT RESULTS ================
# INPUT FILE: series/WNTH.rad
# OUTPUT: LDETRENDED
# FILTER FUNCTION: f(t)
# f(t)=+line(t)+annual(t)+jumps(t)
# line(t)=+P 1+P 2*t
# annual(t)=+P 3*sin(2*pi*t+P 4)
# jumps(t)=+P 5*heav(t-2011.3621  )
# heav(t)=(t<0?0:1)
# TOTAL OBSERVATIONS MTOT= 2457
# INITIAL TIME INTERVAL= 2014.7934 - 2007.5975 =  7.1959
# TOTAL OBSERVATIONS AFTER PREFILTER M= 2448
# TIME-SPAN= 2014.7934 - 2007.5975 =  7.1959
# OBSERVATIONS: USED M=  2448 REJECTED MTOT-M=     9 %USED=   99.6337
# N=  5 PARAMETERS
# MAXSIG= 175.00000
# MAXRES=  45.37472
# SCALE FACTOR FOR LENGTHS: SCL=  10.00000
# SCALE FACTOR FOR SIGMAS: SCLSIG=   1.00000
# CHI^2=   3675.904 DOF=  2443 CHI^2/DOF=   1.50467
# RMS=      7.353 SDEV=      7.355 MEAN=   -0.00489
#  P #       PARAMETER +-    SIGMA %error PARAMETER NAME
# P 1 =      1269.44300 +-  287.430  22.64 YZERO                              
# P 2 =        -0.64686 +-    0.143  22.11 SLOPE                              
# P 3 =         4.89387 +-    0.204   4.18 ANNUAL AMPLITUDE                   
# P 4 =        -3.10178 +-    0.059   1.90 ANNUAL PHASE                       
# P 5 =        35.26097 +-    0.586   1.66 OFFSET 2011.3621                   
#       T            LDETRENDED       SIG_OBS
     2007.59753         8.28489         7.06918
     2007.60027         6.92166         7.05078
     2007.60301         6.99543         6.94161
     2007.60574         6.02320         6.99313
     2007.60848        11.27997         6.91217
     2007.61122        10.34274         7.31942
     2007.61396        -3.15249         7.15382
     2007.61670        -2.66072         7.60277
     2007.61943         0.19806         7.66901
     2007.62304         9.45539        13.05032
     2007.62491         1.71360         7.45435
     2007.62769         7.13540         7.47397
     2007.63039        11.53814         7.41509
     2007.63312         2.19691         7.50587
     2007.63586         6.64368         7.12928
     2007.63860         0.94945         7.33659
     2007.64134         7.13022         6.97718
     2007.64407        10.71199         7.38320
     2007.64681        11.75177         7.43963
     2007.64955        12.33554         7.43472
     2007.65229         2.09131         7.45312
     2007.65503         5.84708         7.17712
     2007.65776        12.12085         7.21638
     2007.66050         9.97262         7.24214
     2007.66324        -1.39861         7.28016
     2007.66598         7.96916         7.37339
     2007.66872         4.43093         7.28262
     2007.67145         4.41270         7.40037
     2007.67419         5.14648         7.36603
     2007.67693         9.84525         7.27648
     2007.67967         9.02302         7.41019
     2007.68799         3.08740         7.56475
     2007.69062        10.75710         7.20288
     2007.69336        11.63587         7.18694
     2007.69609         2.32464         7.27894
     2007.69883        14.38341         7.32187
     2007.70157         7.69219         7.25072
     2007.70431        11.00996         7.54267
     2007.70705        14.80973         7.49728
     2007.70978        10.70850         7.34640
     2007.71252         8.52327         7.22251
     2007.71526        10.15004         7.21270
     2007.71800         3.51181         7.26176
     2007.72073         9.30958         7.09739
     2007.72347        12.76835         7.12560
     2007.72621         9.46612         7.01521
     2007.72895         9.97490         7.38443
     2007.73169         1.67567         7.42000
     2007.73442         4.35744         7.17344
     2007.73716        16.46821         7.18694
     2007.73990        11.65198         7.22987
     2007.74264        15.18075         6.99313
     2007.74538         6.34452         7.18939
     2007.74811        11.85629         7.39547
     2007.75085        17.14006         7.50219
     2007.75347        18.70176         7.51200
     2007.75610        13.88146         7.86405
     2007.75906        10.67438         7.30592
     2007.76180         8.88215         7.41755
     2007.76454         6.07892         7.25808
     2007.76810        -3.53378        12.20271
     2007.77002         6.75246         8.12042
     2007.77275         4.80323         7.66042
     2007.77532         9.32589         7.51936
     2007.77800        11.84463         7.82847
     2007.78101        19.43857         7.01398
     2007.78371        12.14732         7.00539
     2007.78644        14.80009         7.04097
     2007.78918        13.73286         7.16854
     2007.79192        14.72663         7.29856
     2007.79466        14.46840         7.22742
     2007.79722        20.80306         7.72053
     2007.79985        25.97376         7.72298
     2007.80287         2.47471         7.12315
     2007.80561         5.12148         7.13419
     2007.80835         4.86025         7.17344
     2007.81108         3.08003         7.24336
     2007.81382         3.08280         7.16240
     2007.81656         2.85757         7.26790
     2007.81907         2.32719         7.64202
     2007.82175        -0.40008         7.93274
     2007.82477         0.97688         7.19307
     2007.82751         1.84865         7.09003
     2007.83025         2.13242         7.16608
     2007.83299         4.78719         7.19798
     2007.83641        -3.14959        10.14194
     2007.83898         1.89607        10.68779
     2007.84097         7.56236         7.79904
     2007.84428       -10.43150        13.83538
     2007.84719         3.93438         9.29309
     2007.84948        -2.04614         7.21024
     2007.85221        10.26863         7.37584
     2007.85495         6.02440         7.59664
     2007.85769         8.76717         7.37829
     2007.86043        12.01694         7.09985
     2007.86287         6.52253         8.02229
     2007.86590        19.43149         7.02257
     2007.86864        -1.58774         7.10843
     2007.87138         6.95103         7.30347
     2007.87412        10.13680         7.17712
     2007.87685         9.48057         7.23478
     2007.87959       -17.31066         7.46293
     2007.88233         0.26311         7.05691
     2007.88478         6.83369         7.79536
     2007.88740        -3.98661         8.33263
     2007.89054        -1.47758         7.15136
     2007.89259        -2.00525        10.34188
     2007.89641        17.07422        19.63252
     2007.89876         0.20674         7.57701
     2007.90235         9.68806        14.34812
     2007.90423         6.39628         7.45312
     2007.90697         0.33105         7.51200
     2007.90971        -3.43318         7.69354
     2007.91245         0.17759         7.41877
     2007.91518         3.32036         7.47765
     2007.91792        -0.23987         7.38443
     2007.92066       -27.72009         7.83093
     2007.92340        -8.26932         7.58315
     2007.92614        15.54545         7.17590
     2007.92887        11.50722         7.26054
     2007.93161         3.59899         7.43349
     2007.93435         3.01676         7.35131
     2007.93709        -2.88347         7.13051
     2007.93982        -2.49170         7.07654
     2007.94256         1.92107         7.09739
     2007.94530         6.35584         7.19552
     2007.94804        -5.10439         7.26790
     2007.95078        -1.11161         7.22128
     2007.95345         2.43112         7.08022
     2007.95619         1.54389         7.12683
     2007.95893         7.22266         7.19920
     2007.96167         4.79143         7.24336
     2007.96440        -6.56580         8.54974
     2007.96714         3.87697         7.14891
     2007.96988        -7.43726         7.11825
     2007.97262        -3.06449         7.17590
     2007.97535        -7.58172         7.16240
     2007.97809         4.44806         7.25072
     2007.98083         3.15383         7.07777
     2007.98357         9.34860         7.02011
     2007.98631         4.84037         7.31819
     2007.98904        10.84514         7.37584
     2007.99178         1.36391         7.32800
     2007.99452         4.41068         7.35989
     2007.99726         5.06345         7.09985
     2008.00085       -12.60422        12.44068
     2008.00273        -2.23401         7.06918
     2008.00547        11.32977         6.93547
     2008.00764        16.28017         9.29309
     2008.01095        13.79631         7.70704
     2008.01368        17.57208         7.57824
     2008.01642         3.66985         7.52549
     2008.01916        16.82562         7.13296
     2008.02190        13.09439         7.29488
     2008.02464        11.54016         7.09494
     2008.02737       -26.14407         7.22619
     2008.03011       -23.13730         7.35008
     2008.03285       -26.61052         7.10230
     2008.03559       -24.90975         7.13296
     2008.03833       -22.11498         7.27158
     2008.05201       -28.03913         7.07286
     2008.05475       -22.86736         7.08022
     2008.05663       -36.88814        12.62467
     2008.06023       -24.44581         7.08758
     2008.06297       -21.48004         7.20043
     2008.09673       -27.66220        12.21375
     2008.09856        -1.95902         7.19552
     2008.10130         2.16175         7.25931
     2008.10403        -8.11348         8.31055
     2008.10677        -7.88171         6.87782
     2008.12976        -1.95784        14.61920
     2008.13141        -4.42577         6.84470
     2008.13415        -3.35500         6.84348
     2008.13689         2.02577         6.91707
     2008.13877         7.96899        11.38330
     2008.14236         0.39332         6.92443
     2008.14510         5.94109         6.87292
     2008.14784         1.99186         6.82017
     2008.15058         2.49963         6.89867
     2008.15331       -10.72060         6.81649
     2008.15697        -2.65823        11.66175
     2008.15879         1.80394         6.90113
     2008.16153        -6.57729         6.95510
     2008.16427        -5.06552         6.93179
     2008.16700        -8.20575         6.79564
     2008.16974       -11.17597         6.78705
     2008.17248        -3.72120         6.78828
     2008.17522        -3.60543         6.96737
     2008.17796        -4.74866         6.85574
     2008.18069        -7.71489         6.81281
     2008.18343         0.03288         6.77601
     2008.18611         1.62161         7.14032
     2008.18891        -1.70758         6.86188
     2008.19164        -9.16881         6.84102
     2008.19438        -3.65704         6.77969
     2008.19712         7.83174         8.40132
     2008.19986         4.80551         6.90603
     2008.20260         3.87028         6.80300
     2008.20459         5.04457        12.96936
     2008.20807        -3.08618         7.22128
     2008.21081         5.45859         7.02502
     2008.21355        -2.28364         7.54512
     2008.21629         3.10813         6.98209
     2008.21902         0.78190         7.06182
     2008.22176       -13.15433         7.01521
     2008.22450         1.52945         7.03361
     2008.22724         2.90622         7.09126
     2008.22997        -1.47101         7.09985
     2008.23271         3.61676         7.20411
     2008.23544        -2.56848        10.15420
     2008.23819         5.10130         7.14646
     2008.24093        13.01807         6.99558
     2008.24366        -0.27716         7.05569
     2008.24640         1.73961         7.18448
     2008.24857         6.14002        10.95520
     2008.25188         0.80216         7.16731
     2008.25462         4.35493         6.98699
     2008.25735         2.40670         7.04710
     2008.26009         4.33147         7.05569
     2008.26283         3.41824         7.02993
     2008.26557        -3.99899         7.07163
     2008.26830        -3.51822         6.81036
     2008.27104        -2.30345         6.99190
     2008.27310        -5.11812         9.87207
     2008.27652        -5.79291         7.03483
     2008.27926        -4.31813         7.16363
     2008.28199        -1.12836         6.97105
     2008.28473         1.56541         6.92443
     2008.28747         5.30318         6.98699
     2008.29021         5.10695         7.05814
     2008.29295         3.94672         7.01643
     2008.29568         2.64849         7.05814
     2008.29842        -3.68074         6.85084
     2008.30116        -3.23697         6.81404
     2008.30390        -0.61620         7.59051
     2008.30663        -1.94642         7.29488
     2008.30937         2.72235         7.16731
     2008.31211        -3.57288         7.52181
     2008.31485        -4.24511         6.92689
     2008.31759        -6.80734         6.95019
     2008.32032        -2.04257         6.86065
     2008.32306        -6.43480         7.01521
     2008.32580        -4.63103         7.43963
     2008.32854        -1.75726         6.74657
     2008.33128        -7.04249         7.44208
     2008.33401        -4.54372         6.89745
     2008.33675        -5.82694         6.83121
     2008.33949         0.34283         7.04342
     2008.34217       -10.28944         7.03238
     2008.34496       -10.50163         7.07899
     2008.34770         1.69114         6.87292
     2008.35044        -8.24209         6.91094
     2008.35318        -5.50832         7.14891
     2008.35592        -4.68655         6.82630
     2008.35865         5.79822         7.35131
     2008.36139         3.64499         7.26054
     2008.36407         0.32373         7.02625
     2008.36670        -9.50357         7.59418
     2008.36961       -12.26469         6.96123
     2008.37234       -11.35892         6.88150
     2008.37508         5.52185         9.52616
     2008.37782        -4.98938         6.86065
     2008.37947       -27.36531        14.70752
     2008.38329         5.43716         6.98945
     2008.38592        -2.14914         7.27771
     2008.38854        -1.19544         7.69354
     2008.39151        11.98948         7.02257
     2008.39425        -3.46975         6.95633
     2008.39698        -4.25498         7.02011
     2008.39972         5.45879         7.11457
     2008.40246         5.45856        10.69883
     2008.40520        -0.53667         7.25931
     2008.40782        -1.37897         7.46784
     2008.41044        -7.46427         7.75610
     2008.41341        -5.58536         6.93179
     2008.41676         6.61881         9.33725
     2008.41891         4.50020         6.93425
     2008.42162        -2.45304         7.11211
     2008.42413         7.82758         7.70581
     2008.42710        -3.85850         7.05569
     2008.42967         4.30916         7.70090
     2008.43229        -0.69114         8.10079
     2008.43531        -2.09419         7.10107
     2008.43805        -3.13142         7.14400
     2008.44079        -7.26565         7.06918
     2008.44353         1.24512         7.14400
     2008.44626        -1.60610         6.96982
     2008.44900         5.85667         6.96369
     2008.45174        -2.22456         6.98454
     2008.45448        -8.54379         7.06918
     2008.45722        -6.85602         6.94283
     2008.45995       -11.86625         7.26544
     2008.46269       -11.31348        11.19195
     2008.46543        -2.48771         6.95019
     2008.46817        -9.40994         6.86801
     2008.47091       -15.02617         6.98699
     2008.47364       -13.49839         7.07654
     2008.47638        -1.33162         6.87782
     2008.47912        -7.84285         6.98209
     2008.48186         0.89592         6.89131
     2008.48459        -0.02931         7.38320
     2008.48733        -6.38254         7.03238
     2008.49007        -4.72677         6.91707
     2008.49281        -2.14400         6.85084
     2008.49555        -8.54523         7.01766
     2008.49828        -8.83446         7.54267
     2008.50102        -6.14368        10.51484
     2008.50376        -2.14891         7.15136
     2008.50650        -4.06414         7.32064
     2008.50924        -6.10737         7.09249
     2008.51197        -1.23260         6.94406
     2008.51471        -9.10683         6.89867
     2008.51745        -1.55206         6.98209
     2008.52019         8.68571         7.08635
     2008.52292        -0.73752         7.31819
     2008.52566         0.94825         7.21147
     2008.52840        -4.16097         7.05078
     2008.53114        -2.36120         6.95019
     2008.53388         6.45757         7.06059
     2008.53661         0.78334         7.22864
     2008.53935         1.79511         7.31206
     2008.54209        -1.78312         6.91462
     2008.54483         3.30565         7.33536
     2008.54757        -3.75558         7.12315
     2008.55030         8.38519         6.87660
     2008.55304         3.57896         7.04833
     2008.55578         1.55974         6.91585
     2008.55852         3.61951         7.08513
     2008.56125        -4.11672         7.11702
     2008.56399         3.80905         6.77969
     2008.56673         2.55582         6.94283
     2008.56947         4.92159         6.96123
     2008.57221         7.53336         7.14400
     2008.57494         6.17613         7.03483
     2008.57768        12.92690         8.57060
     2008.58042        11.14867         7.04219
     2008.58316        11.63245         6.94651
     2008.58590         7.02822         6.89254
     2008.58863         7.09999         7.09985
     2008.59137        -3.15724         8.23327
     2008.59411         6.20453         6.79196
     2008.59685         3.61030         6.90358
     2008.59958         5.52007         7.39915
     2008.60232        -0.69316         7.47029
     2008.60506        -2.13439         7.28752
     2008.60780        -1.52762         7.03851
     2008.61054        -1.62784         7.03483
     2008.61327         2.21193         7.02870
     2008.61601         7.69570         6.95755
     2008.61875         1.64347         6.96982
     2008.62155         6.88828         7.11947
     2008.62423         7.76501         6.92934
     2008.62696         2.94178         7.14400
     2008.62970         8.14955         7.25440
     2008.63244        12.74532         7.33659
     2008.63518         0.50209         7.22864
     2008.63791         9.45287         7.16486
     2008.64065         9.20364         6.99558
     2008.64339         6.93041         6.99558
     2008.64613        16.17018         7.19062
     2008.64887        10.76895         7.07409
     2008.65160        12.32972         7.02502
     2008.65434        18.33349         7.02625
     2008.65708         1.53526         7.35499
     2008.65982         3.93003         7.27158
     2008.66256         1.61680         7.16363
     2008.66529         5.94458         7.04342
     2008.66803         5.32635         7.03115
     2008.67077         2.74612         7.11947
     2008.67351         2.64589         7.08145
     2008.67624        -0.57334         7.94746
     2008.67898         9.46043         6.98945
     2008.68172         0.82620         7.10107
     2008.68446         1.94497         7.00294
     2008.68720         3.38974         7.09003
     2008.68993         2.96851         7.15504
     2008.69267         0.95529         7.41387
     2008.69541         2.86806         7.04097
     2008.69815        14.99683         7.11702
     2008.70089         2.64860         7.28262
     2008.70362         4.62737         6.98699
     2008.70636         7.35814         7.05937
     2008.70910         2.20791         7.09862
     2008.71184         9.81168         7.09985
     2008.71457         2.46045         7.10843
     2008.71731         1.36522         6.89499
     2008.72005         6.08100         6.93793
     2008.72279         1.65077         7.02134
     2008.72553         9.29554         6.95387
     2008.72826         0.03331         7.00294
     2008.73100         2.51208         7.16240
     2008.73374         9.74785         7.04587
     2008.73648        -1.49938         7.15014
     2008.73921        -0.29161         6.92321
     2008.74469        -1.23107         7.00662
     2008.74743         5.45770         6.91217
     2008.75017         8.36648         6.92934
     2008.75290         3.15925         7.12193
     2008.75564         9.94202         7.61626
     2008.75838        17.26679         6.97718
     2008.76112         7.14056         6.98945
     2008.76386         7.02133         6.91585
     2008.76659         8.27910         7.19062
     2008.76933         0.52887         7.15014
     2008.77207         8.21564         6.79441
     2008.77481         2.68941         6.82262
     2008.77754         1.72319         6.80668
     2008.78028         0.40096         6.95265
     2008.78302        -6.94727         7.25563
     2008.78576         4.30550         6.95265
     2008.78850         0.30127         7.08267
     2008.79123         2.66504         7.12683
     2008.79397         4.80381         7.13296
     2008.79671        -5.55742         7.56352
     2008.79945        -0.23965         7.03606
     2008.80219         5.69712         6.97227
     2008.80492        10.87190         6.95265
     2008.80766         5.36967         7.03974
     2008.81040        14.63544         6.93915
     2008.81314         6.01621         7.10475
     2008.81587         5.25798         6.90603
     2008.81861         1.21575         6.90358
     2008.82135         1.46852         6.86188
     2008.82409         4.30029         6.98577
     2008.82683         0.62606         7.29366
     2008.82956        -1.78117         7.13664
     2008.83230        -5.54739         7.04587
     2008.83504        12.44438         7.50709
     2008.83778        12.09015         7.20902
     2008.84052        11.48692         6.97105
     2008.84325        16.44869         6.85697
     2008.84599        11.40846         6.93057
     2008.84873        -7.75577         7.67269
     2008.85147        11.77300         7.05446
     2008.85420        -3.42923         7.15504
     2008.85694        21.61054         6.91462
     2008.85968         8.09832         7.07531
     2008.86242         9.13109         6.99926
     2008.86516        11.81186         6.98945
     2008.86789        11.21663         6.96859
     2008.87063         1.67840         7.08267
     2008.87337         2.97117         6.97595
     2008.87606        -2.65809         7.25808
     2008.87914        -2.06009         8.09956
     2008.88158        -5.27952         7.01766
     2008.88432         2.11725         6.83734
     2008.88706        -2.94497         7.03606
     2008.88980         7.59380         7.39056
     2008.89253         4.23457         7.06918
     2008.89527        -2.66566        20.37710
     2008.92265        -0.72895         7.00662
     2008.92539        -4.17518         7.10107
     2008.92813         4.75959         6.91953
     2008.93086         4.63736         6.98454
     2008.93360         1.76313         6.95878
     2008.93634        -2.57610         6.96246
     2008.93908        -7.52733         6.99803
     2008.94182        -6.84855         7.01889
     2008.94455        -5.07478         6.96246
     2008.94729         4.13799         6.88028
     2008.95003        -1.23424         6.88518
     2008.95277        -4.16147         6.89990
     2008.95551        -7.18370         6.89377
     2008.95824       -10.01193         6.98577
     2008.96098        -7.39316         6.86065
     2008.96372        -7.79239         6.86188
     2008.96646       -13.65162         7.10721
     2008.96919       -20.29884         7.08022
     2008.97193       -16.65907         6.99067
     2008.97467       -16.41730         6.99803
     2008.97741       -16.50453         6.90971
     2008.98015        -9.92876         6.89745
     2008.98288        -7.04799         6.96369
     2008.98538       -24.63937         7.99898
     2008.98931       -19.57583        12.88227
     2008.99110       -19.42468         6.91462
     2008.99384       -11.21491         6.90603
     2008.99657       -17.31713         6.90971
     2008.99944       -12.75728         7.46048
     2009.00479       -20.43382         6.92566
     2009.00752       -17.69205         6.92566
     2009.01026       -18.82128         6.93179
     2009.01300         3.28549         7.07654
     2009.01574        -8.25874         7.11825
     2009.01848       -13.85297         7.13296
     2009.02121        20.95880         7.19062
     2009.02395        -2.84842         7.31206
     2009.02669       -10.02765         7.02625
     2009.03216        -1.29211         6.95755
     2009.03490        -6.36434         6.99435
     2009.03764       -14.05557         6.94406
     2009.04038       -10.84780         6.88518
     2009.04312       -12.71303         6.91339
     2009.04585       -13.07526         7.07899
     2009.04859       -20.15249         7.04587
     2009.05133       -11.71671         6.88641
     2009.05407       -14.98594         6.95510
     2009.05681        -7.42717         6.98822
     2009.05960       -10.16336         7.04955
     2009.06228       -10.03563         6.92689
     2009.06502        -6.58186         6.91462
     2009.06776        -9.58809         6.88641
     2009.07049        -9.49132         6.90971
     2009.07323        -2.40655         6.85452
     2009.07597         1.13322         6.99435
     2009.07871         4.26500         6.96982
     2009.08145        -9.67523         6.79564
     2009.08418        -6.27546         7.26912
     2009.08692        -8.32569         7.13664
     2009.08966        -5.96192         6.83244
     2009.09240        -4.05115         6.85206
     2009.09514        -3.85038         6.85574
     2009.09787         1.71339         6.94897
     2009.10061         2.13716         6.88886
     2009.10335        -1.29507         6.91094
     2009.10609         0.42671         6.89867
     2009.10882         5.49948         6.94651
     2009.11155         1.62824         6.88641
     2009.11439         1.82208         7.07777
     2009.11600        10.18912        14.76150
     2009.12073        10.62917        11.84452
     2009.12251         5.06033         7.08022
     2009.12531        -3.77886         7.04219
     2009.12799         3.87987         6.94161
     2009.13073         0.15864         7.02502
     2009.13347        -7.74259         7.05078
     2009.13620       -11.00181         7.14155
     2009.13894        -4.65304         6.91585
     2009.14168        -8.11227         7.03606
     2009.14445       -11.54248         7.00417
     2009.14715        -6.21673         7.00662
     2009.14989        -5.74296         7.53653
     2009.15263        -7.92819         7.14155
     2009.15537        -0.97542         7.16731
     2009.15811        -6.78665         7.24214
     2009.16632       -15.32933         7.50955
     2009.16906        -3.48856         7.34518
     2009.17180         5.79021         7.00539
     2009.17442         5.83491         7.23600
     2009.17756         3.56894         8.97539
     2009.18001        -1.84448         7.00417
     2009.18280        -3.07667         7.24214
     2009.18548        -2.95294         6.99681
     2009.18822        -9.53017         7.06795
     2009.19096        -9.09039         7.09126
     2009.19370        -4.29362         6.98945
     2009.19644        -5.52185         6.95387
     2009.19877         0.77866         8.44303
     2009.20472         2.77850         7.20166
     2009.20739         2.58623         6.99803
     2009.21013       -13.16400         7.16486
     2009.21286         0.30077         7.06059
     2009.21560        -6.13246         8.13023
     2009.21834        -1.61568         7.23232
     2009.22108       -20.94191        18.06241
     2009.22381        -3.61914         6.96737
     2009.22655        -0.17637         6.97841
     2009.22929        -9.66960         7.21024
     2009.23151        -4.43516         8.98153
     2009.23584        -2.51637        16.63827
     2009.23682        11.68527         9.95303
     2009.24575         4.57804         7.10230
     2009.24846        -7.58520         7.17835
     2009.25096        -2.03458         7.92538
     2009.26334        40.51843        24.75010
     2009.26488        -4.18458         7.07041
     2009.26762         5.21319         7.04097
     2009.27036        -3.52504         7.08635
     2009.27310        -7.83526         7.09862
     2009.27583        -0.53349         7.04219
     2009.27858       -17.35572         7.42245
     2009.28131       -12.85195         7.35867
     2009.28405       -11.05718         7.13664
     2009.28679         0.25459         7.29488
     2009.28952       -14.29564         7.35376
     2009.29226       -17.76287         7.33414
     2009.29417         0.00937        12.33028
     2009.29788       -14.95923         7.94378
     2009.30047       -20.78855         7.35376
     2009.30321        -8.97278         7.18448
     2009.30595        -7.58101         7.36603
     2009.30869        -6.41524         7.36848
     2009.31143        -7.96947         7.18203
     2009.31416        -3.62270         7.31696
     2009.31690        -7.10893        11.86047
     2009.31964        -2.89016         7.05814
     2009.32238       -11.72139         7.07041
     2009.32512        -9.82462         7.16363
     2009.32785       -13.56484         7.22619
     2009.33059        -7.70107         7.03238
     2009.33333        -7.79430         7.14891
     2009.33607        -2.76653         7.11702
     2009.33880         0.02924         7.06918
     2009.34154        -5.30799         7.14891
     2009.34428       -10.46722         8.06399
     2009.34702         0.52255         7.03238
     2009.34976       -10.87568         7.02257
     2009.35249       -11.85391         7.18571
     2009.35524       -13.81613         7.19675
     2009.35797        -3.95936         7.00539
     2009.36071        -6.89059         7.30102
     2009.36344        -3.50682         7.12560
     2009.36618        -4.50205         7.23723
     2009.36892        -3.71628         7.06795
     2009.37166       -11.31251         7.18939
     2009.37440       -16.88773         7.22742
     2009.37713       -11.84997         6.99926
     2009.37987       -10.94820         7.48501
     2009.38261        -3.42042         7.11089
     2009.38535        -3.94365         7.04342
     2009.38809       -15.70788         7.01521
     2009.39082       -22.77511         7.11089
     2009.39357       -13.28534         7.15136
     2009.39630       -19.89557         8.74601
     2009.39904        -1.52680         7.11211
     2009.40177         1.71197         7.21024
     2009.40451        -5.72726         7.26790
     2009.40725       -13.18649         7.16118
     2009.40999        -5.49671         7.15872
     2009.41273        -7.69894         7.08635
     2009.41546         0.07483         7.54512
     2009.41820        -7.06940         7.19307
     2009.42094       -13.22863         7.19675
     2009.42368       -11.28786         8.41972
     2009.42642        -6.91209         7.14891
     2009.42915       -13.80332         8.60494
     2009.43190        -9.16554         7.32187
     2009.43463        -4.63478         7.39915
     2009.43737        -4.06400         7.32555
     2009.44010        -7.17123         7.25440
     2009.44284        -2.49846         7.24214
     2009.44558       -16.13569         7.41632
     2009.44832        -4.45992         7.52427
     2009.45106       -10.52315         7.23968
     2009.45379        -2.97438         7.38688
     2009.45653         0.64039         7.52549
     2009.45927        -8.13584         7.19184
     2009.46201        -1.00307         7.14768
     2009.46475         1.20571         7.43472
     2009.46748        -1.85252         7.18448
     2009.47022        -7.10375         7.24827
     2009.47296        -3.27898         7.25931
     2009.47570        -1.37221         7.12560
     2009.47843        -6.84244         7.44944
     2009.48117        -3.62067         7.21883
     2009.48391        -7.69590         7.34518
     2009.48665       -10.10613         7.35867
     2009.49058       -16.69158        24.34531
     2009.49212        -0.53258         7.16608
     2009.49486        -2.38381         7.35867
     2009.49760        -4.46204         7.17467
     2009.50034        -2.59927         7.24704
     2009.50308        -0.20050         8.01615
     2009.50581       -10.19173         7.15627
     2009.50856         0.71204         7.16976
     2009.51129       -10.78519         7.53899
     2009.51403         4.14458         7.11457
     2009.51676         1.24535         7.10353
     2009.51950         3.89312         7.05201
     2009.52224        -0.73010         7.14646
     2009.52498        -8.79633         7.05937
     2009.52772        -6.08756         7.30224
     2009.53028        -3.11490         7.86527
     2009.53399       -11.68550        11.57711
     2009.53593        -7.55525         7.44208
     2009.53835        -0.99668         8.03333
     2009.54168         0.30847         7.74874
     2009.54414         2.83206         7.21392
     2009.54651        -6.50140         8.71044
     2009.54973        -2.24432         7.48501
     2009.55236         0.60538         7.03974
     2009.55509        12.90515         7.51077
     2009.55783         4.31692         7.69354
     2009.56057         1.72469         7.73770
     2009.56331         4.62546         7.58928
     2009.56605         1.82223         7.95482
     2009.56878        -7.82400         7.27280
     2009.57152         9.17777         7.29611
     2009.57426        -6.46346         7.27035
     2009.57700        -1.29768         8.23818
     2009.57974        -4.35691         7.63712
     2009.58247        -7.47914         7.42859
     2009.58462       -11.66076        10.22780
     2009.59890         4.63648         7.12438
     2009.60164         4.34025         7.15995
     2009.60438        10.08903         7.09617
     2009.60711         3.86980         7.37093
     2009.60985        -5.74243         7.21515
     2009.61259         0.01534         7.46048
     2009.61533        -2.07589         7.17590
     2009.61807         5.75088         7.19798
     2009.62080         6.30565         7.08635
     2009.62355         2.89143         7.28139
     2009.62628         4.36319         7.10353
     2009.62902         5.58696         7.34640
     2009.63175        -0.18226         7.24091
     2009.63449         3.18451         7.58683
     2009.64818        -7.67264         7.72298
     2009.65092        -1.95387         7.36603
     2009.65366        -2.07910         7.27280
     2009.65639         5.14867         8.39151
     2009.65913        11.19245         7.33168
     2009.66188         0.76622         7.14891
     2009.66461         4.21499         7.07286
     2009.66735         3.90976         7.27403
     2009.67008        -5.22547         7.42245
     2009.67282        10.11430         7.36480
     2009.67556         0.46707         7.19675
     2009.67830         6.06184         7.52917
     2009.68104         9.51762         7.29611
     2009.68377        -1.02362         7.22987
     2009.68651         3.01416         7.17222
     2009.68925         3.40493         7.32555
     2009.69199         8.88970         7.28752
     2009.69472        -2.79953         7.41632
     2009.69746         6.44824         6.98945
     2009.70021         9.80001        11.86538
     2009.70294         8.39278         7.22006
     2009.70568         7.57655         7.32187
     2009.70841        -3.71168         7.17099
     2009.71115       -10.95091         7.42245
     2009.71389         2.43087         7.49728
     2009.71663        -1.58136         7.42613
     2009.71937         5.63041         7.29734
     2009.72210        -4.62282         7.14523
     2009.72484         0.43895         7.23846
     2009.72758        -2.13928         7.22006
     2009.73032         4.84649         7.22006
     2009.73305         8.25926         7.42736
     2009.73579        -3.61897         7.64938
     2009.73854         2.79081         7.18816
     2009.74127         5.75358         7.27526
     2009.74401         4.12535         7.52304
     2009.74674         8.28912         7.28752
     2009.74948         1.10489         7.23723
     2009.75222         0.26566         7.14155
     2009.75496         3.74843         7.24950
     2009.75770        13.72820         7.66656
     2009.76043         7.63097         7.46784
     2009.76317         6.11774         7.35376
     2009.76591         6.85051         7.16486
     2009.76865         3.48329         7.32678
     2009.77138         8.86506         7.29856
     2009.77414         0.14884         7.28630
     2009.77687         6.58760         7.22006
     2009.77917         9.36909         8.27375
     2009.78245        15.39221         7.58805
     2009.78507        20.03791         7.61872
     2009.78781        10.98868         7.53040
     2009.79055        -0.78655         7.91925
     2009.79329        -0.32678         7.76101
     2009.79603         2.03800         7.40773
     2009.79876         7.54477         7.38688
     2009.80150         2.91654         7.43717
     2009.80424         0.19931         7.44944
     2009.80698        17.52608         7.41632
     2009.80971        10.60185         7.69968
     2009.81245        15.11562         7.78432
     2009.81520        13.21340         7.32555
     2009.81793        18.80316         7.32923
     2009.82067        14.36193         7.28507
     2009.82340         5.54971         7.38197
     2009.82614         3.23748         7.23355
     2009.82888         4.07425         8.25044
     2009.83162        12.87002         7.56965
     2009.83436         4.45979         7.28384
     2009.83709         0.28856         7.49483
     2009.83983        -2.30867         7.54512
     2009.84257         8.87410         7.22006
     2009.84531         4.20587         7.48624
     2009.84804        22.85464         7.67760
     2009.85078        12.71042         7.30715
     2009.85352        10.93919         7.28016
     2009.85626         6.83996         7.38933
     2009.85900         8.33373         7.31574
     2009.86173         5.50150         7.30960
     2009.86447         7.98627         7.72421
     2009.86721         8.76504         7.46171
     2009.86995         9.88781         7.42736
     2009.87269         9.21859         7.33782
     2009.87542         1.06635         7.33904
     2009.87816        15.58913         7.40896
     2009.88090        14.24190         7.32432
     2009.88364         8.55767         7.28875
     2009.88615        16.62729         7.96095
     2009.88911        17.77221         7.27035
     2009.89185        11.12498         7.27035
     2009.89459         0.66575         7.54389
     2009.89733        -3.97148         7.34518
     2009.90006         2.08229         7.29611
     2009.90280         8.26506         7.23723
     2009.90554         6.92683         7.36357
     2009.90828        -1.06739         7.49237
     2009.91102        -0.10362         7.22496
     2009.91375        -0.92685         7.43472
     2009.91649        -7.16608         7.39669
     2009.91923        -3.39131         7.07409
     2009.92197        -8.91354         7.44331
     2009.92470        -7.72177         7.36357
     2009.92744        -0.91000         7.34027
     2009.93018        -1.83923         7.07409
     2009.93292        -7.20546         7.23232
     2009.93566        -0.08968         7.07777
     2009.93839        -2.69691         7.51323
     2009.94113        -0.49314         7.02379
     2009.94387         1.64663         7.27648
     2009.94661        -1.86160         7.22987
     2009.94935         0.59117         7.24582
     2009.95208        -3.22806         7.17344
     2009.95482       -10.58629         7.09494
     2009.95756        -8.98552         7.19798
     2009.96030       -15.55175         7.24214
     2009.96303        -9.67197         7.16976
     2009.96577       -17.61720         7.30715
     2009.96851        12.03157         7.15504
     2009.97125        13.74234         7.26422
     2009.97399         2.19011         7.26544
     2009.97672       -11.47912         7.07654
     2009.97946       -14.03335         7.14891
     2009.98220       -11.09258         7.06305
     2009.98494        -3.20981         7.02134
     2009.98768        -3.83303         7.10107
     2009.99041        -5.18826         6.94038
     2009.99315        -7.69049         7.11702
     2009.99589         1.94828         6.97350
     2009.99863        -3.57295         6.94161
     2010.00410       -19.58441         7.23846
     2010.00684       -22.12064         7.12193
     2010.00958       -23.09287         7.10353
     2010.01232       -13.12010         7.15872
     2010.01505        -9.32533         6.97227
     2010.01779       -23.43455         7.06305
     2010.02053       -29.45578         7.31942
     2010.02327       -20.74801         7.09862
     2010.02601       -29.83824         7.22619
     2010.02874        -9.93147         7.06795
     2010.03148       -19.90670         7.39301
     2010.03422       -18.30193         7.47888
     2010.03696       -10.84516         7.50464
     2010.03969         0.06861         7.27280
     2010.04243         1.61038         6.92934
     2010.04517         3.09616         7.25931
     2010.04791       -11.61107         7.13787
     2010.05065        11.88170         7.25195
     2010.05338        13.35847         7.34395
     2010.05612        13.83424         7.32678
     2010.05886        14.22401         6.96614
     2010.06160        -2.65622         7.02747
     2010.06434        -6.34944         7.03729
     2010.06707       -20.43668         7.15750
     2010.06981        -1.01291         7.17835
     2010.07255        -7.34513         7.21147
     2010.07529       -11.99736         7.55739
     2010.07802       -13.65459         7.36480
     2010.08076        -6.88282         7.24459
     2010.08361        10.75102        11.73045
     2010.08624         5.03072         6.99067
     2010.08898        10.31549         7.27771
     2010.09171        11.25726         6.90726
     2010.09445         5.36303         7.32187
     2010.09719         5.34680         7.19430
     2010.09993         2.34458         6.99313
     2010.10267         3.10935         6.97718
     2010.10540         0.12612         7.28752
     2010.10814         0.26189         7.19062
     2010.11088        -0.86134         7.24582
     2010.11362         0.47043         7.03115
     2010.11635         8.27120         7.17344
     2010.11909         4.88497         6.90726
     2010.12183         4.80675         7.03238
     2010.12457         4.05151         7.00907
     2010.12731        -0.50771         7.19062
     2010.13004         0.64006         7.10598
     2010.13278        -5.81317         7.08022
     2010.13552        -0.70040         7.00049
     2010.13826        -6.89063         7.13419
     2010.14100        -2.83486         6.99681
     2010.14373         2.91991         7.14400
     2010.14647        -0.90732         7.15014
     2010.14921         5.87245         7.06182
     2010.15195        -5.20578         6.91585
     2010.15468         3.27700         7.06550
     2010.16016         6.66754         7.00907
     2010.16290         0.63731         7.04219
     2010.16564        -2.27492         6.90481
     2010.16837         6.67885         7.10353
     2010.17111         9.66162         7.04587
     2010.17385        -1.50761         7.10843
     2010.17659        -3.12484         7.05814
     2010.17932         0.02293         7.02379
     2010.18206        -1.83229         7.24459
     2010.18480        -0.52352         7.00785
     2010.18754         3.91025         7.14891
     2010.19028         2.57102         7.08022
     2010.19247         0.14844         9.66109
     2010.19965        -9.62292        22.83407
     2010.20123        -9.10190         7.07899
     2010.20397        -2.52713         7.15750
     2010.20670        -4.56836         7.29120
     2010.20944        -5.67058         7.03851
     2010.21218        -5.35481         7.33046
     2010.21492        -3.33304         6.94161
     2010.21766        -6.02527         7.22496
     2010.22039        -2.81550         7.07777
     2010.22313        -5.56373         7.00049
     2010.22587        -5.85896         7.11457
     2010.22861         0.74381         7.10230
     2010.23134         6.04258         7.05078
     2010.23408        -7.32265         7.17835
     2010.23956         2.59290         7.16486
     2010.24230        -1.32833         7.45067
     2010.24503         0.27944         7.22128
     2010.24777        -3.44779         7.28752
     2010.25051         0.78798         7.62853
     2010.25325         4.78175         7.12928
     2010.25599         3.96653         7.15504
     2010.25872         4.75329         7.13664
     2010.26146        13.33606         7.50464
     2010.26420         4.74284         7.85178
     2010.26694         2.80061         7.44944
     2010.26967         0.42338         7.59664
     2010.27241         1.81315         7.69109
     2010.27515        -1.73708         7.24336
     2010.27789        -4.95831         7.36112
     2010.28062        -0.71454         7.72666
     2010.28336        -7.95777         7.26422
     2010.28610        -4.48700         7.56352
     2010.28884        -3.37223         7.27526
     2010.29158       -10.11746         7.75610
     2010.29432        -1.96368         7.60277
     2010.29705        -2.61191         7.57456
     2010.29979        -0.18414         7.65797
     2010.30239         8.82254         8.07871
     2010.30527        -3.23560         7.96831
     2010.30800        12.54117         7.32432
     2010.31074         0.59794         7.55248
     2010.31348        -1.14028         7.39669
     2010.31622        -0.78152         7.45557
     2010.31895         4.12325         7.73157
     2010.32169         8.22503         7.39424
     2010.32443         5.91780         7.32800
     2010.32717         0.44457         7.75488
     2010.32991        -1.85966         7.49605
     2010.33242        -0.95803         8.08730
     2010.33618        -4.43961        11.83839
     2010.33812        -2.86135         7.35867
     2010.34093        -4.01553         7.65184
     2010.34360         2.37619         7.35376
     2010.34633       -11.13204         7.61749
     2010.34907        -7.67726         7.39056
     2010.35181       -10.58049         7.51077
     2010.35449        -0.57076         7.55125
     2010.35723        -4.00799         8.91651
     2010.36002        -1.09418         7.50219
     2010.36276        -5.21941         7.51568
     2010.36550        -9.14664         8.21610
     2010.36824       -15.22687         9.44397
     2010.37098       -11.02509         7.77205
     2010.37371         7.63467         7.37461
     2010.37645         4.21045         7.36112
     2010.37919         1.97922         7.76346
     2010.38193       -10.49701         8.06399
     2010.38466         3.60476         7.13419
     2010.38740        -1.55647         7.12315
     2010.39014        -4.11270         7.16854
     2010.39288        -2.38493         7.36603
     2010.39561       -11.18716         7.45067
     2010.39835        -4.42239         7.23110
     2010.40109       -10.48162         7.48501
     2010.40383        -5.06984         7.22987
     2010.40657         0.70693         6.97105
     2010.40931        -9.85430         7.50341
     2010.41204        -6.20353         7.15014
     2010.41478        -1.71476         7.21638
     2010.41752         0.39201         7.19552
     2010.42026         3.94978         7.09494
     2010.42299         1.24155         7.08267
     2010.42573        -7.87468         6.96982
     2010.42847        -1.76990         7.01153
     2010.43121        -1.79013         6.96001
     2010.43394        -4.27836         6.99926
     2010.43668       -15.67559         7.30715
     2010.43942        -9.52482         7.09371
     2010.44216        -4.76305         7.03729
     2010.44490       -12.95728         6.98945
     2010.44764        -9.65351         7.17835
     2010.45037        -8.34074         7.18203
     2010.45311       -10.74397         7.14768
     2010.45585        -4.01220         7.00907
     2010.45859        -0.33442         7.02502
     2010.46132        -9.05665         7.30102
     2010.46406       -10.36088         7.08758
     2010.46680        -2.54411         7.14523
     2010.46954        -7.90234         7.68618
     2010.47227       -13.00057         7.08267
     2010.47501       -11.05080         7.04587
     2010.47775        -7.90903         7.59418
     2010.48049        -8.08926         7.23355
     2010.48323        -0.84849         7.02870
     2010.49418        -2.62840         6.90235
     2010.49692        -0.72563         6.99313
     2010.49965         5.32514         6.89377
     2010.50239         1.21391         6.95878
     2010.50424       -13.42190        13.63053
     2010.50787        -3.51555         7.06550
     2010.51060        -0.57378         6.94283
     2010.51310        -3.57916         7.74016
     2010.51608        -2.97423         7.21515
     2010.51882        -3.44046         7.17712
     2010.52156        -6.32969         7.24459
     2010.52430         2.46008         7.10966
     2010.52703         0.10685         7.19307
     2010.52977         4.63862         6.95510
     2010.53251        -2.02461         6.89990
     2010.53474        -5.84216         8.98275
     2010.54896        -3.24596         7.27526
     2010.55167        -2.66121         8.19892
     2010.55441         6.72756         7.22374
     2010.55715         1.42333         7.02379
     2010.55989        -4.86790         7.04710
     2010.56263         5.38988         7.05814
     2010.56536        -7.52636         7.03851
     2010.56810        -7.75858         7.09371
     2010.57084         3.03219         7.08267
     2010.57357        -3.37404         7.55371
     2010.57631        -9.68227         7.45803
     2010.57905        -4.60250         7.21270
     2010.58179        -3.13973         7.20902
     2010.58453        -9.19496         7.19920
     2010.58726        -0.97219         7.49360
     2010.59000         5.32158         7.41141
     2010.59274        -2.87665         7.44208
     2010.59553        -1.57784         7.32923
     2010.59822         6.04890         7.48256
     2010.60096         2.00667         7.16118
     2010.60369         0.49744         7.03483
     2010.60637         3.06917         7.07899
     2010.60917         0.09098         7.28016
     2010.61190         0.17975         7.04342
     2010.61470        11.65156         7.56352
     2010.61738        -2.55171         7.10107
     2010.62012        -5.12693         7.29734
     2010.62286        -4.95316         7.40283
     2010.62441         9.92084        22.97023
     2010.62833        -2.87862         7.79045
     2010.63107        -3.06085         7.66288
     2010.63381         4.00792         7.26054
     2010.63655         6.58969         7.02011
     2010.63929         2.77146         7.02747
     2010.64199         4.93721         7.46784
     2010.64479        -7.76798         7.65061
     2010.64750         1.41177         7.12193
     2010.65023         2.74755         7.86405
     2010.65297         3.13532         7.63098
     2010.65571         7.76909         7.25808
     2010.65845        12.74586         7.40896
     2010.66119         3.02763         7.24459
     2010.66388         9.77637         7.41509
     2010.66666         9.50117         7.28998
     2010.66934        -0.30109         7.28016
     2010.67214        -1.04329         7.13787
     2010.67488        -1.95652         7.23232
     2010.67762         0.58226         7.25686
     2010.68044         4.14408         7.46784
     2010.68309         9.68680         7.08635
     2010.68583        11.66757         7.63589
     2010.68845         5.58927         7.35989
     2010.69130        -7.70489         7.33414
     2010.69404         7.76688         7.51936
     2010.69678        -2.86234         7.18448
     2010.69952        -6.94058         7.25563
     2010.70225        -0.79081         7.17222
     2010.70499         2.76596         7.58315
     2010.70773         5.46474         7.35131
     2010.71047         9.13051         7.44208
     2010.71321        14.01428         7.00907
     2010.71595         5.29205         7.22619
     2010.71868         8.78682         7.48869
     2010.72142         9.74759         7.36971
     2010.72416         3.42436         7.53285
     2010.72689        12.76713         7.14646
     2010.72958        -2.90513         7.32555
     2010.73240        -1.29131         7.47520
     2010.73511         0.62045         7.13910
     2010.73785         2.36922         7.64202
     2010.74058        -5.47801         7.91189
     2010.74332         6.42476         7.04955
     2010.74606         3.35553         7.59418
     2010.74880         3.42830         7.15627
     2010.75154         2.76807         7.23355
     2010.75428         7.71985         7.17099
     2010.75701         2.68161         7.31696
     2010.75975         4.02038         7.43349
     2010.76249         5.93316         7.22619
     2010.76522         6.91193         7.43104
     2010.76796         5.19170         7.41141
     2010.77070         0.70747         7.25931
     2010.77339         4.57321         7.78432
     2010.77618         0.09501         7.29243
     2010.77891        -4.30322         7.40160
     2010.78165        -0.08945         7.47029
     2010.78439         2.07332         7.15995
     2010.78713         1.64209         8.23450
     2010.78987         5.17887         7.66901
     2010.79261        10.17964         6.93793
     2010.79534         0.20041         7.16608
     2010.79808        10.36518         7.09003
     2010.80082         0.49095         7.21760
     2010.80355         7.69772         7.23232
     2010.80544         1.42894        11.48757
     2010.80903         2.70726         7.36603
     2010.81177        12.71604         7.26054
     2010.81451        18.33080         7.26299
     2010.81724        14.54458         7.22251
     2010.81998         9.75435         7.02011
     2010.82272         7.76412         7.31942
     2010.82546         8.31789         7.90207
     2010.82820        11.30166         7.06059
     2010.83094         7.45343         7.38688
     2010.83367         4.23920         7.60154
     2010.83641         9.68297         7.08758
     2010.83915         5.48974         6.90113
     2010.84188         1.51951         6.93670
     2010.84462         9.49429         7.11579
     2010.84736         5.10306         7.14032
     2010.85010        15.84583         6.96001
     2010.85284        16.02160         6.92566
     2010.85557         5.82437         6.90481
     2010.85831         3.90414         6.91462
     2010.86105         1.81491         7.03238
     2010.86379        -0.51332         6.82876
     2010.86653         1.87745         6.81894
     2010.86927         9.66823         7.44085
     2010.87200        13.61100         7.14400
     2010.87394        15.02625        13.42936
     2010.87748        10.60454         7.07654
     2010.88021         9.50931         7.18694
     2010.88295         5.06108         7.11089
     2010.88569         2.47385         7.04219
     2010.88843        -3.38138         7.39915
     2010.89117         1.54839         7.38197
     2010.89390         2.37116         7.02379
     2010.89664        -5.08807         7.08635
     2010.89938         0.81371         6.99067
     2010.90212        -4.13252         7.03606
     2010.90485         4.05825         6.99313
     2010.90759         5.74602         7.15382
     2010.91033        -1.53021         7.14155
     2010.91307        -3.60844         6.88886
     2010.91581        -3.25367         7.08145
     2010.91854         3.03110         7.11825
     2010.92676        -3.47658         7.08022
     2010.92950        -1.28681         7.00171
     2010.93223       -10.51004         7.23232
     2010.93497       -11.13527         7.55616
     2010.93771         6.28150         7.20656
     2010.94045         1.79327         7.19430
     2010.94318         1.54704         7.06550
     2010.94593         4.15782         7.47520
     2010.94866         6.50458         7.13051
     2010.95140        11.50735         7.53899
     2010.95414        -0.43487         7.13787
     2010.95687        -7.92310         7.18694
     2010.95961       -12.55533         7.13051
     2010.96235        -1.52856         7.17467
     2010.96509        -5.63679         7.21270
     2010.96783        -2.67502         7.25931
     2010.97056        -1.51825         7.13296
     2010.97330        10.24752         7.35254
     2010.97604         7.33529         7.07286
     2010.97878         8.06406         7.05201
     2010.98151        21.33984         6.89009
     2010.98973        19.95215         7.02625
     2010.99247        23.22092         7.12560
     2010.99520        23.41569         6.86188
     2010.99749        10.30317         8.71534
     2011.00711        20.12439        11.88623
     2011.01437        14.91309         6.90113
     2011.01711        18.51086         7.00662
     2011.01984        12.11863         7.19430
     2011.02259         7.32040         6.91462
     2011.02532        12.20517         6.93425
     2011.02806        10.71194         7.07654
     2011.03080        15.42171         7.06795
     2011.03353        19.35448         6.97963
     2011.03627        22.09826         7.03361
     2011.03901        11.95603         6.91953
     2011.08282        -3.50964         6.83857
     2011.08555        -9.89687         6.85329
     2011.08829        -9.13310         6.73798
     2011.09103        -8.54233         6.80790
     2011.09377        -1.09455         6.83734
     2011.09650         1.72122         6.98209
     2011.09924        -2.85501         6.83857
     2011.10198        -1.38524         6.93915
     2011.10472        -4.84747         6.69014
     2011.10746        -3.94970         6.80054
     2011.11019        -3.42693         6.84225
     2011.11293        -1.45516         6.89990
     2011.11567        -1.55939         6.97841
     2011.11841         8.88739         6.95510
     2011.12115         1.22016         6.94283
     2011.12388         6.53793         7.06550
     2011.12662         2.71970         7.13787
     2011.12936         5.27247         6.82998
     2011.13210        -3.33976         6.84348
     2011.13483        -4.79999         6.74166
     2011.13757        -1.66622         6.87046
     2011.14031        -5.64545         6.97841
     2011.14305        -2.16568         6.92443
     2011.14579         0.75309         6.92321
     2011.14852        -1.85413         6.76252
     2011.15126        -7.23536         6.98945
     2011.15400        -2.32059         7.01889
     2011.15674         4.96318         6.73062
     2011.15948         1.52995         7.14032
     2011.16221         5.76872         6.83366
     2011.16495        -5.60751         7.04342
     2011.16769         3.69826         6.91585
     2011.17043        -3.77297         6.74412
     2011.17316       -11.75520         6.77724
     2011.17591       -12.44842         6.82262
     2011.17864         2.01535         6.78950
     2011.18138         0.48412         6.83121
     2011.18412        -8.83811         6.98331
     2011.18685         2.51566         6.94897
     2011.18959        -5.54957         6.85084
     2011.19233        -4.19780         6.81036
     2011.19507        -0.40102         7.09003
     2011.19780         8.18774         7.06182
     2011.20054         3.01851         6.94651
     2011.20328         4.54729         7.11457
     2011.20602        -2.10094         6.99926
     2011.20876        -4.02417         6.93302
     2011.21149        -7.78940         6.89990
     2011.21423        -4.51063         6.86924
     2011.21697        -3.14086         7.26912
     2011.21971         1.11991         7.06427
     2011.22245        -0.46832         7.08267
     2011.22518         2.92945         6.70486
     2011.22792         7.58822         6.87905
     2011.23066         3.46300         7.02993
     2011.23340         7.09577         6.92198
     2011.23613         1.64654         7.01889
     2011.23887         1.20531         6.87782
     2011.24161         7.60708         6.93915
     2011.24435         4.72085         6.88273
     2011.24709        -0.88138         6.93425
     2011.24982         4.69639         6.87782
     2011.25257        -0.58683         6.87905
     2011.25530        -1.48007         6.82385
     2011.25804         3.43571         6.90113
     2011.26078        -0.88052         7.07899
     2011.26351         3.19425         6.81772
     2011.26625        -4.95898         6.83244
     2011.26899        -0.51121         6.94774
     2011.27173        -0.80044         6.85574
     2011.27446        -4.30467         7.11457
     2011.27720        -7.49890         7.04955
     2011.27994         0.48287         6.92321
     2011.28262        -9.58739         7.30347
     2011.28502        -1.80484         8.29460
     2011.29369        -1.41523         6.93302
     2011.29637        -0.70250         6.80668
     2011.29911       -10.25673         6.85697
     2011.30184         3.95204         6.99558
     2011.30458        -2.53719         7.01398
     2011.30732        -2.00442         6.80422
     2011.31006        -4.17564         6.87660
     2011.31279        -2.88187         6.85084
     2011.31553         8.77590         6.86801
     2011.31827         1.91067         6.98454
     2011.32101        -5.92456         6.92934
     2011.32375        -7.88779         6.96246
     2011.32648       -12.68502         6.93302
     2011.32923       -12.22225         6.79809
     2011.33196        -8.01448         6.83121
     2011.33470        -7.31671         6.86065
     2011.33744       -11.31694         7.13542
     2011.34017        -7.20916         8.47247
     2011.34291        -2.80639         7.17958
     2011.34544         0.27724         8.22836
     2011.35195        -4.15055        11.19195
     2011.35386        -8.37731         7.22987
     2011.35660        -6.93354         7.20779
     2011.35934       -29.08877         7.57333
     2011.36208        24.37100         6.86556
     2011.36481        22.87177         7.00539
     2011.36756        25.60055         7.02870
     2011.37029        29.92932         7.00539
     2011.37303        35.62009         7.20043
     2011.37577        36.34686         6.96859
     2011.37850        30.62463         7.07777
     2011.38124        25.03540         6.98086
     2011.38398        27.99617         7.05814
     2011.38672        26.13395         7.01889
     2011.38945        22.50471         7.12315
     2011.39219        35.50448         7.03483
     2011.39493        33.05826         7.01030
     2011.39767        36.29903        10.98955
     2011.39918        34.58201        22.71754
     2011.41796        35.17515        15.69252
     2011.41957        30.40119         7.12438
     2011.42231        22.11097         7.01030
     2011.42505        26.53474         7.12070
     2011.42778        27.37051         7.11947
     2011.43045        32.75823         7.34518
     2011.43409        28.98058        11.58202
     2011.43600        16.85582         7.05323
     2011.43874        22.63459         7.09617
     2011.44147        24.13136         7.13296
     2011.44695        25.07290         7.03361
     2011.44969        25.99468         7.08022
     2011.45243        29.40945         7.01030
     2011.45516        33.98022         6.96859
     2011.45790        30.25299         7.11825
     2011.46064        23.56476         7.13542
     2011.46338        27.91653         7.01643
     2011.46611        32.32830         7.04587
     2011.46885        32.06407         7.58069
     2011.47159        32.59984         7.39179
     2011.47433        31.05461         7.12806
     2011.47707        34.95038         7.14155
     2011.47980        35.17416         6.95142
     2011.48255        29.07393         7.07041
     2011.48528        30.97570         7.01275
     2011.48802        35.78347         7.22128
     2011.49076        37.81224         7.19062
     2011.49349        33.30301         7.08022
     2011.49623        34.10578         7.08022
     2011.49897        34.41755         7.10230
     2011.50171        32.08033         7.32800
     2011.50444        37.75709         7.09617
     2011.50718        37.99487         7.26790
     2011.50992        35.64064         7.05569
     2011.51266        31.88741         7.42245
     2011.51540        31.66718         8.38292
     2011.51813        38.54695         7.12683
     2011.52088        36.55572         7.00049
     2011.52361        36.64949         7.09003
     2011.52635        33.04726         7.15750
     2011.52908        31.11403         7.21392
     2011.53182        33.77180         7.21638
     2011.53456        35.54058         7.35622
     2011.53730        25.30535         7.09126
     2011.54004        24.98012         7.03729
     2011.54277        38.89689         7.34272
     2011.54551        34.04266         7.31574
     2011.54825        35.37143         7.04342
     2011.55099        33.75420         7.26544
     2011.55373        38.03097         7.06059
     2011.55646        34.44974         6.99190
     2011.55920        33.77051         7.05201
     2011.56194        33.56129         7.28384
     2011.56468        34.67906         7.05691
     2011.56741        38.58783         6.98699
     2011.57015        35.90260         7.17590
     2011.57289        38.76637         7.13419
     2011.57563        31.50114         7.17344
     2011.57837        51.53491         7.33291
     2011.58110        31.52868         7.10475
     2011.58384        31.17445         7.19307
     2011.58658        37.37022         7.31451
     2011.58932        30.96800         7.12560
     2011.59206        31.95477         7.18080
     2011.59479        43.94554         7.01889
     2011.59754        42.91531         7.22374
     2011.60027        41.75208         7.16976
     2011.60301        37.20585         7.21638
     2011.60574        28.58562         7.34272
     2011.60848        43.77639         7.37952
     2011.61122        48.20816         7.46416
     2011.61396        38.95093         7.21515
     2011.61670        40.93671         7.18203
     2011.61943        39.03848         7.30102
     2011.62217        31.28425         7.20288
     2011.62491        34.77102         7.09126
     2011.62765        39.90479         7.25072
     2011.63039        36.66356         7.13664
     2011.63312        40.96633         7.09739
     2011.63587        38.48811         7.00294
     2011.63860        40.63787         7.33291
     2011.64134        56.15864         7.72053
     2011.64407        39.71142         7.10966
     2011.64681        38.53019         7.11334
     2011.64955        42.89696         7.44208
     2011.65229        41.67373         7.21515
     2011.65503        34.41950         7.24950
     2011.65776        40.16827         7.28262
     2011.66050        38.78404         7.56229
     2011.66324        44.39881         7.32187
     2011.66598        43.10758         7.27894
     2011.66872        47.14235         7.28507
     2011.67145        38.84113         7.02134
     2011.67420        39.65790         7.09985
     2011.67693        43.57867         7.20902
     2011.67967        41.88544         7.07777
     2011.68240        43.64921         7.13419
     2011.68514        43.81998         7.27894
     2011.68788        34.58375         7.22742
     2011.69062        44.10752         7.15627
     2011.69336        45.47230         7.24459
     2011.69609        35.94306         7.33904
     2011.69883        47.29984         7.42123
     2011.70157        37.76161         7.06795
     2011.70431        45.19638         7.15627
     2011.70705        38.90115         7.32310
     2011.70978        40.48992         7.12070
     2011.71252        41.73169         7.12070
     2011.71526        42.91146         7.13419
     2011.71800        42.75323         7.10107
     2011.72073        45.13500         7.02134
     2011.72347        54.37377         7.18816
     2011.72621        40.96255         7.33536
     2011.72895        42.09732         7.22987
     2011.73091        53.78359        10.80065
     2011.73530        36.11042        12.74243
     2011.73716        43.95163         7.13419
     2011.73990        46.19940         7.15382
     2011.74264        44.20417         7.02379
     2011.74538        43.62694         7.27771
     2011.74811        47.65971         7.22742
     2011.75086        52.24749         7.32923
     2011.75359        44.39826         7.21883
     2011.75633        48.56003         7.20288
     2011.75906        51.59480         7.14400
     2011.76180        37.42357         7.15014
     2011.76454        57.17934         7.23846
     2011.76728        45.41611         7.12928
     2011.77002        40.54688         8.20996
     2011.77275        49.15465         7.81253
     2011.77549        52.34742         8.58900
     2011.77823        46.10119         7.21392
     2011.78097        42.38997         7.19307
     2011.78371        45.90274         7.56965
     2011.78644        44.89751         6.99681
     2011.78919        45.36528         7.11579
     2011.79192        41.96205         7.05937
     2011.79466        38.01882         6.92689
     2011.79739        33.65859         7.17590
     2011.80013        46.80736         7.01521
     2011.80287        40.03313         8.24186
     2011.80561        47.49290         7.10230
     2011.80835        44.25268         7.03238
     2011.81108        51.20545         6.89745
     2011.81382        32.45122         7.40651
     2011.81650        39.96095         7.12193
     2011.81930        49.61976         6.91094
     2011.82203        41.98253         6.99558
     2011.82477        48.64330         7.29366
     2011.82752        43.74708         6.91462
     2011.83033        39.42390         7.49851
     2011.83299        36.20061         7.15136
     2011.83572        36.01839         7.24336
     2011.83846        45.06016         7.15750
     2011.84120        47.41393         6.83121
     2011.84394        45.66970         7.09985
     2011.84668        42.28347         7.00417
     2011.84941        36.21224         7.07286
     2011.85215        33.00401         7.15136
     2011.85489        38.03378         6.99558
     2011.85763        35.76155         7.30592
     2011.86036        47.02932         7.21147
     2011.86310        45.53509         7.33046
     2011.86585        49.48787         7.11947
     2011.86858        47.61364         6.90481
     2011.87132        50.10941         7.12193
     2011.87405        30.90518         7.13787
     2011.87679        27.44695         7.40528
     2011.87953        38.96672         7.06918
     2011.88227        46.88649         6.92689
     2011.88501        44.03227         7.06918
     2011.88774        33.85503         6.98822
     2011.89048        28.83180         7.04587
     2011.89322        40.48758         7.19307
     2011.89596        41.90535         6.98945
     2011.89869        36.68012         7.08635
     2011.90143        34.56389         6.96614
     2011.90418        32.88466         7.23478
     2011.90691        30.09543         7.02747
     2011.90965        28.78120         6.95755
     2011.91238        33.42297         7.12438
     2011.91512        33.98474         6.94651
     2011.91786        36.33051         7.23478
     2011.92060        30.82529         7.01275
     2011.92334        28.28206         7.09371
     2011.92607        28.31983         6.96859
     2011.92881        32.70060         7.12683
     2011.93155        35.08437         7.11334
     2011.93429        33.34214         7.23478
     2011.93702        33.04691         7.43104
     2011.93976        37.00168         7.06427
     2011.94251        38.81646         7.09126
     2011.94442        32.82170        11.09136
     2011.95345        27.26454         7.14523
     2011.95619        26.96231         7.08758
     2011.95893        32.54408         6.88641
     2011.96165        39.33684         6.93547
     2011.96449        39.23968         7.18939
     2011.96714        45.09139         6.86924
     2011.96988        43.97916         6.90726
     2011.97262        34.97193         6.82017
     2011.97535        35.40171         6.89254
     2011.97809        38.13348         6.89131
     2011.98084        41.96425         6.94651
     2011.98357        37.77702         6.86556
     2011.98631        33.85879         6.75025
     2011.98904        33.70156         6.91953
     2011.99178        39.58033         6.80054
     2011.99452        30.72010         6.85084
     2011.99726        41.57487         6.82508
     2012.00273        36.83642         6.76497
     2012.00547        27.24319         6.88641
     2012.00821        26.29396         7.05937
     2012.01095        39.38173         6.84838
     2012.01368        46.27750         6.80300
     2012.01642        45.33827         6.87292
     2012.01916        33.79404         6.74289
     2012.02190        42.03281         6.88518
     2012.02464        41.30658         6.82753
     2012.02737        36.42335         6.64353
     2012.03011        37.84413         6.74412
     2012.03285        36.25790         6.72081
     2012.03559        45.17467         6.81526
     2012.03833        35.26644         6.66438
     2012.04106        35.11721         6.72326
     2012.04380        33.91998         6.72817
     2012.04654        29.42475         6.70364
     2012.04928        25.93352         6.76252
     2012.05201        20.82029         6.67542
     2012.05475        30.95006         6.77110
     2012.05749        35.16084         6.78092
     2012.06023        26.85961         7.01030
     2012.06297        40.42838         6.75270
     2012.06570        18.58915         6.83121
     2012.06844        38.45092         6.94651
     2012.07118        34.10369         6.78705
     2012.07392        34.70946         6.72817
     2012.07666        30.69424         6.85084
     2012.07939        27.92100         6.74534
     2012.08213        39.69177         6.80790
     2012.08487        37.86855         6.89131
     2012.08761        37.90332         6.80790
     2012.09034        32.32509         6.75025
     2012.09308        31.72986         6.71836
     2012.09582        32.93463         6.80668
     2012.09856        33.69740         6.80422
     2012.10130        31.94517         6.92321
     2012.10403        32.87694         6.85574
     2012.10677        35.25971         7.08390
     2012.10951        25.71648         6.85206
     2012.11225        32.73726         6.80054
     2012.11498        35.99603         6.81404
     2012.11772        41.45380         6.91953
     2012.12046        41.54357         7.03238
     2012.12320        37.55334         6.81649
     2012.12594        36.70311         6.89499
     2012.12867        34.07588         7.02257
     2012.13141        30.06665        10.95398
     2012.13415        43.12843         7.02747
     2012.13689        35.72819         6.95510
     2012.13963        46.65897         7.19184
     2012.14236        38.44974         7.11334
     2012.14510        31.12151         6.88396
     2012.14784        39.18428         6.82508
     2012.15058        27.43605         6.88518
     2012.15332        33.25282         6.87046
     2012.15605        31.29659         7.06305
     2012.15879        35.27436         6.98331
     2012.16153        32.31613         6.88518
     2012.16427        38.02390         6.85697
     2012.16700        39.82168         6.98945
     2012.16974        36.70645         6.87292
     2012.17248        31.87722         6.89009
     2012.17522        53.32099         7.02379
     2012.17796        36.29176         6.87292
     2012.18069        35.59653         6.93670
     2012.18343        29.36030         6.95510
     2012.18617        27.90207         7.13419
     2012.18891        39.43784         6.92689
     2012.19165        43.97762         6.83244
     2012.19438        33.05439         6.95142
     2012.19712        38.62216         6.95387
     2012.19986        35.46393         7.02502
     2012.20260        28.67070         6.96859
     2012.20533        37.78847         6.80054
     2012.20807        38.32124         6.73430
     2012.21081        41.01901         6.75761
     2012.21355        38.82978         6.76865
     2012.21629        33.96655         6.86433
     2012.21902        34.17532         6.84716
     2012.22176        34.18510         6.88518
     2012.22450        29.23687         6.75761
     2012.22724        34.06264         6.84961
     2012.22998        34.34641         6.80177
     2012.23271        36.95418         6.86188
     2012.23545        39.37695         6.78582
     2012.23819        28.29172         6.90481
     2012.24093        36.42549         6.87169
     2012.24366        41.18326         6.93915
     2012.24640        40.21203         6.72817
     2012.24914        37.05681         6.80054
     2012.25188        33.13158         6.79441
     2012.25462        32.63235         7.56475
     2012.25735        36.09412         6.77601
     2012.26009        30.75089         6.81404
     2012.26283        26.87566         6.87292
     2012.26557        26.80743         6.91217
     2012.26831        28.48421         6.74534
     2012.27104        33.12097         7.09494
     2012.27378        32.00574         6.94161
     2012.27652        37.62851         6.82508
     2012.27926        32.94629         7.06550
     2012.28199        31.47606         6.83366
     2012.28473        35.25783         6.90603
     2012.28747        31.52760         6.87169
     2012.29021        32.76437         6.81281
     2012.29295        29.70714         6.78582
     2012.29568        31.18991         6.81404
     2012.29842        34.37368         6.80790
     2012.30116        31.83445         6.91830
     2012.30267        16.24243        22.34832
     2012.31017        25.50628        10.96379
     2012.31211        29.31754         8.00879
     2012.31485        34.16931         7.08881
     2012.31759        27.71808         6.97841
     2012.32032        35.20985         7.07286
     2012.32306        29.09162         6.83244
     2012.32580        29.45140         6.86310
     2012.32854        35.88116         6.97105
     2012.33128        34.52893         7.00662
     2012.33401        34.60071         7.12683
     2012.33675        33.74348         6.86433
     2012.33949        26.24925         6.93915
     2012.34223        24.64202         6.96246
     2012.34497        22.24479         6.86065
     2012.34770        22.45756         7.20779
     2012.35044        29.15633         6.91707
     2012.35318        28.87610         6.95510
     2012.35592        29.27087         6.90481
     2012.35865        27.85464         6.94161
     2012.36139        30.50642         6.82385
     2012.36413        24.23819         7.75733
     2012.36687        29.66296         6.81281
     2012.36961        29.69373         6.89867
     2012.37234        26.25550         7.06918
     2012.37508        30.10927         6.99926
     2012.37782        36.21904         7.14523
     2012.38056        29.62681         7.07163
     2012.38330        32.60759         7.09617
     2012.38603        35.40535         7.07286
     2012.38877        22.07113         7.12560
     2012.39151        36.91990         7.09617
     2012.39425        37.42067         7.04097
     2012.39698        32.80544         7.21760
     2012.39966        32.37917         7.17467
     2012.40246        30.29798         7.26790
     2012.40520        29.85175         6.90235
     2012.40794        28.63652         6.98209
     2012.41067        28.45229         6.93179
     2012.41341        28.47206         7.07777
     2012.41615        31.93584         7.07531
     2012.41889        34.03861         7.30224
     2012.42162        29.36038         6.98209
     2012.42436        32.70915         6.99803
     2012.42710        28.96392         6.99558
     2012.42984        34.30069         6.94038
     2012.43258        25.48046         6.92075
     2012.43531        23.70523         7.00171
     2012.43805        34.29100         6.90358
     2012.44079        29.34278         6.96246
     2012.44353        24.31655         7.06059
     2012.44626        28.20232         7.08758
     2012.44900        25.82509         7.09739
     2012.45174        35.85286         7.02625
     2012.45448        30.51863         6.98209
     2012.45722        30.28940         7.00294
     2012.45995        27.43717         7.16486
     2012.46269        36.46994         6.92566
     2012.46543        32.32271         7.10107
     2012.46817        32.13848         7.04342
     2012.47091        31.84026         7.13664
     2012.47364        30.64503         6.83857
     2012.47525        35.21807        21.27132
     2012.48274        40.65091        11.21035
     2012.48459        36.19511         6.87537
     2012.48733        32.92488         6.90481
     2012.49007        32.57465         6.93302
     2012.49281        30.93142         7.05814
     2012.49555        34.10619         7.31942
     2012.49833        33.50200         7.04710
     2012.50102        48.08574         7.57211
     2012.50376        42.25251         6.84838
     2012.50650        35.54028         6.85206
     2012.50924        35.17305         7.25195
     2012.51197        34.13882         7.16486
     2012.51471        32.55959         6.84716
     2012.51742        40.03934         7.23968
     2012.52065        36.62443         8.42340
     2012.52292        39.66290         7.08267
     2012.52566        37.40668         7.01521
     2012.52840        32.88845         6.98086
     2012.53114        33.25022         7.19798
     2012.53388        44.06599         7.31083
     2012.53662        39.14276         7.16976
     2012.53935        36.42053         7.09494
     2012.54209        43.81730         7.51691
     2012.54483        38.01107         7.18326
     2012.54757        38.70484         6.99190
     2012.55030        39.46661         7.10966
     2012.55304        37.10039         6.86924
     2012.55578        30.07416         7.09617
     2012.55852        37.77093         6.98699
     2012.56125        37.39970         6.92321
     2012.56399        39.22247         6.94897
     2012.56673        33.79224         7.68986
     2012.58153        35.36181        19.96126
     2012.58316        29.42387         7.04955
     2012.58590        38.01664         7.23478
     2012.58858        46.42237         7.02379
     2012.59138        41.23719         6.91094
     2012.59411        38.86495         6.94283
     2012.59685        41.16772         7.05078
     2012.59958        42.45049         6.99681
     2012.60232        55.20326         7.36971
     2012.60506        39.77403         6.97105
     2012.60780        39.24381         7.12070
     2012.61054        37.56958         7.02625
     2012.61328        41.48535         7.08635
     2012.61584        42.99101         7.23355
     2012.61875        53.10889         7.11334
     2012.62149        42.70866         6.97473
     2012.62423        44.26343         7.16731
     2012.62696        39.01020         6.97841
     2012.62970        37.07697         7.00049
     2012.63244        49.67475         7.30347
     2012.63518        45.26151         7.04219
     2012.63791        40.94029         6.88886
     2012.64065        41.76006         7.12315
     2012.64339        43.69983         7.00417
     2012.64613        55.07160         7.02502
     2012.64887        45.66737         6.96982
     2012.65161        45.51614         6.99313
     2012.65434        36.49591         7.15995
     2012.65708        41.94468         7.32678
     2012.65982        49.18745         7.12683
     2012.66256        47.95722         6.90481
     2012.66529        51.39800         6.99067
     2012.66803        40.92577         6.91707
     2012.67077        48.93454         7.04465
     2012.67351        43.76931         6.99803
     2012.67624        48.05208         6.86556
     2012.67898        43.39585         7.01889
     2012.68172        43.63462         7.01275
     2012.68446        41.85439         6.93302
     2012.68720        45.81416         6.92075
     2012.68994        47.40294         7.21024
     2012.69267        54.74671         7.24827
     2012.69541        48.27248         7.06795
     2012.69815        37.90725         7.04342
     2012.70089        37.85702         6.95755
     2012.70362        38.90379         6.88764
     2012.70636        47.00656         6.90481
     2012.70905        40.33730         6.98454
     2012.71288        36.23378        27.44260
     2012.71457        47.05087         6.84838
     2012.71731        47.87764         6.83857
     2012.72005        47.92942         7.04219
     2012.72279        43.84919         6.91830
     2012.72553        47.93496         6.89745
     2012.72827        45.63373         6.95265
     2012.73100        46.16150         7.09985
     2012.73374        48.93627         7.29120
     2012.73648        49.74104         6.96369
     2012.73921        47.81281         6.97963
     2012.74195        40.90458         7.43349
     2012.74469        46.23935         7.01643
     2012.75290        47.18767         7.30102
     2012.75564        44.03244         6.83857
     2012.75838        41.94921         6.83612
     2012.76112        43.67198         6.78582
     2012.76386        42.90475         6.81281
     2012.76659        48.85952         6.86801
     2012.76933        47.23229         6.92075
     2012.77207        48.21806         6.94038
     2012.77481        39.81884         6.83244
     2012.77754        40.94061         6.96614
     2012.78028        54.63238         7.07654
     2012.78302        44.62415         6.99067
     2012.78576        46.04292         6.86678
     2012.78850        43.43469         7.09862
     2012.79123        49.87746         7.32187
     2012.79397        49.47423         7.06182
     2012.79671        46.36300         6.96246
     2012.79945        58.08877         7.12315
     2012.80219        52.87155         6.92075
     2012.80493        43.98932         6.94529
     2012.80766        44.32709         7.41755
     2012.81040        30.03286         6.99558
     2012.81314        42.43363         6.89990
     2012.81587        38.74540         6.92566
     2012.81764        33.47254        13.72375
     2012.82791        46.02219        15.60788
     2012.82956        36.97026         6.91217
     2012.83230        40.66903         6.99681
     2012.83778        30.58757         7.02870
     2012.84052        44.10934         6.88518
     2012.84326        45.20111         6.95265
     2012.84599        53.37988         7.09371
     2012.84873        39.58665         7.09862
     2012.85147        47.85442         7.12070
     2012.85420        38.93919         6.87782
     2012.85694        45.31797         6.91707
     2012.85968        43.42274         6.90113
     2012.86242        39.32151         6.84838
     2012.86516        28.19428         6.96737
     2012.86789        40.27305         7.15014
     2012.87063        37.68982         7.10598
     2012.87337        37.42259         6.92321
     2012.87611        38.56836         6.88641
     2012.87885        23.49813         6.83857
     2012.88432        42.65368         6.94406
     2012.88706        35.18845         7.14646
     2012.88980        53.88722         7.02257
     2012.89253        34.62199         6.84961
     2012.89527        26.76076         6.83612
     2012.89801        16.70153         6.95142
     2012.90075        26.12830         6.89009
     2012.90349        28.58207         6.79196
     2012.90622        26.03784         6.80545
     2012.90896        31.76561         6.99435
     2012.91170        30.34939         9.71261
     2012.91444        30.76516         9.11523
     2012.91718        47.77393         8.94350
     2012.91992        35.04270         9.69176
     2012.92265        49.53347        10.13580
     2012.92539        32.47624         9.50530
     2012.92816        22.90603        10.95030
     2012.93086        36.60778         8.61721
     2012.93360        39.69555         8.68222
     2012.93634        30.57532         7.32555
     2012.93908        29.33410         7.43472
     2012.94182        45.80587         8.37065
     2012.94459        48.10466        10.12599
     2012.94732        42.71843        10.52220
     2012.95003        39.97718        11.09872
     2012.95277        39.27795         7.85546
     2012.95551        40.23672         7.40651
     2012.95825        35.64650         7.00417
     2012.96098        17.27226         7.21638
     2012.96372        43.99103         6.90235
     2012.96646        38.30481         6.72572
     2012.96919        17.91858         7.05937
     2012.97193        33.11835         7.48011
     2012.97467        13.19412         7.09249
     2012.97741         8.36089         7.16854
     2012.98015        14.61466         7.35254
     2012.98288        23.86743         6.74166
     2012.98562        15.14320         6.82385
     2012.98836        14.00497         6.84225
     2012.99110        14.02674         6.76988
     2012.99384        16.58752         6.81281
     2012.99657         9.39829         6.86801
     2012.99931        10.26006         6.87414
     2013.00205        12.24983         6.82753
     2013.00479        13.19060         6.82262
     2013.00752         9.86937         6.70977
     2013.01026         9.54814         6.85206
     2013.01300        15.23491         6.83244
     2013.01574        14.69568         6.89499
     2013.01848        16.17545         6.86801
     2013.02121        30.66423         6.89622
     2013.02395        10.96700         6.95387
     2013.02669        36.84177         7.00907
     2013.02943        31.77654         6.80668
     2013.03216        28.47831         6.75393
     2013.03491        25.53308         6.75148
     2013.03764        23.34585         6.71222
     2013.04038        18.97062         6.76865
     2013.04312        21.44939         6.88518
     2013.04585        25.98616         6.96369
     2013.04859        33.26093         7.08758
     2013.05133        22.31371         6.84102
     2013.05407        27.54648         6.81649
     2013.05681        28.02325         6.83244
     2013.05954        23.49902         6.87905
     2013.06228        25.84979         7.07899
     2013.06502        16.04956         7.01521
     2013.06776        22.39133         6.88764
     2013.07049        31.86410         6.76865
     2013.07324        36.51788         7.36971
     2013.07597        34.64664         6.90113
     2013.07871        34.16942         6.99067
     2013.08145        37.97219         6.88518
     2013.08418        38.14696         6.77233
     2013.08692        33.42473         6.85206
     2013.08966        28.35750         6.86433
     2013.09240        30.81927         6.87292
     2013.09514        39.51904         6.86188
     2013.09787        36.50081         7.06550
     2013.10061        42.41358         7.29243
     2013.10335        31.25735         6.97105
     2013.10594        32.17403         7.43717
     2013.11720        24.81231         7.80885
     2013.11978        32.92498         7.28016
     2013.12251        24.60475         6.95019
     2013.12525        22.40752         6.86556
     2013.12799        24.85329         6.95633
     2013.13073        36.67406         6.96491
     2013.13347        35.34284         6.92811
     2013.13618        33.44459         6.96001
     2013.13894        34.97438         6.86310
     2013.14168        37.64015         7.02257
     2013.14442        38.23092         6.94529
     2013.14715        43.25169         6.95265
     2013.14990        26.16946         7.15504
     2013.15263        27.04623         6.99313
     2013.15537        21.06300         6.88028
     2013.15811        23.90877         6.85697
     2013.16084        29.84755         6.84961
     2013.16358        30.38832         7.05078
     2013.16632        27.81009         6.94774
     2013.16906        32.65886         6.94529
     2013.17180        29.64163         6.92934
     2013.17453        30.31340         6.83734
     2013.17727        27.57617         7.03974
     2013.18001        31.59194         7.06182
     2013.18275        31.54571         6.84961
     2013.18548        30.42548         6.81772
     2013.18823        26.91626         6.78705
     2013.19096        33.15803         7.00294
     2013.19370        32.97680         6.91953
     2013.19644        24.41157         6.90971
     2013.19917        34.59434         6.82630
     2013.20191        30.77811         7.02134
     2013.20465        35.00988         6.97350
     2013.20739        41.81466         7.06918
     2013.21013        28.93142         6.83244
     2013.21286        34.35719         6.85452
     2013.21560        29.16997         6.81281
     2013.21834        37.10974         6.98331
     2013.22108        30.53551         6.88028
     2013.22381        28.96628         6.79196
     2013.22656        25.84105         6.80422
     2013.22929        28.08082         6.89254
     2013.23203        26.91759         6.89990
     2013.23477        33.88336         6.92934
     2013.23750        26.95113         7.08267
     2013.24024        27.86790         7.03115
     2013.24298        29.82968         7.12928
     2013.24572        37.85545         7.05691
     2013.24846        32.73022         7.03729
     2013.25119        34.79599         7.02134
     2013.25393        29.19576         7.15259
     2013.25667        30.65953         7.27771
     2013.25941        37.72030         7.14646
     2013.26214        33.29707         7.07041
     2013.26489        33.01385         7.19675
     2013.26762        32.72561         7.01153
     2013.27036        21.47439         7.16486
     2013.27310        32.50116         7.34150
     2013.27583        36.34793         7.12193
     2013.27857        34.46070         7.17958
     2013.28131        37.53847         7.20902
     2013.28405        30.25524         7.08881
     2013.28679        31.21601         7.04342
     2013.28952        27.18178         6.98086
     2013.29226        20.57155         7.14278
     2013.29500        28.80332         7.12806
     2013.29765        21.19304         7.54880
     2013.31690        32.85349         7.03851
     2013.31964        32.95726         7.09494
     2013.32238        23.59104         7.13787
     2013.32512        38.01681         7.08758
     2013.32785        39.68258         7.00785
     2013.33059        24.39835         6.93915
     2013.33333        23.30812         7.05323
     2013.33607        29.02889         7.18326
     2013.33880        20.78366         6.99803
     2013.34155        34.37443         7.21883
     2013.34428        36.52920         7.20411
     2013.34702        32.50997         7.21883
     2013.34976        25.84274         7.15872
     2013.35249        29.02652         7.15504
     2013.35523        31.20729         7.36971
     2013.35797        26.35306         7.11825
     2013.36071        39.58983         7.22006
     2013.36344        32.10460         7.21024
     2013.36618        25.09537         7.20288
     2013.36892        36.96214         7.06182
     2013.37166        28.64091         7.15872
     2013.37440        29.94568         7.15750
     2013.37713        26.82245         7.04710
     2013.37987        25.75323         7.13664
     2013.38261        21.55700         7.08267
     2013.38535        26.30377         7.16118
     2013.38809        30.58854         7.19307
     2013.39082        33.71531         7.14278
     2013.39907        25.05164         8.42217
     2013.40177        30.38139         7.15259
     2013.40451        34.42016         7.10843
     2013.40725        33.00094         7.44576
     2013.40999        29.84171         7.15995
     2013.41273        33.60348         7.19062
     2013.41546        25.64625         7.52304
     2013.41821        29.12302         7.11334
     2013.42094        37.27579         7.13664
     2013.42368        26.96256         7.15259
     2013.42642        26.87933         7.12070
     2013.42915        36.82210         7.26176
     2013.43190        28.49588         7.25318
     2013.43463        34.30564         7.17958
     2013.43737        27.71142         7.18080
     2013.44010        31.15919         7.17222
     2013.44284        36.96896         7.31451
     2013.44558        31.27573         7.24950
     2013.44832        30.55650         7.11457
     2013.45106        32.41827         7.13051
     2013.45379        25.38204         7.16731
     2013.45654        27.00382         7.07777
     2013.45927        28.39958         8.60372
     2013.46201        37.71035         7.22496
     2013.46474        30.99212         7.10598
     2013.46748        32.75290         7.01030
     2013.47022        30.18667         7.20166
     2013.47296        28.27244         6.87782
     2013.47570        34.75021         7.06918
     2013.47763        42.25646        11.80650
     2013.48088        41.79256        11.33056
     2013.48391        40.36952         7.79904
     2013.48665        29.96329         9.45992
     2013.48939        25.96406         7.67882
     2013.49212        31.43684         9.30904
     2013.49486        30.40961         8.55220
     2013.49760        32.48338         7.78064
     2013.50034        27.30215         7.36848
     2013.50308        31.00292         7.16240
     2013.50581        36.02969         6.99681
     2013.50855        33.53246         7.01889
     2013.51129        40.52823         7.13051
     2013.51403        35.41201         7.09126
     2013.51676        28.17877         7.09862
     2013.51950        32.11555         6.99067
     2013.52224        43.04132         7.00785
     2013.52498        30.51609         7.19184
     2013.52772        35.18886         7.03238
     2013.53023        30.75748         7.47029
     2013.56150        28.23671        13.93719
     2013.56331        31.74088         7.06182
     2013.56605        34.32465         6.98086
     2013.56878        25.09542         6.99435
     2013.57152        44.73619         6.88641
     2013.57426        41.91197         7.02011
     2013.57700        40.13474         6.94897
     2013.57974        29.99751         6.98822
     2013.58247        40.52528         6.96246
     2013.58521        38.50005         6.99313
     2013.58795        38.00682         7.08881
     2013.59069        35.19359         7.12070
     2013.59342        35.51636         7.22619
     2013.59616        43.74713         7.13787
     2013.59890        44.76190         7.14768
     2013.60164        44.49168         7.09126
     2013.60438        38.89945         7.14400
     2013.60711        30.55522         7.11334
     2013.60985        43.75999         7.28262
     2013.61259        36.98176         7.12560
     2013.61533        38.62053         7.22864
     2013.61807        43.99830         7.23846
     2013.62080        40.34707         7.18939
     2013.62354        36.31784         7.15995
     2013.62628        43.02861         6.95142
     2013.62902        36.51639         6.97473
     2013.63175        47.69116         7.03361
     2013.63449        48.47093         7.24704
     2013.63723        36.38070         6.97473
     2013.63997        42.89147         6.95510
     2013.64271        43.13324         7.06550
     2013.64544        41.50601         7.11702
     2013.64818        41.17178         7.01030
     2013.65092        42.61755         7.01766
     2013.65366        39.67832         7.02379
     2013.65639        44.72510         6.89867
     2013.65913        50.83787         7.22374
     2013.66187        35.66864         7.22374
     2013.66461        33.83941         6.95142
     2013.66735        41.15818         6.94038
     2013.67008        43.39695         6.91953
     2013.67282        46.11772         7.40405
     2013.67556        46.65249         7.21024
     2013.67830        49.85726         7.15995
     2013.68104        51.38603         7.44699
     2013.68377        45.75581         6.93057
     2013.68651        35.99158         6.88518
     2013.68925        38.11635         7.00417
     2013.69143        44.12176         8.93369
     2013.70357        42.09461         9.46973
     2013.70568        45.62597         7.07286
     2013.70841        48.06574         7.13787
     2013.71115        40.82552         6.91339
     2013.71389        41.96829         6.96001
     2013.71663        39.73806         6.95878
     2013.71937        41.14983         7.01643
     2013.72210        50.16860         6.98945
     2013.72484        43.46737         7.01153
     2013.72758        39.18514         7.03361
     2013.73032        45.97291         6.89254
     2013.73305        51.39268         6.92321
     2013.73579        45.68145         6.83244
     2013.73853        39.77923         6.96246
     2013.74127        41.83300         7.04955
     2013.74401        50.71577         7.19798
     2013.74674        44.21054         6.97718
     2013.74948        42.77531         6.95019
     2013.75222        40.58908         6.96369
     2013.75399        35.69623        12.49588
     2013.75863        37.35722        14.08929
     2013.76043        28.67339         6.94774
     2013.76317        31.81316         6.94651
     2013.76591        38.09194         7.15014
     2013.76865        39.89671         7.05937
     2013.77138        41.67648         6.96246
     2013.77412        45.50925         6.93057
     2013.77686        40.54002         6.92075
     2013.77954        41.37675         7.00662
     2013.78182        31.32223         8.48596
     2013.78781        32.39910         6.93302
     2013.79058        37.68489         7.12315
     2013.79329        35.58065         6.76129
     2013.79603        38.39842         6.80054
     2013.79876        36.73419         6.95265
     2013.80150        43.19196         7.02625
     2013.80424        40.34273         6.98699
     2013.80698        38.89050         6.83244
     2013.80971        39.89927         6.93302
     2013.81245        36.18604         6.90235
     2013.81519        41.90581         9.48322
     2013.81793        36.29858         6.77110
     2013.82067        40.18535         7.02625
     2013.82334        44.19509         7.15382
     2013.82569        39.71160         8.47983
     2013.82888        40.82767         6.92689
     2013.83162        40.95644         6.88518
     2013.83436        47.07721         7.06550
     2013.83709        46.61498         7.01153
     2013.83983        44.23575         6.91953
     2013.84257        38.64252         6.88641
     2013.84531        38.04729         6.89377
     2013.84804        38.66806         6.78337
     2013.85078        32.70484         7.00907
     2013.85352        45.57961         6.76620
     2013.85626        37.59138         6.81772
     2013.85900        21.47815         6.84225
     2013.86173        35.77092         6.80545
     2013.86447        35.35769         6.92811
     2013.86721        37.31946         6.80913
     2013.86995        35.10723         6.82876
     2013.87269        50.53200         6.85206
     2013.87542        47.33877         6.77724
     2013.87816        44.27755         6.77233
     2013.88090        41.15132         6.91339
     2013.88364        44.30409         7.13664
     2013.88637        42.12286         6.75270
     2013.88911        30.15463         6.70609
     2013.89185        26.30540         6.74166
     2013.89459        28.96217         6.78828
     2013.89733        33.27894         6.74044
     2013.90006        32.02271         6.91585
     2013.90280        28.99448         6.80668
     2013.90554        31.95126         6.77724
     2013.90828        34.73903         6.71345
     2013.91102        35.27180         6.74902
     2013.91375        30.95057         6.86678
     2013.91649        23.38334         6.85452
     2013.92197        17.19288         6.85452
     2013.92470        26.76365         6.72449
     2013.92744        25.39242         7.67760
     2013.93007        28.53912         7.32678
     2013.93663        19.47437        11.80159
     2013.93839        26.86051         6.64599
     2013.94113        24.44028         6.72449
     2013.94301        33.38350        10.77489
     2013.94661        24.19382         6.91707
     2013.94935        25.32559         6.77356
     2013.95208        29.42436         6.68769
     2013.95374        33.06043        18.84501
     2013.96030        40.99368         6.78337
     2013.96303        43.92745         6.82017
     2013.96577        44.38822         6.72449
     2013.96851        43.37399         6.73308
     2013.97125        42.72976         6.72817
     2013.97399        37.09753         6.78582
     2013.97672        24.61330         6.87046
     2013.97946        14.51407         6.80913
     2013.98220        23.20584         6.75761
     2013.98494        23.68461         6.73062
     2013.98767        18.44939         6.83489
     2013.99041        15.92916         6.84102
     2013.99315        15.45093         6.74412
     2013.99589        21.48970         6.83244
     2013.99863        20.00047         6.89622
     2014.00410        23.06201         6.76497
     2014.00684        21.15878         6.95019
     2014.00958        34.14455         6.80177
     2014.01232        28.30332         6.90481
     2014.01505        34.37610         6.93057
     2014.01779        35.76887         6.88764
     2014.02053        35.13664         6.77356
     2014.02327        32.46341         7.00294
     2014.02600        37.86118         7.02993
     2014.02874        33.27195         6.88396
     2014.03148        47.38172         6.86924
     2014.03422        38.39349         6.87905
     2014.03696        37.03626         6.94897
     2014.03969        35.80103         6.83489
     2014.04243        36.48881         6.98822
     2014.04517        38.22558         7.07777
     2014.04791        33.05835         6.74166
     2014.05065        34.85812         6.80177
     2014.05338        28.92189         6.73430
     2014.05612        29.96066         6.70241
     2014.05886        31.91343         6.82385
     2014.06160        35.10720         6.76129
     2014.06433        32.91797         6.97841
     2014.06707        35.31274         6.97718
     2014.06981        35.89652         6.96737
     2014.07255        39.75829         6.76006
     2014.07529        37.53706         6.78950
     2014.07802        28.56783         6.89254
     2014.08076        39.93860         6.83489
     2014.08344        35.83433         6.95019
     2014.08624        36.01614         6.87660
     2014.09017        48.75269        33.18822
     2014.09171        37.58168         6.99803
     2014.09445        32.70645         6.80177
     2014.09719        28.83223         6.96859
     2014.09995        36.92201         7.03238
     2014.10266        39.38777         6.94774
     2014.10540        38.18654         6.65948
     2014.10814        27.90931         6.71958
     2014.11088        32.24308         6.97718
     2014.11362        37.98185         6.84838
     2014.11635        40.89162         6.96369
     2014.11912        42.20541         6.88273
     2014.12183        35.84516         6.92443
     2014.12457        37.94294         7.02502
     2014.12731        41.63071         6.95510
     2014.13004        36.86148         6.75270
     2014.13278        43.48225         7.04097
     2014.13552        33.31002         7.00539
     2014.13826        33.90779         7.90085
     2014.14099        40.62456         6.89867
     2014.14373        40.06133         6.87292
     2014.14647        30.91110         6.87660
     2014.14921        29.08387         6.89745
     2014.15195        21.08465         6.89377
     2014.15468        38.41142         6.88764
     2014.15742        40.09819         7.06305
     2014.16016        43.77596         7.25931
     2014.16290        37.56573         7.05446
     2014.16564        34.72950         6.90849
     2014.16837        20.04927         6.96859
     2014.17111        27.92004         7.15382
     2014.17385        31.92181         7.13296
     2014.17659        42.64058         6.99926
     2014.17932        41.72736         7.26422
     2014.18206        32.89713         7.05323
     2014.18480        41.24990         6.91953
     2014.18754        38.09267         7.33291
     2014.19028        34.22844         7.06795
     2014.19301        34.40221         6.87169
     2014.19575        38.24298         6.93793
     2014.19849        34.04675         7.03974
     2014.20123        38.17952         7.00294
     2014.20397        35.76729         6.90603
     2014.20670        38.16306         6.94161
     2014.20944        34.10684         6.95755
     2014.21218        38.85261         7.00171
     2014.21492        43.71838         7.04587
     2014.21765        38.64615         6.88396
     2014.22039        33.50692        10.64486
     2014.22313        33.88669         7.12683
     2014.22587        35.20446         7.12560
     2014.22861        34.93223         7.01521
     2014.23134        39.94100         7.06918
     2014.23408        39.00177         6.87046
     2014.23682        36.85255         6.85942
     2014.23956        28.24732         7.11579
     2014.24230        33.72709         6.98945
     2014.24500        37.91984         9.48690
     2014.24787        37.74669         7.55616
     2014.25051        38.05240         6.88273
     2014.25325        31.78317         6.87660
     2014.25598        35.39594         7.14646
     2014.25872        36.54971         6.95019
     2014.26146        36.14648         7.27526
     2014.26420        27.65626         6.98577
     2014.26694        32.72203         6.96982
     2014.26967        36.21180         7.04097
     2014.27241        26.16757         7.07286
     2014.27515        29.34234         8.00511
     2014.27789        29.79411         6.96491
     2014.28062        31.39388         7.01766
     2014.28336        30.54265         6.96001
     2014.28610        36.16942         7.10107
     2014.28884        34.25019         7.26054
     2014.29158        30.56697         6.95019
     2014.29431        39.04774         6.88150
     2014.29705        34.00551         6.96246
     2014.29979        27.82228         7.03851
     2014.30253        26.11105         7.11211
     2014.30527        36.38082         6.97473
     2014.30800        35.27159         7.03974
     2014.31074        35.57436         7.14523
     2014.31348        33.17013         7.11457
     2014.31622        35.63890         7.58192
     2014.31895        35.24068         6.92934
     2014.32169        29.04545         7.05446
     2014.32443        21.33822         7.20166
     2014.32717        22.78199         7.17222
     2014.32991        29.16976         7.03361
     2014.33264        27.52153         7.02257
     2014.33538        35.96130         7.04097
     2014.33812        31.45707         7.19184
     2014.34086        28.43284         7.02257
     2014.34360        32.56461         6.95019
     2014.34633        26.42939         7.01275
     2014.34907        29.31216         7.20288
     2014.35181        36.17993         7.30347
     2014.35455        32.61170         6.91094
     2014.35728        30.14047         7.02379
     2014.36002        21.50624         6.96369
     2014.36276        17.87501         7.04342
     2014.36550        25.06578         7.05201
     2014.36824        32.08255         7.17222
     2014.37097        29.58032         7.13787
     2014.37371        32.29910         7.04097
     2014.37645        35.03687         6.94897
     2014.37919        30.57564         7.02870
     2014.38193        23.49041         7.05323
     2014.38466        35.47618         7.08145
     2014.38740        30.61995         7.13174
     2014.39014        25.98472         7.10230
     2014.39288        27.66849         7.10966
     2014.39561        36.82626         7.07286
     2014.39835        33.20303         7.23232
     2014.40109        33.52381         7.23846
     2014.40383        32.25758         7.12315
     2014.40657        28.61635         7.08390
     2014.40930        30.54012         7.00171
     2014.41205        24.24889         6.95878
     2014.41478        35.99366         7.22619
     2014.41752        32.70743         7.01766
     2014.42026        36.57420         7.22128
     2014.42299        30.92197         6.95019
     2014.42573        26.91774         7.01766
     2014.42847        29.27252         7.00785
     2014.43121        31.57529         7.00171
     2014.43394        32.52106         6.99067
     2014.43668        25.15183         7.16976
     2014.43942        35.13860         7.00785
     2014.44216        30.08137         6.99435
     2014.44490        35.37914         7.28384
     2014.44763        37.21991         7.09249
     2014.45037        34.69568         6.93547
     2014.45311        35.81245         7.02379
     2014.45585        37.23723         7.08513
     2014.45859        30.52300         6.95633
     2014.46132        30.69477         6.99067
     2014.46406        32.69054         7.02379
     2014.46680        33.49531         7.09003
     2014.46954        39.25408         6.89131
     2014.47227        33.06585         6.99067
     2014.47501        31.77162         6.95633
     2014.47775        30.01139         7.10966
     2014.48049        29.42416         7.09862
     2014.48323        33.80794         6.99313
     2014.48596        37.89871         7.08267
     2014.48870        39.79448         7.16731
     2014.49144        32.28025         6.83612
     2014.49418        32.72902         6.84225
     2014.49692        29.03179         6.86310
     2014.49965        31.30256         6.86065
     2014.50239        33.76433         7.04465
     2014.50513        35.90910         7.36725
     2014.50787        36.03487         7.05201
     2014.51060        32.16665         6.85820
     2014.51334        33.34842         6.96246
     2014.51608        37.97619         7.12683
     2014.51882        46.27596         6.91462
     2014.52146        38.76066         7.52549
     2014.52514        33.64305        11.20421
     2014.52703        34.42727         6.77356
     2014.52977        28.36904         7.00171
     2014.53251        35.11681         7.14891
     2014.53525        35.56858         6.97105
     2014.53798        41.17236         7.06550
     2014.54069        43.51710         7.31696
     2014.64020        46.30847        13.56674
     2014.64202        30.36865         7.09494
     2014.64476        37.77142         6.95265
     2014.64750        34.00019         6.98577
     2014.65023        36.67897         6.88518
     2014.65297        45.83574         6.93793
     2014.65571        45.58751         7.14155
     2014.65845        45.45128         7.04097
     2014.66119        39.12805         6.98209
     2014.66392        51.56882         7.04710
     2014.66666        36.30159         7.01643
     2014.66940        47.08536         7.04833
     2014.67214        48.73113         7.17590
     2014.67488        36.74790         6.91462
     2014.67761        32.36268         6.95755
     2014.68035        37.43645         6.89377
     2014.68309        33.69622         6.96246
     2014.68583        41.61699         7.08513
     2014.68856        36.76776         7.09494
     2014.69130        34.23553         6.97595
     2014.69404        33.64630         6.93915
     2014.69678        31.88207         6.85574
     2014.69952        38.52584         6.83244
     2014.70225        41.23161         6.91830
     2014.70499        39.09139         6.72572
     2014.70773        40.18216         6.97227
     2014.71047        44.13593         6.94529
     2014.71321        45.16070         6.86433
     2014.71594        39.29947         6.97718
     2014.71868        38.46124         6.96246
     2014.72142        38.39001         6.88273
     2014.72416        44.35078         7.04587
     2014.72689        41.91555         6.99803
     2014.72963        41.78532         7.04097
     2014.73237        44.33410         7.98181
     2014.73511        30.02687         6.89990
     2014.73785        32.06964         6.88764
     2014.74058        34.55241         7.62240
     2014.74332        39.30418         7.23968
     2014.74606        49.07595         9.48200
     2014.74880        44.23472         6.92198
     2014.75154        48.36149         7.06673
     2014.75427        38.10526         7.02502
     2014.75701        36.66503         7.08022
     2014.75975        42.11081         8.40500
     2014.76249        41.41558         7.11579
     2014.76522        39.87835         6.94283
     2014.76791        53.41608         7.19798
     2014.77002        40.17845         9.40595
     2014.79341        41.86758        13.37784
