# ================= DQRFIT RESULTS ================
# INPUT FILE: series/WOST.rad
# OUTPUT: LDETRENDED
# FILTER FUNCTION: f(t)
# f(t)=+line(t)+annual(t)
# line(t)=+P 1+P 2*t
# annual(t)=+P 3*sin(2*pi*t+P 4)
# heav(t)=(t<0?0:1)
# TOTAL OBSERVATIONS MTOT= 3718
# INITIAL TIME INTERVAL= 2017.1225 - 2005.0732 = 12.0493
# TOTAL OBSERVATIONS AFTER PREFILTER M= 3698
# TIME-SPAN= 2017.1225 - 2005.0732 = 12.0493
# OBSERVATIONS: USED M=  3698 REJECTED MTOT-M=    20 %USED=   99.4621
# N=  4 PARAMETERS
# MAXSIG= 175.00000
# MAXRES=  33.73071
# SCALE FACTOR FOR LENGTHS: SCL=  10.00000
# SCALE FACTOR FOR SIGMAS: SCLSIG=   1.00000
# CHI^2=   8439.533 DOF=  3694 CHI^2/DOF=   2.28466
# RMS=      8.946 SDEV=      8.947 MEAN=    0.04234
#  P #       PARAMETER +-    SIGMA %error PARAMETER NAME
# P 1 =     -2582.53485 +-   87.062   3.37 YZERO                              
# P 2 =         1.28320 +-    0.043   3.37 SLOPE                              
# P 3 =         6.48475 +-    0.207   3.20 ANNUAL AMPLITUDE                   
# P 4 =        -3.13342 +-    0.045   1.44 ANNUAL PHASE                       
#       T            LDETRENDED       SIG_OBS
     2005.07324         1.52891         8.82117
     2005.07598         5.70040         8.98441
     2005.07871         2.89789         8.67002
     2005.08145         4.10237         8.69118
     2005.08419        -5.29914         8.73350
     2005.08693         0.88935         8.60956
     2005.08966         0.65383         8.56723
     2005.09240         3.18032         8.82117
     2005.09514        -1.07319         8.60653
     2005.09788        -7.23971         8.53852
     2005.10062        -0.50022         8.94360
     2005.10335        -3.23073         8.51433
     2005.10609        -1.42525         8.65944
     2005.10883         2.35724         8.70478
     2005.11157         2.16573         8.53549
     2005.11431         2.62521         8.57328
     2005.11704         7.86270         8.54456
     2005.11978         1.34619         8.46899
     2005.12252        -3.61233         8.63072
     2005.12526        -0.40284         8.51282
     2005.12799        -5.28135         8.40701
     2005.13073         0.04913         8.58688
     2005.13347        -1.39838         8.53700
     2005.13621         2.43711         8.58084
     2005.13895         1.46259         8.52642
     2005.14168        -0.87192         8.42817
     2005.14442         0.55057         8.44178
     2005.14716        -1.32594         8.80152
     2005.14990         0.07054         8.73955
     2005.15264        -0.98297         8.83779
     2005.15537         5.56252         8.71083
     2005.15811        11.11400         8.72594
     2005.16085         4.53549         8.62316
     2005.16359         1.35998         8.54456
     2005.16632        -3.18154         8.69722
     2005.16906        -1.19105         8.71990
     2005.17180        -1.57956         8.79245
     2005.17454         0.60492         8.70629
     2005.17728         0.33741         8.69420
     2005.18001        -2.29210         8.72745
     2005.18275         3.90738         8.85895
     2005.18549        -2.87513         8.99801
     2005.18823         2.46536         8.77431
     2005.19097         1.86784         8.78036
     2005.19370        -1.37367         8.70629
     2005.19644        -3.36918         8.55212
     2005.19918        -0.82170         8.71385
     2005.20192         3.04179         8.83477
     2005.20465         6.26228         8.86651
     2005.20739         2.66176         8.63223
     2005.21013         3.43425         8.77885
     2005.21287         6.29074         8.69420
     2005.21561         9.15922         8.70478
     2005.21834         6.57071         8.81966
     2005.22108         3.05520         8.73199
     2005.22382         4.77468         8.60956
     2005.22656         4.49917         8.57328
     2005.22930         9.38866         8.75164
     2005.23203         9.35815         8.87709
     2005.23477         3.38963         8.76222
     2005.23751        11.84012         8.73501
     2005.24025         9.42461         8.93000
     2005.24298         1.22909         8.64130
     2005.24572         6.04658         8.84837
     2005.24846         5.84707         8.78036
     2005.25120         2.28655         8.64432
     2005.25394        11.88804         8.91639
     2005.25667        -0.14347         9.11440
     2005.25941         5.71401         8.73199
     2005.26215         0.13650         8.83326
     2005.26489        11.89399         8.79547
     2005.26762         6.53547         8.90430
     2005.27036        -0.76104         8.70327
     2005.27310         3.06445         8.74257
     2005.27584         6.43893         8.88465
     2005.27858         4.10842         8.74408
     2005.28131         8.22691         9.00406
     2005.28405        -2.91061         9.01917
     2005.28679        -2.82812         8.83326
     2005.28953         4.18137         8.67455
     2005.29227         6.40585         8.66850
     2005.29500        -0.46766         8.66246
     2005.29774         3.57283         8.69874
     2005.30048        -1.44169         8.75768
     2005.30322        -0.73120         8.71990
     2005.30595        -0.02271         8.71234
     2005.30869         4.47778         8.91790
     2005.31143         7.90526         8.81966
     2005.31417         3.13775         8.78640
     2005.31691         4.39024         8.59142
     2005.31964        -3.51128         8.64281
     2005.32238         6.93721         8.87558
     2005.32512         9.15670         8.84989
     2005.32786         0.05518         8.58386
     2005.33060         5.42467         8.65944
     2005.33333        -0.79084         8.85895
     2005.33607         8.65564         8.98441
     2005.33881         4.14013         8.86954
     2005.34155         3.54962         8.74408
     2005.34428         6.94810         8.79094
     2005.34702         9.24759         8.70327
     2005.34976         8.38408         9.00104
     2005.35250        10.02656         8.82117
     2005.35524         9.25705         8.96174
     2005.35797         3.28254         9.10684
     2005.36071         5.20802         8.96930
     2005.36345         5.78751         8.99499
     2005.36619        10.28800         9.13707
     2005.36893         4.98548         9.77946
     2005.37159         3.43507         9.47112
     2006.17936         4.59253         8.79698
     2006.18207         6.38906         8.63979
     2006.18480         9.54454         8.84989
     2006.18754         7.86503         8.45841
     2006.19028         1.18652         8.68060
     2006.19302        -0.87700         8.73501
     2006.19576        -0.21551         8.85442
     2006.19849         6.17198         8.84837
     2006.20123        24.43746         9.12952
     2006.20397         0.11395         9.13405
     2006.20671        -2.18756         9.03882
     2006.20945        -4.43708         8.84384
     2006.21218        -7.21659         8.83024
     2006.21492        -7.16610         8.82117
     2006.21766        -0.06862         8.86349
     2006.22040        -7.20113         9.21567
     2006.22313        -6.86664         9.14916
     2006.22587        -5.23315         9.05092
     2006.22861         0.80933         9.00557
     2006.23135        -0.60718         8.98441
     2006.23409         2.09731         9.04638
     2006.23682        -1.79421         8.61711
     2006.23956        -1.82272         8.58688
     2006.24230        -3.56323         8.59142
     2006.24504         0.81025         8.55968
     2006.24778         1.03674         8.82268
     2006.25051        -0.22277         8.71083
     2006.25325        -0.72029         8.76222
     2006.25599        -2.71580         8.68060
     2006.25873         0.50669         8.76071
     2006.26146        -2.28783         8.90430
     2006.26420        -4.70734         9.12347
     2006.26694         3.77515         8.90430
     2006.26968        -3.39437         8.81210
     2006.27242         2.82212         8.63676
     2006.27515         0.03961         9.06452
     2006.27789         4.34209         9.09626
     2006.28063         3.72758         8.85140
     2006.28337         8.15407         8.77885
     2006.28611        -8.42145         9.07208
     2006.28884         1.66104         8.87105
     2006.29158         5.58953         8.59293
     2006.29432         9.08701         8.64734
     2006.29706         1.94250         8.71234
     2006.29979         4.37799         8.81210
     2006.30253         0.78247         8.72443
     2006.30527        -0.63104         8.75315
     2006.30801         3.75045         8.78036
     2006.31075         3.57494         8.76675
     2006.31348         2.53842         9.21114
     2006.31622         5.24291         8.83175
     2006.32170         1.65688         8.88012
     2006.32444        -3.20463         8.86500
     2006.32717        -1.15714         8.74257
     2006.32991        -4.34166         8.66850
     2006.33265        -6.06017         8.72897
     2006.33539        -0.68868         8.75617
     2006.33812         3.00980         8.82570
     2006.34086         3.20029         9.08115
     2006.34360         7.11578         8.79698
     2006.34634         6.69626         8.70478
     2006.34908        -0.04625         8.85140
     2006.35181         2.13424         9.11440
     2006.35455         1.83172         8.91337
     2006.35729         5.28621         8.78640
     2006.36003         0.62370         8.83779
     2006.36277        -4.63182         8.80152
     2006.36550        -7.74733         8.83477
     2006.36824        -5.03984         9.18091
     2006.37098         5.05364         9.25346
     2006.37372         4.30813         9.14312
     2006.37645         5.49762         9.12800
     2006.37919         0.08910         9.20963
     2006.38193         3.53459         9.31090
     2006.38467         6.00508         9.42124
     2006.38741        15.15056         9.38043
     2006.39014        10.84405         9.22927
     2006.39288         7.08154         9.28822
     2006.39562         0.67803         9.23834
     2006.39836        -2.32049         9.27462
     2006.40110         0.16500         9.25950
     2006.40383        -0.83451         9.32450
     2006.40657         1.38397         9.13707
     2006.40931         4.89446         9.05394
     2006.41205         1.85895         9.18998
     2006.41478         0.22343         9.48170
     2006.41752        -2.25608         9.57843
     2006.42026         6.57641         9.51042
     2006.42300         6.39789         9.50286
     2006.42574         1.58438         9.47716
     2006.42847         2.87187         9.53007
     2006.43121        -0.22065         9.50286
     2006.43395         0.50284         9.29427
     2006.43669        -4.15167         9.11440
     2006.43943         0.52281         9.22021
     2006.44216         2.43530         9.34717
     2006.44490         1.87679         9.49681
     2006.44764         4.62527         9.38496
     2006.45038         7.60576         9.27764
     2006.45311         6.97025         9.26102
     2006.45585         9.23273         9.44693
     2006.45859         5.68822         9.25195
     2006.46133         3.02771         9.34566
     2006.46407         2.04619         9.51344
     2006.46680         4.96268         9.42124
     2006.46954         8.30517         9.28067
     2006.47228         3.05865         9.48019
     2006.47502         4.48614         9.49530
     2006.47775         5.51263         9.29276
     2006.48049        -7.67388         9.38496
     2006.48323         3.21260         9.44996
     2006.48597         9.80609         9.38496
     2006.48871         4.75158         9.41368
     2006.49144         9.02206         9.30787
     2006.49418        -1.97845         9.22776
     2006.49692         4.70004         9.21416
     2006.49966        -2.31448         9.22021
     2006.50240         8.98101         9.47112
     2006.50513         9.84750         9.39705
     2006.50787        -1.90602         9.28218
     2006.51061        -0.02453         9.26102
     2006.51335        -2.44004         9.33961
     2006.51608         7.79044         9.39554
     2006.51882        10.13993         9.68122
     2006.52156         3.39742         9.37136
     2006.52430         7.67990         9.12196
     2006.52704        12.17339         9.46658
     2006.52977         4.48988         9.15521
     2006.53251        12.63936         9.33810
     2006.53525        10.50985         9.53762
     2006.53799         7.50134         9.24892
     2006.54073        12.10682         9.19300
     2006.54346         8.31231         8.94965
     2006.54620         6.70280         9.10684
     2006.54894         2.30828         9.01162
     2006.55168         3.81077         9.11440
     2006.55441         5.42526         9.05394
     2006.55715         1.40375         9.20056
     2006.55989         7.46423         9.07208
     2006.56263        11.50372         9.21567
     2006.56537         6.07321         9.03731
     2006.56810         8.27369         8.94965
     2006.57084         7.58418         8.80152
     2006.57358         8.15767         8.90279
     2006.57632        10.40615         8.91186
     2006.57906        10.69264         8.93000
     2006.58179         7.58713         8.95267
     2006.58453         5.60161         8.97383
     2006.58727        11.41110         9.01615
     2006.59001        11.31459         9.35624
     2006.59274        12.82107         9.32299
     2006.59548         8.94656         9.21718
     2006.59822         4.01505         9.21869
     2006.60096         7.94653         9.21265
     2006.60370        11.54602         8.84233
     2006.60643         8.29751         8.86500
     2006.60917        10.87499         8.84837
     2006.61191         6.82348         8.89674
     2006.61465        12.93397         9.00557
     2006.61739        13.08545         9.22474
     2006.62012         8.50594         9.05545
     2006.62286         7.03643         8.89825
     2006.62560         8.46291         8.86198
     2006.62834        10.62940         9.06603
     2006.63107        10.05889         8.93302
     2006.63381        15.95037         8.86500
     2006.63655        10.43086         9.05696
     2006.63929        15.69635         8.98139
     2006.64203        15.71884         8.93604
     2006.64476         9.85132         9.18695
     2006.64750        16.05581         9.15068
     2006.65024        18.41630         9.33508
     2006.65298        14.69778         9.42728
     2006.65572        12.15627         9.51495
     2006.65845        16.35376         9.48472
     2006.66119        18.18424         9.34113
     2006.66393        18.47273         9.53158
     2006.66667        14.98222         9.32752
     2006.66940        15.47470         9.49983
     2006.67214        23.81419         9.70087
     2006.67488         8.59668         9.71749
     2006.67762        11.13216         9.62982
     2006.68036        11.03665         9.36078
     2006.68309        20.39614         9.81725
     2006.68583         7.75362        10.12711
     2006.68857        24.38811         9.26857
     2006.69155        19.32929        11.01286
     2006.69405        20.86608         9.48472
     2006.69678        13.50257         9.23532
     2006.69952        22.21406         9.47414
     2006.70226        22.85054         9.54669
     2006.70500        15.86203         9.30636
     2006.70773        16.41852         8.98290
     2006.71047        17.44700         9.19753
     2006.71321        20.90449         8.96023
     2006.71595        15.04098         9.03429
     2006.71869        17.14646         8.97232
     2006.72142        19.59895         9.54518
     2006.72416        18.92944         9.42879
     2006.72690        18.70793         9.13405
     2006.72964        15.53741         9.10987
     2006.73238        11.52790         9.10533
     2006.73511        16.26039         9.09475
     2006.73785         8.53487         9.17939
     2006.74059        14.94436         8.88012
     2006.74333        19.40685         9.40914
     2006.74606        19.91333         9.38647
     2006.74880        10.76982         9.00557
     2006.75154        12.06131         9.27613
     2006.75428         7.99579         9.29276
     2006.75702        15.99828         8.92546
     2006.75975        11.77077         9.19602
     2006.76249        17.87125         9.23834
     2006.76523        13.79074         9.39554
     2006.76797        12.83823         9.11591
     2006.77070        13.78471         8.99197
     2006.77344         5.74620         8.98441
     2006.77618        15.99169         9.03731
     2006.77892        18.41817         9.16881
     2006.78166        17.50066         8.91790
     2006.78439        17.48315         8.90581
     2006.78737        16.50232        10.69997
     2006.78987        21.52512         8.87105
     2006.79261        16.03661         8.78943
     2006.79535        12.14709         9.08417
     2006.79808        12.95158         9.13556
     2006.80082        11.11807         9.17184
     2006.80356        11.62555         8.78489
     2006.80630        11.67104         8.87256
     2006.80903        15.81853         8.90732
     2006.81177        12.85502         9.25950
     2006.81451        10.00950         9.12045
     2006.81725        15.16999         9.06905
     2006.81999        13.95548         8.94360
     2006.82272        21.53096         8.92848
     2006.82546         9.79845         8.84233
     2006.82820        13.15994         8.72594
     2006.83094        14.85342         8.72745
     2006.83368        12.22191         8.66548
     2006.83641        12.16640         8.85442
     2006.83915        14.64188         8.82721
     2006.84189        11.83637         9.23834
     2006.84463        11.75686         8.74861
     2006.84736        -1.82266         9.44089
     2006.85010        19.90283         9.12498
     2006.85284        15.90532         9.15521
     2006.85558        15.12380         9.14463
     2006.85832        13.46229         9.10835
     2006.86105        15.42778         9.16126
     2006.86412         4.75184        11.87744
     2006.86653        11.26575         9.69935
     2006.86927        15.13424         8.69118
     2006.87201        13.98072         8.65037
     2006.87474        11.05321         8.61711
     2006.87748        15.21170         8.83779
     2006.88022         7.71418         8.88919
     2006.88296        15.90067         9.07964
     2006.88569         9.00716         8.83477
     2006.88843        11.52664         8.77885
     2006.89117         7.42013         8.74559
     2006.89391       -11.01838        10.16036
     2006.89665         1.49911         9.01011
     2006.89938         4.14459         8.62014
     2006.90212         5.06408         8.67002
     2006.90486         9.35657         8.75768
     2006.90760        10.85005         8.57630
     2006.91034         8.61454         8.56119
     2006.91307        -3.87897         8.67909
     2006.91581         4.18451         8.75920
     2006.91855         3.29500         8.73652
     2006.92129         3.07749         8.85744
     2006.92402        -0.38803         8.85593
     2006.92676         5.66346         8.76222
     2006.92950         8.70295         8.94058
     2006.93224        13.20843         8.87256
     2006.93498        10.20192         9.04941
     2006.93771         4.33541         8.93302
     2006.94045         7.43589         8.87256
     2006.94319        11.47938         9.00255
     2006.94593         6.99887         8.95569
     2006.94867        10.58335         8.83175
     2006.95140        17.34284         8.89674
     2006.95414       -26.60467        10.91310
     2006.95688        11.66881         8.73501
     2006.95962        25.51630         8.62316
     2006.96235        19.68979         8.88465
     2006.96509         9.64027         9.09475
     2006.96783        13.92276         8.85895
     2006.97057         7.21825         8.80152
     2006.97331       -15.95826         8.97534
     2006.97604         7.18922         8.76071
     2006.97878         7.14071         8.81966
     2006.98152         7.02020         8.87256
     2006.98426         5.20868         8.71687
     2006.98700         3.41117         8.96476
     2006.98973        -3.37934         8.99650
     2006.99247        -7.40686         9.27613
     2006.99521         2.63763         9.01917
     2006.99795         2.27712         8.96627
     2007.00342        -1.65191         9.20811
     2007.00616         0.30858         8.92697
     2007.00890         4.08606         9.27160
     2007.01164         0.11555         8.98139
     2007.01437         2.67204         8.96325
     2007.01711        -4.74348         8.82872
     2007.01985        -9.44799         9.48170
     2007.02259        -1.99150         8.86349
     2007.02533       -11.87302         8.88012
     2007.02806       -20.88453         8.80605
     2007.03080       -15.80204         8.59746
     2007.03354        -6.04556         8.40399
     2007.03628        -6.25407         8.33900
     2007.03901        -3.89958         8.51282
     2007.04175        -6.96410         9.10533
     2007.04449        -4.99561         8.56875
     2007.04723        -4.62712         8.74257
     2007.04997        -2.03464         8.68060
     2007.05270        -2.06715         8.67002
     2007.05544        -0.05466         8.48259
     2007.05818        -3.96517         8.68513
     2007.06092         3.65731         8.60502
     2007.06366        -4.25920         8.76222
     2007.06639        -4.75271         9.00104
     2007.06913        -5.78423         8.43876
     2007.07187        -1.93174         8.51735
     2007.07461        -8.38225         8.54456
     2007.07734        -7.63077         8.63223
     2007.08008        -3.34728         8.49619
     2007.08282         3.27921         8.55514
     2007.08556        -3.08831         8.64432
     2007.08830        -1.59282         8.65490
     2007.09103        -0.15533         8.78943
     2007.09377         1.59415         8.68060
     2007.09651        -1.50736         8.60200
     2007.09925        -1.78387         8.64432
     2007.10198        -1.43939         8.51584
     2007.10472        -3.86090         9.00859
     2007.10746        -5.42141         8.88314
     2007.11020        -4.17493         8.75920
     2007.11294         1.28056         8.69269
     2007.11567        -3.45695         8.56270
     2007.11841         0.27053         8.52793
     2007.12115        -4.24298         8.67002
     2007.12389         2.12551         8.69571
     2007.12663         7.44199         8.72897
     2007.12936         3.99148         8.92395
     2007.13210         4.03697         8.66850
     2007.13484         5.78045         8.55968
     2007.13758        28.76194         9.89283
     2007.14031        -9.52057         9.45298
     2007.14305         2.48792         8.66246
     2007.14579         3.24440         8.82872
     2007.14853         4.22689         9.22172
     2007.15127         0.24838         8.68060
     2007.15400         4.99986         8.68967
     2007.15674        10.45935         8.59142
     2007.15948         6.02784         8.54758
     2007.16222        -2.32568         8.86047
     2007.16495         1.84882         9.01313
     2007.16769        -1.33970         8.95720
     2007.17043         3.36079         8.82419
     2007.17316         6.17628         8.79094
     2007.17590        -3.04424         8.89221
     2007.17864         5.14625         8.93906
     2007.18138         3.32874         8.91035
     2007.18412         2.61222         8.90883
     2007.18685         3.05271         8.79396
     2007.18959         0.43020         8.73501
     2007.19233        -3.07932         8.93302
     2007.19507        -5.72883         8.70478
     2007.19780        -8.53834         8.63072
     2007.20054        -7.22686         8.70176
     2007.20328        -3.88437         8.66850
     2007.20602        -0.81188         8.66548
     2007.20876        -9.05240         8.61409
     2007.21149        -5.89591         8.75466
     2007.21423        -8.04542         8.62618
     2007.21697        -2.05694         8.65944
     2007.21971        -2.00545         8.69420
     2007.22245         0.38904         8.65944
     2007.22518        -6.50148         8.73048
     2007.22792         3.48701         8.80152
     2007.23066        -2.35950         8.70932
     2007.23340        -0.39102         8.86198
     2007.23613        -6.87553         8.68967
     2007.23887        -5.74104         8.82872
     2007.24161        -4.40255         8.60200
     2007.24435        -5.42307         8.60351
     2007.24709        -2.16158         8.58839
     2007.24982        -0.36809         8.58386
     2007.25256        -9.51461         8.61560
     2007.25530        -3.61112         8.74257
     2007.25804        -4.77763         8.85442
     2007.26078       -11.64915         8.88919
     2007.26351         5.08934         8.71083
     2007.26625         4.35683         8.69571
     2007.26899         5.87731         8.56119
     2007.27173         3.57080         8.76071
     2007.27446         4.54529         8.66095
     2007.27720         5.78477         8.60351
     2007.27994         5.59526         8.61107
     2007.28268         6.52175         8.95569
     2007.28542         2.19823         8.67455
     2007.28815         3.68272         8.54305
     2007.29089         5.06621         8.57630
     2007.29363         0.48569         8.58084
     2007.29637        -6.06682         8.73803
     2007.29911         2.75867         8.64583
     2007.30184         1.13215         8.62014
     2007.30458         5.38064         8.67002
     2007.30732         5.35613         8.92093
     2007.31006         2.48961         9.03882
     2007.31279         5.55510         8.74257
     2007.31553         0.89259         8.75315
     2007.31827         2.80407         8.76675
     2007.32101         0.15156         8.73955
     2007.32375        -4.30795         8.66548
     2007.32648        -0.82946         8.66397
     2007.32922        -4.68998         8.75617
     2007.33196         0.34851         8.90128
     2007.33470        -1.26700         8.90732
     2007.33744        -5.82852         8.64130
     2007.34017        -6.35103         8.88465
     2007.34291        -1.57654         8.88314
     2007.34565        -5.58106         8.74559
     2007.34839         1.79443         8.84233
     2007.35112        -5.03508         8.75013
     2007.35386        -7.13460         9.31694
     2007.35660        -7.04711         9.18091
     2007.35934        -4.77862         8.72897
     2007.36208        -4.41314         8.71838
     2007.36481        -6.01665         8.89523
     2007.36755        -4.46616         8.84989
     2007.37029        -2.26968         9.00255
     2007.37303        -5.25719         9.04336
     2007.37577        -3.23570         9.09173
     2007.37850         0.48478         8.87860
     2007.38124        -6.33373         8.86198
     2007.38398         4.74876         8.91639
     2007.38672         3.19524         8.85593
     2007.38945        -2.30227         8.86047
     2007.39219        -1.69478         9.17335
     2007.39493        -3.45730         8.92244
     2007.39767        -7.45581         8.75315
     2007.40041        -3.65832         8.80152
     2007.40314        -0.23783         8.92093
     2007.40588        -6.87835         8.86954
     2007.40862       -11.56386         9.37589
     2007.41136        -9.90037         8.96778
     2007.41410        -0.85589         8.95116
     2007.41683        -4.20940         8.97232
     2007.41957        -0.20991         8.84535
     2007.42231         6.31957         9.03580
     2007.42505        -2.98894         9.26706
     2007.42778         5.97455         8.78791
     2007.43052        10.02203         8.89977
     2007.43326         6.19652         8.84989
     2007.43600         8.20401         8.94662
     2007.43874         0.41449         8.98894
     2007.44147        -7.01602         8.83931
     2007.44421         5.70547         8.85593
     2007.44695        -2.80905         8.89372
     2007.44969        -7.43656         8.84837
     2007.45243        -1.94107         8.99348
     2007.45516        -6.56959         8.85593
     2007.45790         0.74690         8.90883
     2007.46064         1.59839         8.88314
     2007.46338         6.36287         9.03429
     2007.46611        -1.39764         8.97081
     2007.46885         1.87285         8.94813
     2007.47159         3.37233         8.87709
     2007.47433         1.50182         8.89825
     2007.47707        -4.31769         9.17335
     2007.47980        -4.72221         9.12196
     2007.48254       -12.80672         9.02673
     2007.48511        -6.90701         9.47565
     2007.48802       -11.02274         8.83628
     2007.49076        -8.51726         9.00708
     2007.49349        -4.69477         8.88465
     2007.49623        -1.09528         8.91035
     2007.49897        -4.86180         8.99499
     2007.50171        -1.46431         8.80303
     2007.50444        -2.68782         8.97383
     2007.50718         0.42766         8.87256
     2007.50992         0.16915         8.99953
     2007.51266        -4.36736         8.78489
     2007.51540        -7.70688         8.96325
     2007.51813        -1.12639         8.85442
     2007.52087        -1.09590         8.88012
     2007.52361        -3.63442         9.03580
     2007.52635         0.62907         8.96174
     2007.52908         2.11656         9.15370
     2007.53182        10.09204         9.07510
     2007.53456        -4.03447         9.16277
     2007.53730         2.16202         8.98592
     2007.54004         2.51250         9.02824
     2007.54277        -1.88401         8.97534
     2007.54551         3.29848         8.85291
     2007.54825        -2.94504         8.87860
     2007.55099         8.80545         8.98592
     2007.55373         2.24694         9.13405
     2007.55646         0.12142         8.90279
     2007.55920         3.57391         8.82570
     2007.56194         9.19440         8.82268
     2007.56468        -0.44912         9.07964
     2007.56741        -4.50763         9.09475
     2007.57015        10.25086         8.96778
     2007.57289         8.73635         8.97232
     2007.57563         5.62383         8.89674
     2007.57837        -3.62768         8.90732
     2007.58110         7.94081         9.06905
     2007.58384         5.35229         9.14010
     2007.58658         3.85078         8.89825
     2007.58932         5.07227         8.81512
     2007.59206         1.98075         8.86198
     2007.59479         5.42224         9.11289
     2007.59753         4.29273         9.25346
     2007.60027         3.41721         9.01313
     2007.60301         9.82970         8.88616
     2007.60574         8.96719         8.79094
     2007.60848        11.63367         8.77885
     2007.61122        10.10616         8.91790
     2007.61396         0.09765         8.84082
     2007.61670         0.29713         9.68424
     2007.61943         7.28962         9.61169
     2007.62217        12.81611         9.44391
     2007.62491         7.57459         9.46054
     2007.62765        14.36608         9.72203
     2007.63039        14.35557         9.36833
     2007.63312         3.65205         9.03429
     2007.63586         3.38554         9.21416
     2007.63860         9.76703         9.25799
     2007.64134         8.92351         9.08568
     2007.64407         9.09300         9.50286
     2007.64681         7.45549         9.22776
     2007.64955        15.83597         9.38798
     2007.65229        14.15846         9.39252
     2007.65503        12.69195         9.26102
     2007.65776        14.71644         9.32450
     2007.66050         7.32092         9.52704
     2007.66324        10.77641         9.34566
     2007.66598         9.64290         9.35926
     2007.66872        21.57538         9.37589
     2007.67145         5.26987         9.45298
     2007.67419         3.49336         9.14312
     2007.67693         7.16784         9.49832
     2007.67967        10.82033         9.14010
     2007.68240        18.01782         9.23230
     2007.68514        13.49430         9.53309
     2007.68788         8.69779         9.36682
     2007.69062         9.64028         9.26253
     2007.69336        10.72576         9.30485
     2007.69609        18.07925         9.39101
     2007.69883         9.90074         9.46205
     2007.70157        10.85722         9.31090
     2007.70431         9.75471         9.59808
     2007.70705        19.18020         9.68122
     2007.70978        12.98668         9.20207
     2007.71252         8.65317         9.22172
     2007.71526        10.43866         8.96930
     2007.71800        11.96014         9.13254
     2007.72073        15.77363         9.23532
     2007.72347        18.71312         8.89372
     2007.72621        16.14960         8.86651
     2007.72895        14.43809         8.96174
     2007.73169        11.23258         9.07057
     2007.73442         9.52006         8.98139
     2007.73716        12.00755         9.29880
     2007.73990        18.61004         9.00557
     2007.74264        20.16553         8.86198
     2007.74563         6.56868        11.08994
     2007.74811         5.28050         9.15975
     2007.75085         8.11499         9.77795
     2007.75359        12.59247         9.16579
     2007.75633        14.86196         9.01313
     2007.75906        15.55545         8.94360
     2007.76180        11.62593         8.99953
     2007.76454         4.15842         9.19602
     2007.76728        15.35291         9.48774
     2007.77002        19.07939         9.76586
     2007.77275        17.20588         9.39101
     2007.77549         7.20637         8.99348
     2007.77823        10.80885         9.02069
     2007.78097        10.68634         8.89825
     2007.78371         8.52183         8.98592
     2007.78644        14.52731         8.85140
     2007.78918        11.77880         9.02522
     2007.79192        17.61229         9.09324
     2007.79466        13.52677         9.20207
     2007.79739        17.55626         8.79245
     2007.80013        19.26575         8.95720
     2007.80287        16.75123         8.94511
     2007.80561        20.84272         9.30485
     2007.80835        15.03521         9.10835
     2007.81108        10.35369         9.61471
     2007.81382        10.80618         8.95720
     2007.81656         4.72767         9.29880
     2007.81930        12.08416         9.02371
     2007.82203         7.46264         9.05243
     2007.82477         8.68613         9.05545
     2007.82751         6.63562         8.99348
     2007.83025         5.99110         9.25195
     2007.83299         9.67959         8.77280
     2007.83572         6.38908         8.71083
     2007.83846        12.32256         8.81512
     2007.84120        12.80405         8.79547
     2007.84394         2.98654         8.86047
     2007.84668         6.44402         8.71687
     2007.84941        -0.60449         8.74257
     2007.85215         5.19600         8.91790
     2007.85489         9.82548         9.74923
     2007.85763        12.41397         8.94662
     2007.86036         6.07746         8.80152
     2007.86310         9.22594         8.78036
     2007.86584         3.81943         8.72443
     2007.86858         2.41692         8.72141
     2007.87132        12.57540         8.78187
     2007.87405        11.96089         8.93906
     2007.87679        11.03338         8.82419
     2007.87953         1.61086         8.77431
     2007.88227         1.50035         8.75013
     2007.88501         5.22884         8.74861
     2007.88774        -1.43568         8.90128
     2007.89048        -3.17819         8.72443
     2007.89322        -0.89370         8.90430
     2007.89596         4.01878         9.04487
     2007.89869         3.15727         8.65792
     2007.90143         7.76476         8.93906
     2007.90417        -3.38275         9.21718
     2007.90691         2.55973         8.90883
     2007.90965        -0.59678         8.74106
     2007.91238         2.86771         8.68664
     2007.91512         8.17919         8.74408
     2007.91786         9.61368         8.68362
     2007.92060        -4.50483         9.11893
     2007.92334         1.68065         8.94662
     2007.92607         4.60714         8.74559
     2007.92881         4.72463         8.80001
     2007.93155        -0.22689         8.71687
     2007.93429         1.88360         8.86047
     2007.93702        -4.17791         8.73652
     2007.93976         1.78157         8.83024
     2007.94250        10.07906         9.08870
     2007.94524         5.77355         8.96778
     2007.94798        -1.51397         8.95267
     2007.95071         7.99052         9.06452
     2007.95345         5.65801         9.03278
     2007.95619        14.29349         9.10382
     2007.95893        31.08298         9.48623
     2007.96167        11.86547         9.52855
     2007.96440         7.36395         9.06754
     2007.96714         4.08944         9.10987
     2007.96988        -4.53407         8.87558
     2007.97262         5.00741         9.10987
     2007.97535         1.73390         9.08266
     2007.97809         4.10439         8.97383
     2007.98083        -6.13413         9.21718
     2007.98357         2.28236         8.98290
     2007.98631         7.50185         9.18695
     2007.98904         8.37334         9.53309
     2007.99178         1.47182         8.98743
     2008.00273         0.64577         9.55274
     2008.00547         7.33226         8.81663
     2008.00821         5.67674         8.81059
     2008.01095         6.39223         8.71385
     2008.01368        12.80872         8.67757
     2008.01642         4.64220         8.58537
     2008.01916         1.81769         8.84233
     2008.02190        -6.91782         9.36833
     2008.02464        -2.58034         9.28520
     2008.02737         2.48815         8.64130
     2008.03011         2.53064         8.75617
     2008.03285        -3.12788         8.77129
     2008.03559        -1.28739         9.37740
     2008.03833       -14.23490         8.73955
     2008.04106        -9.36942         8.81966
     2008.04380        -9.44393         8.84837
     2008.04654        -9.86044         8.92244
     2008.04928       -12.27096         8.80908
     2008.05201        -8.37647         8.79547
     2008.05475        -8.48698         8.92395
     2008.05749        -4.95350         8.65339
     2008.06023        -3.31801         8.55968
     2008.06297         4.38048         8.66699
     2008.06570         5.12696         8.73501
     2008.06844        11.54645         8.72443
     2008.07118        13.50294         8.64281
     2008.07392        10.53843         8.55061
     2008.07666         8.08991         9.05696
     2008.07939         9.23140         9.01313
     2008.08487         4.09837         8.74257
     2008.08761         3.64486         8.65339
     2008.09034         5.37835         8.53549
     2008.09308         3.58883         8.52793
     2008.09582        14.48032         9.09777
     2008.09856        -1.44919         9.16277
     2008.10130         4.71029         9.59808
     2008.10403         7.87378         8.66397
     2008.10677         8.83127         8.71536
     2008.10951         0.02775         8.70478
     2008.11225         4.21724         8.64734
     2008.11498         2.26773         8.86651
     2008.11772         2.29421         8.76222
     2008.12046        -0.96030         8.56572
     2008.12320        -0.35481         8.91639
     2008.12594        -5.67233         8.68513
     2008.12867        -2.13284         8.65944
     2008.13141         1.25265         8.93604
     2008.13415         6.45813         8.69722
     2008.13689        -1.78438         8.67757
     2008.13963         3.28011         8.63979
     2008.14236        -2.35741         8.69874
     2008.14510         2.22108         8.69874
     2008.14784        -0.62243         8.67002
     2008.15058        -1.18995         8.68060
     2008.15331        -4.16246         8.75013
     2008.15605        -2.93797         8.60804
     2008.15879        -8.48948         8.50828
     2008.16153         1.10900         8.91337
     2008.16427        -0.26751         8.81512
     2008.16700        -5.21002         8.50980
     2008.16974        -5.85354         8.59444
     2008.17248       -11.05105         8.54003
     2008.17522       -11.23556         8.78791
     2008.17796        -6.02108         8.69118
     2008.18069        -4.86559         8.63374
     2008.18343        -2.28310         8.63223
     2008.18617        -4.38862         8.75768
     2008.18891        -1.06713         8.79698
     2008.19164        -0.77664         8.88767
     2008.19438       -10.00816         8.63525
     2008.19712        -2.97467         8.64281
     2008.19986        -2.51618         8.62769
     2008.20260        -2.88670         8.63072
     2008.20533         1.12279         8.51887
     2008.20807        -1.50172         9.03580
     2008.21081        -4.51624         8.93302
     2008.21355        -4.50975         8.70780
     2008.21629        -7.45526         8.73048
     2008.21902        -5.29678         8.74257
     2008.22176       -12.63329         8.78943
     2008.22450        -7.64880         8.70629
     2008.22724        19.34768         8.99197
     2008.22997        -6.97083         9.19300
     2008.23271         1.57666         8.87558
     2008.23545        -7.34385         8.77280
     2008.23819        -4.24537         8.58235
     2008.24093        -5.63588         8.62316
     2008.24366        -8.18239         8.93000
     2008.24640        -4.16991         8.61863
     2008.24914        -4.75642         8.63979
     2008.25188        -2.25193         8.78036
     2008.25462        -0.95945         8.61560
     2008.25735         0.52604         8.74559
     2008.26009        -0.29847         8.68967
     2008.26283         0.95501         8.66397
     2008.26557        -4.97250         8.69269
     2008.26830        -2.35301         8.63525
     2008.27104        -2.38653         8.65944
     2008.27378        -5.51504         8.71234
     2008.27652        -3.87555         8.65792
     2008.27926         4.62993         8.96325
     2008.28199         1.78042         8.76373
     2008.28473         1.99991         8.60653
     2008.28747        -0.45861         8.72745
     2008.29021         0.59288         8.86651
     2008.29295         7.07037         8.84384
     2008.29568        -5.61215         8.75315
     2008.29842        -2.87266         8.68664
     2008.30116        -2.32117         8.57781
     2008.30390        -0.49569         8.70780
     2008.30663        -1.42520         8.66850
     2008.30937        -0.72771         8.70176
     2008.31211        -4.34223         8.78489
     2008.31485        -2.79074         8.70176
     2008.31759        -0.72925         8.86651
     2008.32032        -8.03476         8.76524
     2008.32306         3.73672         8.85895
     2008.32580        -3.42979         8.88465
     2008.32854         0.32270         8.49922
     2008.33128         1.73418         8.54305
     2008.33401         1.28467         8.66699
     2008.33675        -2.70184         8.60049
     2008.33949        -0.99036         8.58386
     2008.34223         0.17713         8.71385
     2008.34496        -2.29438         8.53852
     2008.34770        -0.73390         8.59595
     2008.35044        -6.10341         8.55363
     2008.35318        -0.26792         8.42817
     2008.35592        -0.92744         8.54305
     2008.35865        -0.86895         8.55514
     2008.36139         1.60654         8.61409
     2008.36413         0.18102         8.58386
     2008.36687        -4.14849         8.65490
     2008.36961        -6.80700         8.72594
     2008.37234        -8.89152         8.62769
     2008.37508         1.53097         8.81059
     2008.37782        -4.59854         8.84384
     2008.38056         2.76594         8.85895
     2008.38329         7.45243         8.66095
     2008.38603         3.51692         8.60200
     2008.38877         7.53240         8.67909
     2008.39151        -1.87911         8.90430
     2008.39425         3.64538         8.60956
     2008.39698         8.46686         8.73803
     2008.39972         4.90235         8.81663
     2008.40246         5.30284         8.66397
     2008.40520         3.12633         8.74257
     2008.40794         2.19581         8.72443
     2008.41067         5.88530         8.94058
     2008.41341        -0.07621         8.75617
     2008.41615         3.46627         8.84535
     2008.41889         5.44476         8.75768
     2008.42162        -0.14975         8.65490
     2008.42436         3.32073         8.78791
     2008.42710         7.36922         8.73199
     2008.42984         4.55371         8.89070
     2008.43258        -1.34981         8.89977
     2008.43531        -0.70432         8.83477
     2008.43805         1.40717         8.93302
     2008.44079         4.78265         8.81059
     2008.44353        -0.30986         8.82872
     2008.44626        -3.39437         8.72594
     2008.44900        -1.36689         8.84686
     2008.45174         0.34060         8.86047
     2008.45448         1.21709         8.85140
     2008.45722         3.45557         8.74861
     2008.45995        -1.57194         8.65188
     2008.46269        -0.62745         8.75617
     2008.46543         1.47603         8.63374
     2008.46817        -1.02948         8.74106
     2008.47091         0.53101         8.78943
     2008.47364         2.06749         8.70327
     2008.47638         3.27098         8.66699
     2008.47912        -5.35253         8.72292
     2008.48186         0.52595         8.80454
     2008.48459         1.92144         9.12045
     2008.48733         2.32593         8.85593
     2008.49007        -6.65558         8.80001
     2008.49281        -7.24110         8.77129
     2008.49555        -9.36661         8.91035
     2008.49828         3.28988         9.20811
     2008.50102        -1.41864         9.44240
     2008.50376         1.88185         9.08568
     2008.50650        -3.69366         8.93755
     2008.50924        -6.93118         8.89977
     2008.51197         9.89731         8.92093
     2008.51471        -0.18620         8.78187
     2008.51745        -0.53172         9.01162
     2008.52019         6.58677         8.90430
     2008.52292         3.60826         9.10533
     2008.52566         3.93674         9.04034
     2008.52840         2.18123         8.84837
     2008.53114         8.35972         8.89674
     2008.53388        12.79720         8.80908
     2008.53661         1.64369         8.83024
     2008.53935        10.79418         8.66699
     2008.54209         3.84066         8.82117
     2008.54483         8.65115         9.04034
     2008.54757         6.85364         9.04185
     2008.55030         2.15612         8.79245
     2008.55304         6.70861         9.02371
     2008.55578         5.93310         8.63072
     2008.55852         9.01958         8.90732
     2008.56125         8.15307         8.77885
     2008.56399        13.04056         8.89674
     2008.56673         5.10404         8.88616
     2008.56947        15.97053         8.71385
     2008.57221         8.06802         9.06754
     2008.57494        12.89451         8.87709
     2008.57768        19.56899         9.17184
     2008.58042        16.26148         8.80152
     2008.58316        18.38297         8.70025
     2008.58590        12.94345         8.55816
     2008.58863        13.25894         8.91790
     2008.59137        11.27443         8.57177
     2008.59411        11.72891         8.83024
     2008.59685         9.00640         8.89523
     2008.59958         7.07889         9.50286
     2008.60232        17.14937         9.20207
     2008.60506        19.81586         8.95267
     2008.60780        19.00235         8.88012
     2008.61054        12.88083         8.91337
     2008.61327        16.78432         9.10080
     2008.61601        14.08381         8.83477
     2008.61875        12.03829         8.82721
     2008.62149        15.11278         8.79396
     2008.62423        10.35627         8.76373
     2008.62696        11.88775         9.09475
     2008.62970        10.59124         9.09777
     2008.63244        14.24673         9.01011
     2008.63518        19.18821         9.07359
     2008.63791        18.00370         8.93906
     2008.64065        14.66019         8.91639
     2008.64339        16.24267         8.77582
     2008.64613        29.73016         9.36985
     2008.64887        11.29065         8.95267
     2008.65160        14.24513         8.80908
     2008.65434        10.81162         9.02673
     2008.65708        17.09411         9.38647
     2008.65982        19.53260         9.26706
     2008.66256        13.00908         8.96778
     2008.66529        13.03857         8.86198
     2008.66803        10.45806         8.85744
     2008.67067         4.86966         9.40008
     2008.67351         6.00903         8.95569
     2008.67624         6.80252         9.75830
     2008.67898        12.77600         9.11591
     2008.68172        16.45449         8.90279
     2008.68446        11.11598         8.88465
     2008.68720        11.70346         9.04034
     2008.68993        11.42495         8.98894
     2008.69267         9.10944         9.17939
     2008.69541        22.07192         9.08115
     2008.69815        20.06141         9.42728
     2008.70089        16.01590         8.95569
     2008.70362        13.71438         8.80303
     2008.70636        14.50087         8.88616
     2008.70910        13.05536         9.15823
     2008.71184         9.49084         9.28369
     2008.71457        11.75433         8.83779
     2008.71731        12.62282         8.91337
     2008.72005        11.60030         8.98139
     2008.72279        21.64279         8.89372
     2008.72553        19.58328         9.15521
     2008.72826        11.31276         8.83024
     2008.73100        15.05925         8.86954
     2008.73374         9.50874         9.01464
     2008.73648        16.86823         8.87256
     2008.73921        16.76671         8.83477
     2008.74469        11.82669         8.77885
     2008.74743        16.93317         8.91035
     2008.75017        26.64266         8.85895
     2008.75290        13.56115         9.24288
     2008.75564        22.94363         8.95267
     2008.75838        15.30312         8.92697
     2008.76112        16.47661         8.83175
     2008.76386         3.86709         8.90732
     2008.76659        21.68558         9.12649
     2008.76933        14.33907         8.98592
     2008.77207        10.33855         8.67304
     2008.77481         7.66504         8.72141
     2008.77754         9.69853         8.69420
     2008.78028        11.16301         8.77582
     2008.78302        11.50750         8.95418
     2008.78576         7.57199         8.87407
     2008.78850         8.49247         9.04638
     2008.79123        12.21996         8.84837
     2008.79397         5.91545         8.98290
     2008.79671        11.51893         8.64281
     2008.79945         5.28642         8.67002
     2008.80219        17.34991         8.82872
     2008.80492        11.55739         8.58386
     2008.80766        14.47288         8.95418
     2008.81040        13.53737         8.96627
     2008.81314         9.37685         8.79094
     2008.81587         7.94634         8.74106
     2008.81861         6.34483         8.81512
     2008.82135         7.89232         8.81210
     2008.82409        17.40980         8.87256
     2008.82683         9.28429         8.91186
     2008.82956        12.32778         8.86954
     2008.83230         5.78026         8.79396
     2008.83504        11.26375         8.95871
     2008.83778        15.86024         8.60200
     2008.84052        14.05272         8.75617
     2008.84325        15.37921         8.67757
     2008.84599        15.35570         8.68211
     2008.84873         9.13018         8.71083
     2008.85147         9.05067         8.75920
     2008.85420         8.75416         9.05696
     2008.85694        12.92764         8.70025
     2008.85968        19.55713         8.81361
     2008.86242        10.66962         8.72594
     2008.86516        14.44710         8.90732
     2008.86789         3.11559         9.03731
     2008.87063         5.37808         8.94360
     2008.87337         6.87456         8.77733
     2008.87611        10.37405         8.69571
     2008.87885        17.13254         9.07057
     2008.88158         7.34302         8.59898
     2008.88432         4.92551         8.64734
     2008.88706         8.06200         8.93453
     2008.88980         4.24748         8.94965
     2008.89253         9.82397         8.63827
     2008.89527         7.46346         8.75920
     2008.89801        12.08194         9.00859
     2008.90075         9.71943         8.67455
     2008.90349         1.09392         8.55816
     2008.90622         6.35641         8.55816
     2008.90896        12.99589         8.68211
     2008.91170         4.96238         8.83779
     2008.91444        12.26487         8.93302
     2008.91718         9.33835         8.71083
     2008.91991         9.66784         8.70025
     2008.92265         2.49833         8.74257
     2008.92539         0.75381         8.86198
     2008.92813         5.07730         8.89977
     2008.93086         5.68079         8.81059
     2008.93360         8.73327         8.88767
     2008.93634         3.55976         8.80908
     2008.93908         8.86125         8.73955
     2008.94182         1.59973         8.78943
     2008.94455        -5.49078         8.80152
     2008.94729         3.30371         8.84082
     2008.95003         6.67319         8.62467
     2008.95277         2.61668         8.58537
     2008.95551        -0.57483         8.64432
     2008.95824         3.00165         8.63525
     2008.96098         1.35114         8.58839
     2008.96372         0.59663         8.43724
     2008.96646        -5.15289         8.61409
     2008.96919        -9.44340         8.44782
     2008.97193         0.09509         8.49317
     2008.97467        -5.86143         8.47050
     2008.97741        -0.42494         8.39341
     2008.98015         8.07555         8.42666
     2008.98288        17.79803         8.60502
     2008.98562        12.83152         8.55363
     2008.98836        12.72801         8.60653
     2008.99110        12.84950         8.76675
     2008.99931         7.70796         9.33055
     2009.01027        12.37790         8.65792
     2009.01300         5.86738         8.91337
     2009.01574         4.99887         8.59444
     2009.01848         8.40236         8.64583
     2009.02122        11.30584         8.89221
     2009.02396         3.55333         8.96476
     2009.02669        -1.17618         8.62467
     2009.02943       -10.58870         8.67002
     2009.03217        -0.99521         8.69420
     2009.03491        -8.11072         8.50677
     2009.03765        -5.93524         8.56875
     2009.04038        -2.06975         8.51887
     2009.04312        -1.59526         8.57026
     2009.04586        -4.47678         8.43120
     2009.04860        -4.01729         8.53398
     2009.05133        -4.07380         8.66246
     2009.05407        -4.77431         8.53096
     2009.05681        -0.25083         8.47050
     2009.05955         0.90466         8.51735
     2009.06229        -0.49585         8.62316
     2009.06502         0.17763         8.49922
     2009.06776        -1.28288         8.62165
     2009.07050         2.38061         8.52340
     2009.07324       -21.66191         8.84989
     2009.07598         3.64558         8.74257
     2009.07871         3.00807         8.58991
     2009.08145         5.36755         8.74257
     2009.08419         4.08304         8.70327
     2009.08693         5.05453         8.66850
     2009.08966         6.21401         8.63374
     2009.09240         2.57850         8.62467
     2009.09514         1.93499         8.60200
     2009.09788         5.67047         8.75466
     2009.10062         7.07396         8.98743
     2009.10335         1.17045         8.59293
     2009.10609         4.00893         8.57177
     2009.10883         0.37042         8.52491
     2009.11157         0.86691         8.54003
     2009.11431         0.12839         8.88163
     2009.11704        -0.56412         8.77733
     2009.11978        -1.42163         8.47805
     2009.12252        -1.99015         8.38132
     2009.12526        -2.07766         8.41608
     2009.12799        -0.12417         8.43724
     2009.13073        -1.42969         8.61560
     2009.13347        -1.29420         8.49468
     2009.13621        -4.77171         8.49619
     2009.13895        -3.71122         8.57933
     2009.14168        -1.64374         8.65037
     2009.14442        -5.93125         8.59293
     2009.14716        -2.71276         8.75617
     2009.14990         1.17372         8.88012
     2009.15264        -1.67179         8.54758
     2009.15537        -2.88530         8.76978
     2009.15811        -2.50582         8.91942
     2009.16085        -2.68633         8.68060
     2009.16359         2.40816         8.60502
     2009.16632         2.44564         8.65792
     2009.16906        -0.34387         8.77431
     2009.17180        -1.45138         8.70780
     2009.17454        -0.00890         8.66246
     2009.17728         2.26659         8.76675
     2009.18001        -2.09492         8.68967
     2009.18275        -0.51444         8.48864
     2009.18549        -2.93995         8.48108
     2009.18823        -9.68946         8.55816
     2009.19097        -5.87798         8.47503
     2009.19370         0.23351         8.49619
     2009.19644         0.14500         8.67153
     2009.19918         8.45048         8.52793
     2009.20192         5.99997         8.75617
     2009.20465         2.62746         8.75920
     2009.20739        -1.39906         8.65641
     2009.21013        -1.09057         8.56723
     2009.21287        -7.16508         8.84837
     2009.21561         2.89740         8.64432
     2009.21834        -4.20011         8.72745
     2009.22108         4.07138         8.87256
     2009.22382        -1.85613         8.55212
     2009.22656        -0.11065         8.55061
     2009.23053         3.08325        36.55131
     2009.23203       -18.71367         8.73501
     2009.23477       -20.43318         8.75466
     2009.23750       -15.78669         8.67455
     2009.24024       -24.50021         8.73955
     2009.24298       -19.52972         8.58537
     2009.24572       -18.75123         8.80303
     2009.24846       -22.01075         8.58235
     2009.25119       -11.39326         8.94209
     2009.25393       -28.00177         9.05092
     2009.25667       -15.20729         8.81512
     2009.25941       -24.73380         8.78943
     2009.26214       -18.38831         8.81663
     2009.26488       -19.63583         8.75315
     2009.26762       -15.25034         8.84082
     2009.27036       -14.84685         8.74710
     2009.27310       -25.23237         8.73501
     2009.27583       -17.19288         8.72443
     2009.27857       -22.63039         8.73350
     2009.28131       -22.50791         8.78338
     2009.28405       -19.77342         8.78943
     2009.28679       -16.11393         8.79547
     2009.28952       -17.48745         8.86651
     2009.29226       -18.83796         8.78036
     2009.29500       -27.02947         8.81210
     2009.29774       -20.61599         8.73048
     2009.30047       -24.41950         8.81966
     2009.30321       -16.91601         8.93453
     2009.30595       -20.62453         8.87105
     2009.30869       -15.39304         8.79849
     2009.31143       -18.55655         9.01011
     2009.31416       -18.49307         8.95267
     2009.31690       -21.81458         8.84837
     2009.31964       -24.87109         8.98894
     2009.32238       -17.30060         8.81663
     2009.32512       -24.56812         9.05999
     2009.32785       -20.03263         9.10987
     2009.33059       -22.32314         8.85140
     2009.33333       -18.34066         8.82872
     2009.33607       -15.95717         9.07510
     2009.33880       -15.52968         8.83024
     2009.34154       -12.09420         9.06754
     2009.34428       -20.05971         8.94360
     2009.34702       -17.24122         8.74106
     2009.34976       -17.81774         8.91942
     2009.35249       -22.53025         8.86651
     2009.35523       -21.19276         8.87105
     2009.35797       -17.46528         8.92697
     2009.36071       -21.26079         9.02220
     2009.36344       -17.86530         9.01615
     2009.36618       -18.02382         8.74861
     2009.36892       -17.18633         8.93453
     2009.37166       -18.26184         9.05092
     2009.37440       -20.16636         9.11289
     2009.37713       -20.63287         9.05394
     2009.37987       -17.26038         9.28671
     2009.38261       -16.13090         9.02976
     2009.38535       -16.00841         9.07812
     2009.38809       -19.98192         8.98139
     2009.39082       -22.50644         9.09626
     2009.39356       -22.55595         8.94662
     2009.39630       -15.06846         9.04487
     2009.39904       -12.83998         9.06150
     2009.40177       -17.54349         9.15068
     2009.40451       -13.27300         9.21718
     2009.40725        -7.53951         9.17788
     2009.40999       -16.71103         9.44391
     2009.41273       -15.25154         9.08719
     2009.41546       -16.86205         8.98894
     2009.41820       -20.48357         9.09324
     2009.42094       -22.55408         9.13707
     2009.42368       -13.72059         9.16579
     2009.42642       -16.19711         9.02220
     2009.42915       -12.97762         9.29578
     2009.43189       -14.00113         9.11742
     2009.43463       -15.03465         9.03429
     2009.43737       -11.66816         9.10684
     2009.44010       -19.99467         9.09777
     2009.44284       -17.77719         8.94511
     2009.44558       -19.32970         8.91639
     2009.44832       -18.19121         9.00104
     2009.45106       -13.87873         9.08719
     2009.45379       -21.51424         8.96778
     2009.45653       -15.98175         9.03127
     2009.45927       -18.13527         8.83477
     2009.46201       -16.89378         9.06150
     2009.46475       -17.01629         9.43786
     2009.46748       -18.44981         9.23986
     2009.47022        -3.65932         8.89221
     2009.47296       -11.44883         8.96023
     2009.47570       -15.45735         8.95418
     2009.47843       -10.12886         8.88465
     2009.48117        -9.07137         9.08719
     2009.48391        -9.89789         8.97383
     2009.48665       -14.26040         9.21416
     2009.48939       -11.96891         8.98592
     2009.49212       -12.03142         8.99650
     2009.49486        -9.75494         9.09022
     2009.49760       -15.98745         9.09475
     2009.50034       -14.03896         9.09173
     2009.50308       -16.85648         8.82570
     2009.50581        -9.10699         9.12800
     2009.50855       -16.08350         8.90581
     2009.51129       -13.27102         9.07661
     2009.51403        -7.87453         8.90279
     2009.51676       -12.11904         8.98894
     2009.51950       -12.32856         8.96476
     2009.52224       -10.32807         9.02976
     2009.52498        -8.70058         8.99046
     2009.52772       -15.39510         9.05696
     2009.53045       -10.05561         8.95267
     2009.53319       -14.41312         8.99046
     2009.53593       -11.77364         8.93755
     2009.53867       -14.88715         9.02824
     2009.54141        -2.43166         9.13556
     2009.54414        -7.44618         9.16428
     2009.54688        -7.05269         8.94662
     2009.54962       -12.51620         8.95116
     2009.55236        -9.15372         9.16126
     2009.55509       -10.32523         8.99348
     2009.55783        -7.26074         9.01766
     2009.56057        -6.91626         9.25044
     2009.56331       -12.51277         9.15068
     2009.56605       -10.06228         9.32299
     2009.56878       -12.90679         9.19451
     2009.57152       -14.30931         9.12800
     2009.57426       -10.46582         9.21718
     2009.57700         1.13567         9.60715
     2009.57974        11.08015         9.56483
     2009.58247        -2.33436         9.59959
     2009.58521        -3.42487         9.23834
     2009.58795        -3.10939         9.09324
     2009.59069        -6.63190         9.15219
     2009.59342        -6.89941         9.34566
     2009.59616       -10.02393         8.96325
     2009.59890        -3.56244         9.30032
     2009.60164       -19.00195         9.26706
     2009.60438        -7.15847         9.13858
     2009.60711        -5.31798         9.05545
     2009.60985        -6.64849         9.07510
     2009.61259        -9.22801         8.98743
     2009.61533       -12.59952         9.11138
     2009.61807       -10.67203         8.97534
     2009.62080        -3.32755         9.16126
     2009.62354       -10.61206         8.99197
     2009.62628       -13.03657         9.14916
     2009.62902        -0.02109         9.32299
     2009.63175        -5.31860         9.17486
     2009.63449        -4.89111         9.31241
     2009.63723         9.76437         9.41217
     2009.63997        -2.30114         9.04336
     2009.64271        -8.74865         9.14614
     2009.64544        -2.75117         9.28822
     2009.64818        -0.99668         9.27311
     2009.65092        -8.56219         9.10382
     2009.65366        -2.08170         9.12045
     2009.65639       -13.57922         8.96476
     2009.65913        -5.21973         9.02371
     2009.66187        -6.01524         8.98139
     2009.66461        -4.25076         8.92848
     2009.66735       -10.21227         9.04941
     2009.67008        -1.65478         8.93906
     2009.67282        -2.15030         8.99499
     2009.67556        -6.05681         9.06754
     2009.67830        -5.90932         9.54518
     2009.68104        -5.65384         9.25195
     2009.68377       -12.80035         9.02069
     2009.68651         3.26614         8.80303
     2009.68925        -2.41338         9.07964
     2009.69199        -6.47489         8.85291
     2009.69472        -9.55740         9.18393
     2009.69746        -0.94892         8.89674
     2009.70020        -5.90143         9.20056
     2009.70294         0.86406         8.87709
     2009.70568        -3.85146         8.94813
     2009.70841        -7.77797         9.06452
     2009.71115        -8.49448         9.07510
     2009.71389        -4.59700         9.42275
     2009.71663         2.62549         9.03429
     2009.71937        -8.80602         8.99197
     2009.72210       -13.30554         8.84837
     2009.72484        -8.44405         9.05394
     2009.72758        -8.78356         9.07208
     2009.73032        -1.30708         9.07057
     2009.73305        -6.09959         9.18846
     2009.73579         7.99490         9.12952
     2009.73853        -3.39961         8.88465
     2009.74127        -0.39013         9.17184
     2009.74401         1.88936         9.29125
     2009.74674        -1.80615         8.89523
     2009.74948        -6.80867         8.98139
     2009.75222       -10.54018         8.84233
     2009.75496       -12.61069         8.74408
     2009.75770        -8.29821         8.92093
     2009.76043        -4.91772         8.87709
     2009.76317        -4.13623         8.99650
     2009.76591        -1.35675         9.04185
     2009.76865         1.37874         9.17335
     2009.77138        -2.66077         8.93755
     2009.77412        -8.38029         9.04487
     2009.77686         0.22220         9.07964
     2009.77960         1.07369         8.86198
     2009.78234         2.20517         8.72897
     2009.78507         6.10966         9.01162
     2009.78781        -2.56485         9.27915
     2009.79055       -18.89537         9.23986
     2009.79329        -8.30788         9.04638
     2009.79603       -11.56639         9.04789
     2009.79876        -4.93991         9.08719
     2009.80150        -8.40842         9.31997
     2009.80424        -1.73193         9.31241
     2009.80698        -1.09145         9.21114
     2009.80971         1.27304         9.29276
     2009.81245        -2.05147         9.22474
     2009.81519         0.55401         9.11591
     2009.81793        -6.81150         9.67668
     2009.82067        -8.34601         9.21265
     2009.82340        -4.48852         8.99650
     2009.82614        -2.15504         9.07812
     2009.82888         2.42645         9.21416
     2009.83162         5.06294         9.58297
     2009.83436        -9.09958         8.97383
     2009.83709        -5.91609         9.23079
     2009.83983        -2.50760         9.03580
     2009.84257        -2.78512         9.24741
     2009.84531        -2.78163         9.38043
     2009.84804        -3.95914         9.40914
     2009.85078         2.98334         9.12649
     2009.85352        -1.80817         8.91035
     2009.85626        -4.66468         9.17486
     2009.85900        -5.75320         9.09022
     2009.86173       -11.45571         9.09928
     2009.86447        -8.18422         9.53460
     2009.86721        11.37226         9.65401
     2009.86995       -10.81725         9.01162
     2009.87269        -1.28976         8.91035
     2009.87542        -6.48428         8.97383
     2009.87816        -5.88479         9.46960
     2009.88364         3.07718        10.55940
     2009.88637        -3.07133         9.29729
     2009.88911         0.65616         8.77431
     2009.89185        -4.65636         8.90732
     2009.89459       -10.17387         9.14312
     2009.89733       -12.43238         8.88767
     2009.90006        -9.44090         8.86500
     2009.90280       -12.27841         8.80908
     2009.90554       -12.94692         8.76071
     2009.90828       -14.62143         9.01464
     2009.91102       -11.19095         8.84384
     2009.91375       -13.34646         8.93755
     2009.91649       -14.59197         8.86500
     2009.91923       -19.88049         8.70629
     2009.92197       -18.99100         9.02069
     2009.92470       -21.21251         8.80908
     2009.92744       -14.80903         8.67002
     2009.93018       -27.18254         8.75466
     2009.93292       -13.59805         8.89977
     2010.92402        -7.88084         8.41608
     2010.92676        -4.29335         8.55665
     2010.92950        -6.91987         8.55061
     2010.93223        -9.78238         8.73803
     2010.93498        -3.33091         8.64583
     2010.93771        -5.03141         8.54305
     2010.94045        -6.20292         8.74257
     2010.94318        -4.98643         8.40248
     2010.94592         0.23105         8.56572
     2010.94866        -1.33246         8.48864
     2010.95140         0.71303         8.75013
     2010.95414        -3.21549         8.43271
     2010.95687       -10.22400         8.51887
     2010.95961        -9.96451         8.49317
     2010.96235        -6.29603         8.36318
     2010.96509        -4.47954         8.46596
     2010.96783        -5.53905         8.32388
     2010.97056        -7.11057         8.44934
     2010.97330        -4.73208         8.53852
     2010.97604        -7.23559         8.54305
     2010.97878        -4.18111         8.56572
     2010.98151       -20.01262         8.80605
     2010.98425       -10.38613         8.66397
     2010.98699         8.40536         9.30485
     2010.98973        -7.31916         8.62014
     2010.99247        -8.77367         8.73803
     2010.99520        -4.01718         8.54607
     2010.99794       -11.71470         8.47352
     2011.00342        -3.66372         8.47503
     2011.00616         0.09876         8.47050
     2011.00889         2.53525         8.65490
     2011.01163        -2.34226         8.39946
     2011.01437        -5.14578         8.63676
     2011.01711        -8.45329         8.70025
     2011.01984        -6.63980         8.41004
     2011.02258       -10.38832         8.41759
     2011.02532       -14.12783         8.63979
     2011.02806       -10.55334         8.77582
     2011.03080        -1.37186         8.86500
     2011.03353       -20.60537         8.47352
     2011.03627        -1.04188         8.67757
     2011.03901        -6.08440         8.52189
     2011.04175        -6.33991         8.66095
     2011.04449       -18.70242         8.47805
     2011.04722       -16.03394         8.54456
     2011.04996       -15.88045         8.46143
     2011.05270       -13.17996         8.49468
     2011.05544       -11.24748         8.60502
     2011.05817       -12.73599         8.39492
     2011.06091       -13.23850         8.55968
     2011.06365        -8.68302         8.37830
     2011.06639       -16.05653         8.66246
     2011.06913       -15.02004         9.00708
     2011.07186       -15.61755         8.50980
     2011.07506       -19.74165        10.63044
     2011.07734       -14.11358         8.47352
     2011.08008       -18.79409         8.42062
     2011.08282       -18.72461         8.55212
     2011.08555       -20.87812         8.53398
     2011.08829       -18.78063         8.64734
     2011.09103       -16.70415         8.47957
     2011.09377       -12.04866         8.56421
     2011.09650       -18.89217         8.52793
     2011.09924       -14.33969         8.67606
     2011.10198       -25.07020         8.49468
     2011.10473       -15.44073         8.49619
     2011.10746       -15.43923         8.37074
     2011.11019       -17.10874         8.57177
     2011.11293        -8.22425         8.68060
     2011.11567       -10.50277         8.49619
     2011.11841        -5.34728         8.56421
     2011.12115       -13.24079         8.48410
     2011.12388        -6.75731         8.75920
     2011.12662       -11.59982         8.80454
     2011.12936        -6.15233         8.51433
     2011.13210       -15.16885         8.35865
     2011.13483       -20.51836         8.37376
     2011.13758       -17.71888         8.37225
     2011.14031       -20.03639         8.47503
     2011.14305       -18.50890         8.95267
     2011.14579       -17.27641         8.47957
     2011.14852       -13.93393         8.38434
     2011.15126        -8.16344         8.31935
     2011.15400        -4.04795         8.39794
     2011.15674       -11.82946         8.75164
     2011.15948         1.78202         8.55514
     2011.16221        16.69551         8.41306
     2011.16495        -4.72500         8.62618
     2011.16769         5.18548         8.72897
     2011.17043       -14.85403         8.49317
     2011.17316       -27.15154         8.53549
     2011.17590       -23.00206         8.40701
     2011.17864        -8.93957         8.48712
     2011.18138       -12.12108         8.40853
     2011.18412       -17.82660         8.68362
     2011.18685        -9.61311         8.51433
     2011.18959       -10.58262         8.47352
     2011.19233       -14.93414         8.51433
     2011.19507        -9.49465         8.48561
     2011.19780       -10.24116         8.72745
     2011.20054       -11.28468         8.54758
     2011.20328       -11.85219         8.67757
     2011.20602       -13.75270         8.76373
     2011.20876       -15.92722         8.53852
     2011.21149       -18.34073         8.49922
     2011.21423       -15.47424         8.48561
     2011.21697       -13.40076         8.78640
     2011.21971       -12.79827         8.73652
     2011.22245       -16.63478         8.59293
     2011.22518        -5.31330         8.55816
     2011.22792       -13.46281         8.54758
     2011.23066       -13.92632         8.58537
     2011.23340       -12.94383         8.79849
     2011.23613       -12.47635         8.61409
     2011.23887       -14.88686         8.47201
     2011.24161        -6.40037         8.64130
     2011.24435       -16.34889         8.59444
     2011.24709       -10.98740         8.54154
     2011.24982       -11.45391         8.58386
     2011.25256        -9.98743         8.61711
     2011.25530       -16.10094         8.64886
     2011.25804        -9.32245         8.85744
     2011.26078       -14.32397         8.93604
     2011.26351       -14.20248         8.52793
     2011.26625       -18.05399         8.62165
     2011.26899       -14.30951         8.67909
     2011.27173        -9.64302         8.64130
     2011.27446        -8.75453         8.84535
     2011.27720       -15.74605         8.76071
     2011.27994       -12.39556         8.60956
     2011.28268       -23.94207         8.70932
     2011.28542       -22.39759         8.56875
     2011.28815       -19.86810         8.57781
     2011.29089       -10.62661         8.65490
     2011.29363       -20.11913         8.64734
     2011.29637       -14.81264         8.64886
     2011.29911       -16.46915         8.68967
     2011.30184        -9.31767         8.76222
     2011.30458       -11.53918         8.54305
     2011.30732        -9.96069         8.58084
     2011.31006       -16.79221         8.58991
     2011.31279       -17.20672         8.53247
     2011.31553       -12.31923         8.56875
     2011.31827       -10.84774         8.66397
     2011.32101       -16.67826         8.63676
     2011.32375       -21.93077         8.59595
     2011.32648       -22.09228         8.47957
     2011.32922       -23.71280         8.62014
     2011.33196       -16.44631         8.64281
     2011.33470       -22.67082         8.75768
     2011.33744       -21.74234         8.65944
     2011.34017       -16.90285         8.90279
     2011.34291       -11.25436         8.96778
     2011.34565        -6.69688         8.85140
     2011.34839       -20.92139         8.60502
     2011.35112       -17.43590         8.72292
     2011.35386       -19.76342         8.79094
     2011.35660       -16.07093         8.72897
     2011.35934       -25.44744         8.76524
     2011.36208       -27.07096         8.68967
     2011.36481       -20.95847         8.76071
     2011.36755       -17.95298         8.68967
     2011.37029       -18.56250         8.70327
     2011.37303       -12.14101         8.76071
     2011.37577       -16.32052         8.69571
     2011.37850       -20.88104         8.81663
     2011.38124       -24.73855         8.87860
     2011.38398       -25.13006         8.78489
     2011.38672       -21.77458         8.75768
     2011.38945       -16.92009         8.84082
     2011.39219       -16.32060         8.77431
     2011.39493       -14.80912         8.82570
     2011.39767       -18.38963         8.97232
     2011.40041       -14.67314         8.90883
     2011.40314       -19.92765         8.78489
     2011.40588        -9.87617         9.08266
     2011.40862       -17.56368         8.80152
     2011.41136       -18.24519         8.78640
     2011.41410       -15.65071         8.93302
     2011.41683       -14.63822         8.90732
     2011.41957       -20.22273         8.87709
     2011.42231       -14.14325         8.95569
     2011.42505       -12.00976         9.07510
     2011.42778       -18.02127         8.93906
     2011.43052       -15.65879         9.08568
     2011.43326       -20.40530         9.03278
     2011.43601       -16.00783         9.14916
     2011.43874       -19.33933         8.96778
     2011.44147       -13.13684         9.00255
     2011.44421       -11.62735         8.87558
     2011.44695       -17.96787         8.90581
     2011.44969       -13.07638         8.77733
     2011.45243       -17.80589         8.94209
     2011.45516       -11.06741         8.84837
     2011.45790       -14.70492         8.97534
     2011.46064       -10.71743         8.89825
     2011.46338       -17.64495         8.94813
     2011.46611       -16.43346         8.97836
     2011.46885        -6.47897         8.88767
     2011.47159       -13.49549         9.07964
     2011.47433       -11.39300         8.96023
     2011.47707       -12.24151         8.93906
     2011.47980        -6.75303         8.94360
     2011.48254        -4.81554         8.97988
     2011.48528        -9.21305         9.07661
     2011.48802        -9.07256         8.99650
     2011.49076        -5.81408         9.09626
     2011.49349       -13.81459         8.87558
     2011.49623        -7.52010         8.96023
     2011.49897        -1.65662         9.07057
     2011.50171        -6.02813         8.98290
     2011.50444       -15.31864         8.88767
     2011.50718       -10.37616         9.06301
     2011.50992        -8.89567         9.07964
     2011.51266        -6.52918         9.07964
     2011.51540       -10.22170         8.97836
     2011.51813       -10.89121         8.91942
     2011.52087        -9.02972         8.84989
     2011.52361       -11.37324         8.99499
     2011.52635       -13.82575         9.08417
     2011.52908        -8.04526         8.98743
     2011.53182       -13.48478         9.15370
     2011.53456       -14.39529         9.18242
     2011.53730        -8.39680         9.01011
     2011.54004        -9.93632         8.89977
     2011.54277       -19.63683         8.91488
     2011.54551       -10.59634         9.03429
     2011.54825       -16.17586         8.92848
     2011.55099        -3.84037         9.02673
     2011.55373        -7.12688         8.98290
     2011.55646        -6.95340         8.97836
     2011.55920        -2.84691         9.11893
     2011.56194        -9.40942         9.03882
     2011.56468        -2.15594         9.01917
     2011.56741        -5.44845         8.76978
     2011.57015       -13.18596         9.16730
     2011.57289       -11.71647         9.05847
     2011.57563       -12.40599         9.12800
     2011.57838        -0.65851         8.85291
     2011.58110       -12.87001         9.01313
     2011.58384        -6.70453         8.92697
     2011.58658        -8.74004         9.22172
     2011.58932        -8.69355         9.11138
     2011.59206        -7.73207         8.92546
     2011.59479         1.92642         9.00255
     2011.59753        -4.12909         8.91790
     2011.60027        -2.26061         8.87105
     2011.60301        -8.79512         8.95267
     2011.60574       -18.77663         9.20963
     2011.60848        -0.32815        10.97053
     2011.61122        -2.38266         9.26404
     2011.61396        -2.28817         8.98894
     2011.61670         4.55731         9.10382
     2011.61943        -6.95320         9.12196
     2011.62217        -0.45671         9.12045
     2011.62491        -5.10623         9.15975
     2011.62765       -11.17774         9.03731
     2011.63039        -4.57425         8.88012
     2011.63312        -4.35777         8.98592
     2011.63586        -6.59928         9.15975
     2011.63860         5.11121         9.13405
     2011.64134        -2.20631         9.51193
     2011.64407        -9.91582        11.90616
     2011.64681       -11.45933        12.11777
     2011.64954        -2.23383        13.84996
     2011.65244        17.65645        37.50205
     2011.65514       -10.76202        14.69640
     2011.65845       -11.74326        13.30430
     2011.66050        -9.24290        11.17156
     2011.66324        -6.68941        12.97933
     2011.66598       -10.06792        11.38015
     2011.66872         1.44556        15.07428
     2011.67115         5.97843        19.68136
     2011.67444         0.21822        15.79980
     2011.67693        -8.48098        12.66342
     2011.67967        -7.17749        13.89077
     2011.68240        -1.75000        12.36263
     2011.68514        -2.55052        12.86748
     2011.68788        -3.42103         9.96991
     2011.69062        -3.63254        10.17548
     2011.69336        -1.76206         9.02371
     2011.69601        -5.51147        10.08630
     2011.69985        -7.39139        22.70136
     2011.70157        -0.44260         8.95418
     2011.70431        -0.70411         8.84837
     2011.70705        -1.17062         8.97232
     2011.70978         1.27086         9.04185
     2011.71252         0.38435         8.89070
     2011.71526        -1.20116         9.07812
     2011.71800         6.61832         9.09928
     2011.72073         9.46281         9.17184
     2011.72347         4.83130         9.20207
     2011.72621        -4.45122         9.59506
     2011.72895        10.77927         9.01162
     2011.73169        -8.47024         9.31845
     2011.73442        -2.92675         9.59959
     2011.73716       -10.08127         9.31241
     2011.73990         0.76922         8.93755
     2011.74264         3.66971         8.94511
     2011.74538        -2.75881         9.52402
     2011.74811         2.33768         9.18544
     2011.75085         4.97117         9.00859
     2011.75359         3.83765         9.36531
     2011.75633         6.37714         9.00859
     2011.75906         0.31463         8.89825
     2011.76180        -7.07089         8.98441
     2011.76454        -2.57840         9.01615
     2011.76728        -5.52891         9.05847
     2011.77002         0.34957         9.31543
     2011.77275         7.14206         9.07057
     2011.77549         4.78255         9.34113
     2011.77823         5.85603         9.17788
     2011.78097        -3.03048         9.02371
     2011.78371         0.29101         8.93302
     2011.78644         0.21649         8.69571
     2011.78918         1.12598         9.01313
     2011.79192        -7.23253         8.92546
     2011.79466         0.77295         9.14765
     2011.79739         6.03844         9.00406
     2011.80013        -2.83907         8.80303
     2011.80287         9.75941         9.22776
     2011.80561         1.51490         9.15068
     2011.80835         7.40139         8.96476
     2011.81108         0.19287         8.89977
     2011.81382        -7.06064         9.26857
     2011.81656         4.71085         8.82570
     2011.81930        -0.53766         8.70025
     2011.82203         2.77082         9.09173
     2011.82477        -0.45469         8.94511
     2011.82751         2.22480         8.98743
     2011.83025        -3.03872         8.98592
     2011.83299        -0.60923         8.94662
     2011.83572        -0.11274         9.07510
     2011.83846        -5.42026         8.91639
     2011.84120        -0.34777         8.78489
     2011.84394        -0.63828         8.67455
     2011.84668         2.65720         8.73501
     2011.84941        -3.92331         8.75466
     2011.85215       -15.56382         8.76071
     2011.85489        -9.37134         9.22776
     2011.85763        -1.56885         9.04941
     2011.86036         3.61464         8.95720
     2011.86310         1.35812         8.74106
     2011.86584         0.56261         8.71083
     2011.86858        -1.61490         8.66699
     2011.87132        -1.29842         8.55665
     2011.87405        -4.45793         8.65944
     2011.87679        -3.41744         8.82570
     2011.87953         3.99904         8.67304
     2011.88227        -8.60147         8.50073
     2011.88501        -1.96898         8.62316
     2011.88774        -4.74350         9.35171
     2011.89048       -11.25101         9.35775
     2011.89322        -4.16052         8.70932
     2011.89596        -3.30104         8.68967
     2011.89869        -1.76555         8.89825
     2011.90143        -0.96506         8.86047
     2011.90417       -14.82857         8.89070
     2011.90691        -9.49409         8.74559
     2011.90965         0.27240         8.71687
     2011.91238        -5.28011         8.93453
     2011.91512        -8.85463         8.76071
     2011.91786       -10.50114         9.06301
     2011.92060       -22.25765         8.55212
     2011.92334       -16.35417         8.78036
     2011.92607        -8.30768         8.89221
     2011.92881       -10.98319         8.99348
     2011.93155        -8.98271         8.90279
     2011.93429        -9.68322         8.80152
     2011.93702        -9.43673         8.74559
     2011.93976        -3.17125         8.91790
     2011.94250        -9.80076         8.77431
     2011.94524        -7.83727         8.78943
     2011.94798        -7.31479         8.83931
     2011.95071        -4.88930         8.66548
     2011.95345        -5.32281         8.81059
     2011.95619        -5.69733         9.17939
     2011.95893        -0.51484         8.69269
     2011.96167        -0.72535         8.58386
     2011.96440        -8.11387         8.83477
     2011.96715        -3.77239         8.83175
     2011.96988        -8.02989         8.69571
     2011.97262       -12.99941         8.58839
     2011.97535       -10.12092         8.61258
     2011.97809        -9.09343         8.59746
     2011.98083       -12.64095         8.74408
     2011.98357        -2.23046         8.60502
     2011.98631        -5.53297         8.72745
     2011.98904        -3.01348         8.73955
     2011.99178        -2.91500         8.48108
     2011.99452       -10.21951         8.54910
     2011.99726       -13.95102         8.38585
     2012.00273         4.37095         8.94662
     2012.00547        -9.61356         8.62316
     2012.00821       -10.81708         8.73803
     2012.01095        -1.90059         8.58839
     2012.01374       -10.52318         8.67002
     2012.01642        -8.38862         8.53852
     2012.01916        -3.53813         8.49468
     2012.02190       -13.62364         8.59746
     2012.02464       -19.46216         8.61258
     2012.02737       -15.93567         8.48108
     2012.03011       -13.47818         8.47654
     2012.03285       -15.88870         8.53852
     2012.03559       -12.60721         8.66246
     2012.03833       -12.62872         8.46899
     2012.04106        -7.30324         8.41457
     2012.04380       -11.51475         8.42515
     2012.04654        -7.32326         8.39190
     2012.04928         2.25022         8.47805
     2012.05201        -0.52529         8.84082
     2012.05475         6.91620         8.73955
     2012.05749         2.32168         8.51282
     2012.06023        -0.45383         8.72594
     2012.06297        -1.60734         8.68211
     2012.06570        -6.93885         8.71990
     2012.06844        -5.19637         8.96023
     2012.07118       -12.37788         8.39190
     2012.07392       -12.34639         8.46747
     2012.07666        -1.87291         8.54456
     2012.07939        -4.29842         8.50224
     2012.08213        -4.66993         8.51282
     2012.08487        -2.03345         8.49468
     2012.08761       -10.63596         8.57026
     2012.09034        -8.26547         8.57177
     2012.09308       -12.82799         8.62921
     2012.09582       -14.45450         8.62014
     2012.09856       -11.77701         8.45689
     2012.10130       -12.54153         8.61863
     2012.10403       -13.67504         8.63374
     2012.10677       -10.77755         8.76978
     2012.10951       -13.82707         8.82268
     2012.11226       -15.15659         8.56119
     2012.11498       -12.04509         8.58991
     2012.11772       -10.70161         8.69420
     2012.12046        -1.10112         8.65339
     2012.12320        -8.67763         8.60351
     2012.12594        -7.48515         8.75013
     2012.12868       -15.20267         8.61711
     2012.13141       -17.88117         8.55514
     2012.13415        -9.71069         8.82721
     2012.13689        -7.51120         8.63223
     2012.13963        -0.91771         8.90430
     2012.14236       -14.19823         8.87860
     2012.14510       -15.26474         8.70932
     2012.14784       -12.10125         8.62618
     2012.15058       -17.51976         8.64130
     2012.15331       -19.78428         8.61107
     2012.15605       -15.65579         8.79396
     2012.15879        -8.82330         8.81210
     2012.16153       -14.37482         8.98592
     2012.16427       -10.29433         8.61711
     2012.16700       -14.35884         8.75164
     2012.16974       -14.76936         8.78338
     2012.17248       -12.24087         8.62014
     2012.17522       -16.57438         8.81663
     2012.17796       -22.14690         8.64886
     2012.18069       -17.37641         8.78338
     2012.18343       -14.68792         8.76675
     2012.18617       -10.93944         8.96325
     2012.18891       -12.13895         8.56119
     2012.19164       -13.92246         9.24892
     2012.19438        10.78702         9.25497
     2012.19712        -5.76049         8.45538
     2012.19986       -25.48900         8.70327
     2012.20260       -10.03152         8.58386
     2012.20533        -3.37203         8.56421
     2012.20807       -14.32354         8.53700
     2012.21081       -10.30706         8.52945
     2012.21355       -13.14757         8.56723
     2012.21629       -22.93408         8.91639
     2012.21902       -26.79460         8.65490
     2012.22176       -28.62011         8.54607
     2012.22450       -22.69562         8.60502
     2012.22724       -18.23814         8.44329
     2012.22997       -17.78965         8.47352
     2012.23271       -12.95216         8.57026
     2012.23545        -9.99167         8.67455
     2012.23819        -9.09819         8.68513
     2012.24093        -8.18970         8.64432
     2012.24366        -7.55521         8.71536
     2012.24640       -19.65073         8.69118
     2012.24914       -18.50024         8.46899
     2012.25188       -16.97775         8.60956
     2012.25462       -19.65027         8.68664
     2012.25735       -16.40278         8.62165
     2012.26009       -18.54329         8.67909
     2012.26283       -16.00181         8.51887
     2012.26557       -16.21032         8.61409
     2012.26830       -20.52283         8.53247
     2012.27104       -19.63035         8.74408
     2012.27378       -16.97086         8.54305
     2012.27652       -17.20037         8.56875
     2012.27927        -8.88690         8.83024
     2012.28199       -15.83640         8.73501
     2012.28473       -15.66791         8.54758
     2012.28747       -15.54243         8.60351
     2012.29021       -21.10494         8.55968
     2012.29295       -23.78945         8.57177
     2012.29568       -17.99297         8.56119
     2012.29842       -21.44948         8.66095
     2012.30116       -15.77699         8.71083
     2012.30390       -20.86051         8.50980
     2012.30663       -18.15902         8.54758
     2012.30937       -12.60753         8.67757
     2012.31211       -11.16405         8.94511
     2012.31485       -13.48956         8.80303
     2012.31759       -20.16807         8.47957
     2012.32032       -19.96858         8.82117
     2012.32306       -17.62710         8.60049
     2012.32580       -23.68861         8.66850
     2012.32854       -17.35712         8.50980
     2012.33128       -17.19664         8.75617
     2012.33401       -19.67415         8.74257
     2012.33675       -20.14666         8.60200
     2012.33949       -19.63818         8.67153
     2012.34223       -20.06569         8.59746
     2012.34496       -21.04120         8.58386
     2012.34770       -24.43172         8.72745
     2012.35044        -9.59323         8.89221
     2012.35318       -19.59874         8.71687
     2012.35592       -20.28926         8.69118
     2012.35865       -15.59277         8.75617
     2012.36139       -17.91928         8.67304
     2012.36413       -16.95680         8.87105
     2012.36687       -15.90031         8.84989
     2012.36961       -15.60482         8.74710
     2012.37234       -10.39134         8.78791
     2012.37508        -8.24685         8.72141
     2012.37782       -15.08936         8.93000
     2012.38056       -17.49388         8.84384
     2012.38329       -16.76639         8.84233
     2012.38603       -11.42090         9.06452
     2012.38877       -16.08142         9.08719
     2012.39151        -8.42693         8.97383
     2012.39425       -16.89344         8.88767
     2012.39698       -21.89996         8.86198
     2012.39972       -17.15047         8.78640
     2012.40246       -10.65298         8.94058
     2012.40520       -15.13149         8.92546
     2012.40794       -13.46301         8.61560
     2012.41068        -6.65253         8.78489
     2012.41341       -18.23503         8.82872
     2012.41615        -3.90855         8.96627
     2012.41889        -7.84006         8.94058
     2012.42162       -21.12057         8.80152
     2012.42436       -12.92209         8.75617
     2012.42710       -12.63060         8.62921
     2012.42984        -9.77411         8.66548
     2012.43259       -13.36064         9.02371
     2012.43531       -12.55214         8.67757
     2012.43806       -14.78167         8.61863
     2012.44079       -15.85617         8.81966
     2012.44353       -13.24568         8.85140
     2012.44626       -16.21919         8.96930
     2012.44900       -10.83971         8.83779
     2012.45174        -7.32322         8.90732
     2012.45448        -6.84073         8.74106
     2012.45722        -5.83925         8.94965
     2012.45995        -7.75576         8.89977
     2012.46269        -3.75327         9.03278
     2012.46543       -14.29379         9.00406
     2012.46817        -8.00230         8.91337
     2012.47091       -12.75281         9.11893
     2012.47364        -7.73633         8.72443
     2012.47638       -11.64484         8.85291
     2012.47912       -11.90035         8.97232
     2012.48186       -15.32187         8.71687
     2012.48459        -9.16538         8.82419
     2012.48733       -11.07889         8.74257
     2012.49007        -9.59540         8.85140
     2012.49281        -7.96592         8.79396
     2012.49556       -13.51944         8.67002
     2012.49828       -10.00394         8.73350
     2012.50102        -4.27746         8.93151
     2012.50376        -6.51597         8.71838
     2012.50651       -11.23550         8.86349
     2012.50924       -10.34400         8.95871
     2012.51197       -11.15551         8.81814
     2012.51471       -16.75502         8.91639
     2012.51745       -12.09654         8.77733
     2012.52019       -10.04505         8.78187
     2012.52292        -6.99056         9.00406
     2012.52566        -8.89508         8.69118
     2012.52840       -10.11559         8.97534
     2012.53114        -8.20011         8.70629
     2012.53388        -3.06462         8.78036
     2012.53661        -5.42313         8.95569
     2012.53935        -3.96664         8.69269
     2012.54209        -6.98416         8.89372
     2012.54483        -4.86667         8.94058
     2012.54757        -5.36818         8.73048
     2012.55030        -7.75070         8.86198
     2012.55304        -0.01821         8.88919
     2012.55578        -5.85772         8.73048
     2012.55852         0.43876         8.84535
     2012.56125        -4.92375         8.69420
     2012.56399        -4.21726         8.74861
     2012.56673        -3.69577         8.86954
     2012.56947        -6.59929         8.79396
     2012.57221        -3.46680         8.76524
     2012.57494        -6.70431         8.82117
     2012.57768        -2.15583         8.85291
     2012.58042        -4.04034         8.69571
     2012.58316       -13.04585         8.93906
     2012.58590       -18.84337         8.97836
     2012.58863         2.26812         8.88616
     2012.59137        -3.57839         8.81059
     2012.59411        -4.05891         8.84233
     2012.59685        -1.60442         8.84837
     2012.59958        -4.46693         8.96627
     2012.60232        -8.28745         9.45147
     2012.60506        -4.98696         8.72141
     2012.60780        -1.25747         8.88919
     2012.61054        -1.38999         8.66397
     2012.61327        -1.67450         8.63979
     2012.61601        -6.48401         8.65339
     2012.61875        -4.17453         9.04941
     2012.62149         0.44296         8.69571
     2012.62423         2.53845         8.70025
     2012.62696        -4.96307         8.72443
     2012.62970        -5.31158         8.80152
     2012.63244        -4.11909         8.85140
     2012.63518        -0.38061         9.01766
     2012.63791        -2.21012         8.80001
     2012.64064         3.14939         8.62467
     2012.64461        20.18929        31.71751
     2012.64613         2.73734         8.86954
     2012.64887         0.06683         8.75920
     2012.65160         4.48432         8.75617
     2012.65434         0.69680         8.68211
     2012.65708         6.35929         8.79245
     2012.65982         2.18078         8.83326
     2012.66256        -4.82974         8.69571
     2012.66529         0.07675         8.59142
     2012.66803        -2.32776         8.59898
     2012.67077         6.25872         8.79547
     2012.67351        -2.68379         8.65792
     2012.67624         0.27670         8.70176
     2012.67898        -0.50082         8.75768
     2012.68172        -1.04333         8.72443
     2012.68446        -0.18784         8.65037
     2012.68720         1.02364         8.78338
     2012.68993        -1.12487         8.87407
     2012.69267        -3.58138         9.22474
     2012.69541        -0.07590         8.80303
     2012.69815        -3.95641         8.80756
     2012.70089        -3.67492         8.83628
     2012.70362        -9.70844         8.77431
     2012.70636        -4.48795         8.69118
     2012.70910        -3.05146         8.68060
     2012.71184         0.81102         8.75466
     2012.71457        -1.59649         8.81966
     2012.71731         3.38100         8.63223
     2012.72005         3.91148         8.93906
     2012.72279         4.21797         8.88616
     2012.72553         1.46346         8.72141
     2012.72826        -0.70506         8.83477
     2012.73100        -1.83157         9.34113
     2012.73374         0.47892         8.88012
     2012.73648        -4.40659         8.64734
     2012.73921         2.59489         9.00859
     2012.74195         0.48238         9.34264
     2012.74470        -7.68714         8.57328
     2012.74743        -0.95265         8.70932
     2012.75017        -5.68816         9.34566
     2012.75290         1.64533         8.88163
     2012.75564        -4.00119         8.88616
     2012.75838        -3.57370         8.63979
     2012.76112        -3.25521         8.74408
     2012.76386         3.09427         8.79094
     2012.76659        -2.81624         8.94662
     2012.76933        -5.00675         8.83175
     2012.77207        -2.80927         9.14765
     2012.77481        -1.08878         8.76373
     2012.77754        -3.34429         8.76524
     2012.78028        -0.98081         8.79245
     2012.78302        14.43968         9.10835
     2012.78576        -6.22383         9.07964
     2012.78850         0.04765         8.84686
     2012.79123        -3.96186         9.14161
     2012.79397        -3.10437         8.75768
     2012.79671         7.35811         8.91639
     2012.79945         9.71860         8.81663
     2012.80219         6.87709         8.90279
     2012.80492        -2.19543         8.75617
     2012.80766        -3.16994         8.71234
     2012.81040        -6.35545         8.80001
     2012.81314        -9.25297         8.83175
     2012.81587        -9.68448         8.84082
     2012.81861        -4.39399         9.05545
     2012.82135        -6.80850         8.77885
     2012.82409        -8.75802         8.86047
     2012.82683        -5.64153         8.87860
     2012.82956        -3.44104         8.84233
     2012.83230         3.62144         9.02673
     2012.83505        -3.24508         8.85744
     2012.83778        -4.66758         9.02220
     2012.84052         5.85590         9.12045
     2012.84325        -5.34061         9.36531
     2012.84599       -10.57912         9.04185
     2012.84873        -2.48564         9.02220
     2012.85147        -4.19815         8.92697
     2012.85420        -8.23866         8.73048
     2012.85694        -7.54018         8.66699
     2012.85968        -3.16769         8.66397
     2012.86242        -7.07520         8.75617
     2012.86516        -0.27372         8.84082
     2012.86789       -10.31123         9.17486
     2012.87063        -9.23974         8.84233
     2012.87337        -8.96626         8.72443
     2012.87611        -7.72877         8.68362
     2012.87885        -5.99328         8.65792
     2012.88158       -13.63380         8.82268
     2012.88432        -0.73531         8.66850
     2012.88706         2.44718         8.91488
     2012.88980         2.46966         8.74408
     2012.89253        -2.22385         8.66397
     2012.89527        -4.76436         8.82570
     2012.89801        -5.12787         8.73048
     2012.90075        -9.10239         8.67002
     2012.90349        -7.61490         8.66699
     2012.90622        -2.57241         8.67304
     2012.90896        -3.16993         8.81966
     2012.91170        -2.72044         8.96930
     2012.91444        -3.24595         9.02522
     2012.91718        -0.93647         8.77129
     2012.91991         1.07502         8.87860
     2012.92265        -6.02649         8.78943
     2012.92539       -10.56101         8.87407
     2012.92813       -13.69352         8.91942
     2012.93086       -10.20203         8.68211
     2012.93360        -6.34955         8.98743
     2012.93634       -10.65106         8.66397
     2012.93781       -16.40195        50.05362
     2012.95111        -4.91901        17.53048
     2012.95277        -1.72814         8.60200
     2012.95551         0.72135         8.87407
     2012.95824        -2.46717         8.54910
     2012.96098        -2.34968         8.83326
     2012.96372        -0.95619         8.79698
     2012.98015       -23.10627         8.95569
     2012.98288       -16.16078         8.55363
     2012.98562        -8.77730         8.67606
     2012.98836        -7.27581         8.58839
     2012.99110        -8.68532         8.69571
     2012.99384       -11.00284         8.68211
     2012.99657       -11.80135         8.53852
     2012.99931       -11.80586         8.72897
     2013.00206        -9.88239         8.62769
     2013.00479       -10.19889         8.68967
     2013.00752        -8.95940         8.67757
     2013.01026        -7.72392         8.55665
     2013.01300        -9.36643         8.66246
     2013.01574        -0.42694         8.76222
     2013.01848       -13.99146         8.60804
     2013.02121       -10.66897         8.61863
     2013.02395       -18.30748         8.58386
     2013.02669        -5.52600         8.72443
     2013.02943       -16.91551         8.62165
     2013.03216       -16.57502         8.61409
     2013.03490       -19.62454         8.59595
     2013.03764       -10.97305         8.75315
     2013.04038       -17.35656         8.72141
     2013.04312       -18.35508         8.65339
     2013.04585       -13.18159         8.69269
     2013.04859       -15.90010         8.97081
     2013.05133       -18.50462         8.69118
     2013.05407       -11.22113         8.74559
     2013.05681        -4.98164         8.54910
     2013.05954        -9.60616         8.82117
     2013.06228        -3.70767         8.84989
     2013.06502        -9.95318         8.81966
     2013.06776       -11.36369         8.99046
     2013.07049         0.84679         9.09626
     2013.07323        -9.24072         8.52793
     2013.07597        -3.37223         8.99499
     2013.07871         4.59225         9.44542
     2013.08145       -11.13726         8.97836
     2013.08418        -7.45177         8.76978
     2013.08692       -15.63629         8.58991
     2013.08966       -15.39480         8.59898
     2013.09240        -7.97031         8.60804
     2013.09514        -6.08583         8.60351
     2013.09787        -7.95734         8.97232
     2013.10061        -5.98085         9.11893
     2013.10335       -14.87837         8.68815
     2013.10609       -13.81388         8.66699
     2013.10882       -15.38139         8.49922
     2013.11156       -20.21391         8.73955
     2013.11430       -12.27242         8.65641
     2013.11704       -18.91193         8.81210
     2013.11978       -17.08845         8.94360
     2013.12251       -18.22996         8.73048
     2013.12525       -17.40147         8.60049
     2013.12799       -10.59599         8.71083
     2013.13073       -15.97950         8.59595
     2013.13347       -10.40601         8.64281
     2013.13620       -10.12653         8.96627
     2013.13894        -3.06304         8.70478
     2013.14168        -4.47455         8.74257
     2013.14442         1.11493         8.96325
     2013.14715        -7.29758         8.89372
     2013.14989       -20.17009         8.72745
     2013.15263       -13.76360         8.73350
     2013.15537       -18.43612         8.61560
     2013.15811       -16.99163         8.68362
     2013.16084       -12.37814         8.56421
     2013.16358       -17.44166         8.70478
     2013.16632       -18.74217         8.68513
     2013.16906       -14.75368         8.57781
     2013.17180       -13.59220         8.42364
     2013.17453       -10.59671        11.66734
     2013.17727       -13.49622         8.68211
     2013.18001       -17.54974         8.71234
     2013.18275       -17.04425         8.67153
     2013.18548       -12.67576         8.57781
     2013.18822       -21.62128         8.65339
     2013.19096       -14.88579         9.00255
     2013.19370        -8.91330         8.60956
     2013.19644       -12.66182         8.64130
     2013.19917        -9.85933         8.53398
     2013.20191        -8.45984         8.57630
     2013.20465       -12.10436         8.50526
     2013.20739       -15.14587         8.66095
     2013.21013       -15.21438         8.70025
     2013.21286       -14.82390         8.33295
     2013.21560       -10.31141         8.52945
     2013.21834       -10.12792         8.81210
     2013.22108       -18.64544         8.51887
     2013.22381       -13.23495         8.51131
     2013.22655       -16.46346         8.46596
     2013.22929       -17.49498         8.59142
     2013.23203       -20.89749         8.48108
     2013.23477       -13.14300         8.50375
     2013.23750       -24.02451         8.75315
     2013.24024       -18.42303         8.67002
     2013.24298       -16.45854         8.64734
     2013.24572        -5.27705         8.67002
     2013.24846        -9.05257         8.75617
     2013.25119        -9.02308         8.70176
     2013.25393       -14.92559         8.85744
     2013.25667        -8.76211         8.85744
     2013.25941        -5.92362         8.65944
     2013.26215       -13.45115         8.69722
     2013.26488        -6.19565         8.61863
     2013.26762       -14.78516         8.66246
     2013.27036       -14.05267         8.65792
     2013.27310       -10.54319         8.84233
     2013.27583       -13.98370         8.84233
     2013.27857       -10.81321         8.90430
     2013.28114        -6.71351         9.36229
     2013.28420        -8.37444         9.19451
     2013.28679       -12.60975         8.76373
     2013.28952       -15.11827         8.79094
     2013.29226       -19.78278         8.76978
     2013.29500       -14.89429         8.81059
     2013.29774       -19.22981         8.86500
     2013.30047       -22.95632         8.72292
     2013.30321       -22.60583         8.74559
     2013.30595       -16.62235         8.74257
     2013.30869       -19.26186         8.85291
     2013.31143       -17.13437         8.90581
     2013.31416       -14.69789         8.82872
     2013.31690        -6.98240         8.88163
     2013.31964       -10.16691         8.93453
     2013.32238        -6.73642         8.68211
     2013.32512        -5.20194         8.77129
     2013.32785       -15.22345         9.23381
     2013.33059       -21.34596         8.67002
     2013.33333       -17.07348         8.89221
     2013.33607       -16.35299         8.86651
     2013.33880       -14.52550         8.72141
     2013.34154        -7.16402         8.97685
     2013.34428       -12.48553         8.83175
     2013.34702       -15.13804         8.95418
     2013.34976        -9.33356         8.84686
     2013.35249       -20.49607         9.10231
     2013.35523       -17.35758         9.29125
     2013.35797       -10.45110         8.94511
     2013.36071       -18.26961         9.21416
     2013.36344        -6.34612         8.94209
     2013.36618       -13.07364         8.92395
     2013.36892        -7.68515         9.04941
     2013.37166       -13.13866         8.86349
     2013.37440       -17.67218         8.94813
     2013.37713       -11.60769         8.94360
     2013.37987       -11.79620         8.93453
     2013.38261       -11.90872         8.89070
     2013.38535        -9.42423        10.24501
     2013.38809       -11.98174         8.92395
     2013.39082        -8.15726         8.94511
     2013.39356        -4.99477         8.88314
     2013.39630        -8.64628         8.98592
     2013.39905        -6.44681         8.95116
     2013.40177        -5.64731         9.07359
     2013.40451       -11.83882         9.07510
     2013.40725        -5.86533         9.01011
     2013.40999        -7.17785         9.09777
     2013.41273        -6.39736         9.01766
     2013.41546       -12.36587         9.46205
     2013.41820       -14.70539         8.87256
     2013.42094        -3.06990         9.14765
     2013.42368        -8.36841         9.19753
     2013.42642       -12.26193         9.13858
     2013.42915        -4.43744         9.06301
     2013.43189        -6.82095         9.09324
     2013.43463        -8.56347         9.02069
     2013.43737        -3.70598         8.96476
     2013.44010       -11.72249         9.15370
     2013.44284        -5.29601         8.98743
     2013.44558        -4.76252         9.33659
     2013.44832       -19.49803         9.03429
     2013.45106       -11.74055         8.98290
     2013.45379        -9.86406         9.17486
     2013.45654        -3.61258         9.20358
     2013.45927        -3.53109         9.17939
     2013.46201        -8.77960         9.22776
     2013.46475       -10.38911         8.93604
     2013.46748        -6.03263         8.93302
     2013.47022        -5.03214         8.87709
     2013.47296        -3.90065         8.95569
     2013.47570        -5.73617         9.13254
     2013.47843        -5.15968         8.95116
     2013.48117       -11.74419         9.01615
     2013.48391        -5.59370         8.94813
     2013.48665        -4.78422         9.26555
     2013.48939        -7.49773         9.17939
     2013.49212        -8.67524         9.38647
     2013.49486        -2.22276         9.19753
     2013.49760        -3.76727         9.11893
     2013.50034        -4.24978         9.37589
     2013.50308        -2.61130         9.07812
     2013.50581        -4.11281         9.11591
     2013.50855       -11.30232         8.86651
     2013.51129        -3.78584         8.97836
     2013.51403        -2.99435         8.98894
     2013.51676        -4.23086         9.02371
     2013.51950        -9.19138         8.94058
     2013.52224         7.01711         8.99348
     2013.52498        -2.46640         9.10987
     2013.52772        -3.81492         8.93000
     2013.53045        -3.55743         8.94058
     2013.53319        -7.59194         8.92848
     2013.53593         0.01754         9.01917
     2013.53867        -2.43997         8.78640
     2013.54141        -3.34748         8.96023
     2013.54414         0.99300         8.95116
     2013.54688        -5.48951         8.91488
     2013.54962        -2.93502         8.81814
     2013.55236         2.99146         8.86500
     2013.55509        -6.10905         8.97685
     2013.55783         5.89444         8.95720
     2013.56057        -4.54808         9.13103
     2013.56331        -3.89959         9.18695
     2013.56605        -1.33310         9.20811
     2013.56878         8.44239         8.93151
     2013.57152       -10.60013         9.26404
     2013.57426         6.71436         9.15521
     2013.57700        -1.09515         8.93302
     2013.57974        -3.26567         9.06301
     2013.58247         1.70982         8.89221
     2013.58521        -5.05869         8.83024
     2013.58795        -3.51721         8.96778
     2013.59069         2.05328         8.84082
     2013.59342         4.06877         9.03429
     2013.59616         4.84625         9.01162
     2013.59890         0.13374         8.85744
     2013.60164         0.49623         8.80605
     2013.60438         3.18071         8.97534
     2013.60711         1.74820         8.91186
     2013.60985         2.88069         9.02522
     2013.61259         5.87317         8.80303
     2013.61533         3.50166         9.02220
     2013.61807         6.08115         9.53007
     2013.62080        11.04363         9.07057
     2013.62354         0.84412         9.13405
     2013.62628         0.08461         9.01766
     2013.62902        -0.90891         8.91790
     2013.63175         2.55258         9.07057
     2013.63449         2.00907         9.18998
     2013.63723         0.74255         8.88919
     2013.63997         7.02704         9.02522
     2013.64271        -0.04047         9.20509
     2013.64544         9.63801         9.09324
     2013.64818         3.29650         8.89523
     2013.65092        10.15699         8.94209
     2013.65366        14.45948         8.97534
     2013.65639         4.48196         9.20963
     2013.65913        -1.46755         9.05092
     2013.66187         1.50694         9.41217
     2013.66461        -2.71858         8.90430
     2013.66735         0.38591         8.84082
     2013.67008         3.50540         9.06452
     2013.67283         2.42087         9.32903
     2013.67556         2.24337         8.97534
     2013.67830         6.64186         9.03580
     2013.68104         1.99134         8.93604
     2013.68377         4.56383         9.08115
     2013.68651         1.71432         8.98743
     2013.68925         1.33680        12.59087
     2013.69199         8.02929         8.86954
     2013.69472         4.99078         8.70478
     2013.69746         2.35426         8.89523
     2013.70020         4.64375         8.73501
     2013.70294         7.84424         8.84989
     2013.70568         6.72272         8.86802
     2013.70841         7.73321         9.06603
     2013.71115         5.92670         8.77129
     2013.71389         2.20218         8.74257
     2013.71663        -3.72033         8.94058
     2013.71937        -0.61784         9.13707
     2013.72210         9.11864         8.99650
     2013.72484        11.87613         9.42426
     2013.72758         6.07962         8.99801
     2013.73032         3.34210         9.04336
     2013.73305         4.65059         8.89221
     2013.73579        -0.73492         8.88465
     2013.73853         4.53457         8.91942
     2013.74127        10.11605         8.96174
     2013.74401        11.76054         9.18242
     2013.74674         0.22503         9.09928
     2013.74948         1.05351         9.09626
     2013.75222        -0.83200         9.04638
     2013.75496        -0.41251         8.83779
     2013.75770        -5.16003         8.92395
     2013.76043        -3.25954         8.98894
     2013.76317        -0.61505         9.03882
     2013.76591        -0.38757         9.05092
     2013.76865        -0.89908         9.12045
     2013.77138         1.67341         8.96778
     2013.77412         6.87389         8.92848
     2013.77686        -2.58762         8.97081
     2013.77960        -1.89613         8.88616
     2013.78234        -7.25965         8.98290
     2013.78507        -0.92916         8.78187
     2013.78781         0.09433         8.80605
     2013.79055        -1.68219         8.81512
     2013.79329        -3.92770         8.82721
     2013.79603         0.83479         8.72897
     2013.79876         4.03727         8.81210
     2013.80150         7.78776         8.87407
     2013.80424         2.49225         8.95569
     2013.80698         1.02673         8.89825
     2013.80971         6.49322         8.86349
     2013.81245         9.29371         9.05394
     2013.81519        -1.87480         8.75768
     2013.81793         4.00168         8.91035
     2013.82067       -11.52783         9.00708
     2013.82340         2.02066         8.77885
     2013.82614        -0.12686         9.04638
     2013.82888         1.97063         9.35624
     2013.83163         4.53710         8.89825
     2013.83436         6.70360         9.23683
     2013.83709        -1.41991         9.13405
     2013.83983         7.01258         8.92093
     2013.84257         0.32906         8.82570
     2013.84531        -0.67045         8.97988
     2013.84804         0.87504         8.77431
     2013.85078        -0.97048         8.87860
     2013.85352         2.43401         8.86047
     2013.85626         1.73650         9.12196
     2013.85900        -1.08902         8.75920
     2013.86173        -5.61453         9.08719
     2013.86447         0.19196         8.94360
     2013.86721         1.26744         8.85442
     2013.86995        -5.35907         8.80303
     2013.87269         3.63142         8.80303
     2013.87542         3.32690         8.86349
     2013.87816         1.17239         8.65339
     2013.88090         8.56888         8.78640
     2013.88364         8.06736         9.10987
     2013.88637        -0.52715         8.52189
     2013.88911        -4.86466         8.56270
     2013.89185        -7.53018         8.63979
     2013.89459       -10.48569         9.04941
     2013.89733         3.63480         8.98743
     2013.90006        -4.93671         8.84837
     2013.90280        -6.92323         8.93000
     2013.90554        -4.60074         8.77129
     2013.90828         0.38975         8.76675
     2013.91102        -1.74877         8.82872
     2013.91375        -8.73328         8.65944
     2013.91649         3.31821         8.81210
     2013.91923        -5.67231         8.96325
     2013.92197        -6.98682         8.69571
     2013.92470        -5.64633         8.53096
     2013.92744        -3.00285         8.92848
     2013.93018        -0.47636         8.56421
     2013.93292        -2.34887         8.59444
     2013.93566        -1.10039         8.59142
     2013.93839        -1.34690         8.75768
     2013.94113        -2.35741         8.75164
     2013.94387        -4.51293         8.77582
     2013.94661         5.92556         9.15068
     2013.94935         0.38205         8.79245
     2013.95208        -6.30647         9.02673
     2013.95482        -2.49498         8.63676
     2013.95756        -1.90449         8.70629
     2013.96030         0.94899         8.96627
     2013.96303       -13.31152         8.83477
     2013.96577        -2.83103         8.61711
     2013.96851        -5.97855         9.13556
     2013.97125         4.82394         8.60351
     2013.97399        -2.10757         8.88767
     2013.97672        -5.37609         9.03429
     2013.97946       -10.93760         8.82419
     2013.98220        -4.89011         8.73199
     2013.98494       -12.30762         8.71234
     2013.98767       -10.48814         8.76071
     2013.99041       -12.22865         8.74408
     2013.99315       -21.27116         8.72292
     2013.99589        -8.14068         8.75617
     2013.99863       -13.41219         8.61409
     2014.00410        -9.39922         8.78338
     2014.00684       -11.40073         8.83175
     2014.00958       -10.27424         8.75315
     2014.01232       -11.61176         8.70478
     2014.01507        -5.95729         8.82117
     2014.01779       -10.50878         8.87860
     2014.02053        -3.00730         8.88616
     2014.02327        -2.01881         9.04487
     2014.02600         0.57768         8.96930
     2014.02874        -1.39884         8.79094
     2014.03148        -0.67835         8.74408
     2014.03422         0.17914         8.87860
     2014.03696        -6.01038         9.02220
     2014.03969        -4.15689         8.92093
     2014.04243        -5.04440         9.09022
     2014.04517         0.06808         8.98894
     2014.04791         0.92857         8.93755
     2014.05065        -3.94094         8.73501
     2014.05338        -4.39046         8.67153
     2014.05612        -5.75597         8.82872
     2014.05886        -8.86448         8.93151
     2014.06160        -2.91600         8.79245
     2014.06433        -0.26651         9.07208
     2014.06707        -3.79602         9.17335
     2014.06981        -2.68153         8.96930
     2014.07255        -2.14505         8.72594
     2014.07529        -3.39156         8.83477
     2014.07802        -3.03007         8.69722
     2014.08076        -3.47359         8.65188
     2014.08350         0.51190         8.77280
     2014.08624        -4.68161         8.87105
     2014.08898        -9.17513         9.21869
     2014.09171        -6.90964         8.97534
     2014.09445        -3.12415         8.75466
     2014.09719        -2.98867         8.84686
     2014.09993         1.96682         8.70478
     2014.10266         1.44531         8.85593
     2014.10540         2.12979         8.68362
     2014.10814         1.87128         8.70478
     2014.11088         9.23477         9.62529
     2014.11362         3.82625         8.83931
     2014.11635         5.30674         8.81966
     2014.11909        -1.18577         8.75768
     2014.12183         3.91071         8.96325
     2014.12457         7.10020         8.70932
     2014.12731        -1.00431         9.19300
     2014.13278         4.12766         9.17939
     2014.13552         2.26615         9.36682
     2014.13826         1.34563         9.09173
     2014.14099        -0.43688         8.92546
     2014.14373         1.93561         8.99801
     2014.14647        -9.36491         8.99499
     2014.14921         0.16358         8.83477
     2014.15195        -2.45393         8.97836
     2014.15468        -0.51544         8.94360
     2014.15742         0.69104         8.97232
     2014.16016        -2.47047         9.23381
     2014.16290        -4.43498         8.94209
     2014.16564        -3.23750         9.00406
     2014.16837        -5.25501         9.26253
     2014.17111        -3.43752         9.35020
     2014.17385         2.99396         9.38798
     2014.17659        -5.98155         9.03429
     2014.17932        -2.66506         9.34264
     2014.18206        -1.68358         9.16277
     2014.18480         1.98891         9.00406
     2014.18754        -8.88360         9.09324
     2014.19028        -8.57312         9.05092
     2014.19301         2.43337         8.88314
     2014.19575        -0.70814         8.99953
     2014.19849         0.23234         9.20811
     2014.20123        -4.16817         9.21567
     2014.20397        -3.70368         9.02069
     2014.20670        -3.27120         8.96023
     2014.20944        -4.51571         8.89674
     2014.21218        -0.28322         9.21114
     2014.21492        -5.61874         9.30032
     2014.21765        -4.24425         8.86349
     2014.22039        -5.79976         8.78640
     2014.22313        -9.78628         8.88767
     2014.22587        -7.75179         8.96476
     2014.22861         0.78370         8.84686
     2014.23134         0.89519         8.78791
     2014.23408        -4.04333         8.77733
     2014.23682        -8.85384         8.89372
     2014.23956       -10.61635         9.05243
     2014.24230        -3.16487         8.89523
     2014.24503        -6.93638         8.98743
     2014.24777        -2.49589         9.20207
     2014.25051        -5.02641         8.86047
     2014.25325       -13.84292         8.70780
     2014.25598        -3.93943         9.26102
     2014.25872        -4.65595         9.11138
     2014.26146        -6.61846         8.83477
     2014.26420        -6.45097         8.89372
     2014.26694        -7.09449         8.96476
     2014.26967       -12.19900         8.95418
     2014.27241        -4.03851         9.13254
     2014.27515        -6.26403         8.94965
     2014.27789        -6.02654         8.74257
     2014.28062       -10.59605         8.81361
     2014.28336        -3.83857         8.99650
     2014.28610        -7.95208         9.16881
     2014.28884        -4.30259         9.38043
     2014.29158        -8.64611         9.01011
     2014.29431        -7.98162         9.04638
     2014.29705       -10.73413         9.01011
     2014.29979       -17.11765         8.94662
     2014.30253        -6.59516         9.18393
     2014.30527        -2.85867         8.71234
     2014.30800        -6.98419         9.07510
     2014.31074        -0.41770         8.96930
     2014.31348        -7.60621         8.94511
     2014.31622        -1.38572         8.94965
     2014.31895         1.02676         9.10835
     2014.32169       -12.28675         8.86500
     2014.32443       -11.06026         9.17637
     2014.32717       -18.99278         9.10382
     2014.32991        -1.96329         8.86954
     2014.33264        -5.95080         9.00255
     2014.33538        -8.96032         8.96174
     2014.33812        -2.05883         9.07057
     2014.34086        -6.88234         8.76826
     2014.34360        -3.14086         8.72141
     2014.34633        -5.72437         8.91942
     2014.34907         0.43612         9.16881
     2014.35181         0.41960         9.42728
     2014.35455        -3.41591         8.87709
     2014.35728        -6.51542         8.86802
     2014.36002        -7.33394         8.99348
     2014.36276        -9.26645         9.11289
     2014.36550        -8.64096         9.05696
     2014.36824        -7.43848         9.06905
     2014.37097        -5.31699         9.19904
     2014.37371        -4.73350         8.94813
     2014.37645        -4.06402         8.92395
     2014.37919        -2.62953         9.16881
     2014.38193       -13.08804         9.09928
     2014.38466        -3.18856         9.13707
     2014.38740        -6.36307         9.34113
     2014.39014         6.60242         9.57843
     2014.39288        -2.52510         9.28822
     2014.39561        -0.40261         9.09173
     2014.39835         0.48188         9.27311
     2014.40109        -2.50263         9.38345
     2014.40383        -5.58415         9.05394
     2014.40657        -8.46466         9.12649
     2014.40930        -4.47117         9.06603
     2014.41204        -7.33769         8.91488
     2014.41478         1.31480         9.07964
     2014.41752         1.90529         9.08870
     2014.42026         2.53077         9.27160
     2014.42299        -1.83674         9.14916
     2014.42573        -3.55325         9.05999
     2014.42847        -1.99577         8.92697
     2014.43121        -1.86728         9.02371
     2014.43394        -0.80579         9.33357
     2014.43668        -4.49031         9.06301
     2014.43942        -2.66282         9.03429
     2014.44216        -6.14433         8.95267
     2014.44490        -3.82885         9.43937
     2014.44763        -0.33436         9.30787
     2014.45037         1.44013         9.15823
     2014.45311         1.54561         9.06452
     2014.45585         1.25910         9.15672
     2014.45859        -9.52141         9.25497
     2014.46132        -4.78593         9.36682
     2014.46406         0.43156         9.18242
     2014.46680         1.30505         9.22776
     2014.46954        -0.39947         9.04487
     2014.47227         3.86002         9.12045
     2014.47501         2.21651         9.17939
     2014.47775         0.75399         9.28974
     2014.48049        -6.99052         9.44844
     2014.48323         2.56897         9.23381
     2014.48596         8.45646         9.51797
     2014.48870         2.35494         9.15975
     2014.49144         3.78843         8.93906
     2014.49418         5.51592         8.89977
     2014.49692         6.17840         8.90430
     2014.49965         1.26289         9.24137
     2014.50239         0.26638         8.91942
     2014.50513        -2.11314         8.96325
     2014.50787         1.77435         9.02371
     2014.51060         0.02784         9.02976
     2014.51334         4.92832         8.96476
     2014.51609         3.29680         8.95116
     2014.51882         2.26130         8.78640
     2014.52156         3.40178         9.12347
     2014.52429         5.80027         8.92546
     2014.52703         8.77776         9.18695
     2014.52977         2.05624         9.01011
     2014.53251        -6.44627         9.11893
     2014.53525         2.54022         8.83779
     2014.53798         3.46570         9.04789
     2014.54072        13.04619         9.57088
     2014.54346        18.29368         9.20207
     2014.54620        -0.59884         9.37589
     2014.54893         7.78265         8.87105
     2014.55167         5.58014         9.04941
     2014.55441         6.09862         8.98441
     2014.55715         3.90511         9.03882
     2014.55989         3.09360         8.96476
     2014.56262        10.18908         8.77431
     2014.56536         0.95757         9.08568
     2014.56810         2.34206         8.97685
     2014.57084         6.24455         8.93755
     2014.57357         4.96603         8.86047
     2014.57631         5.30352         9.00859
     2014.57905         1.98401         8.97383
     2014.58179         4.22849         8.99953
     2014.58453         3.65198         9.11440
     2014.58726         5.70647         9.41368
     2014.59000         8.25295         9.01615
     2014.59274         5.85144         9.25346
     2014.59548         1.35493         9.20509
     2014.59822        -5.35559         9.21265
     2014.60095         6.54890         9.35322
     2014.60369         6.75839         9.05243
     2014.60643         0.04787         8.99046
     2014.60917         1.50236         9.09928
     2014.61190         8.94185         9.40763
     2014.61464        11.80833         9.33961
     2014.61738         8.22082         9.45298
     2014.62012         8.63831         9.27462
     2014.62286         9.35579         9.14765
     2014.62559        10.62628         9.21265
     2014.62833         7.34777         9.02220
     2014.63107         9.59325         8.90128
     2014.63381        10.58174         9.25044
     2014.63655        17.37023         9.15219
     2014.63928         4.84171         9.06905
     2014.64202         7.03320         9.05999
     2014.64476         1.59369         9.14614
     2014.64750         5.40018         9.01464
     2014.65023        -0.36034         8.92546
     2014.65297         5.50215         9.22172
     2014.65571        12.36764         9.16730
     2014.65845         4.32012         8.99650
     2014.66119         7.98261         9.14916
     2014.66392        14.86510         9.21114
     2014.66666        12.74858         8.99650
     2014.66940        11.62507         9.09777
     2014.67214         7.46056         8.97534
     2014.67488         6.73104         8.88163
     2014.67761        -0.19447         8.80908
     2014.68035         5.10302         8.88616
     2014.68309        -1.05550         9.04336
     2014.68583         9.09999         9.13556
     2014.68856         8.32148         8.93453
     2014.69130         6.22896         8.93000
     2014.69404         2.92745         8.96325
     2014.69678         2.99494         9.03731
     2014.69952        11.79742         8.93302
     2014.70225        -0.94109         9.05847
     2014.70499         3.86140         8.81059
     2014.70773        11.54988         8.91790
     2014.71047        11.56037         9.12045
     2014.71321        15.29286         8.90430
     2014.71594         1.82034         9.58448
     2014.71868         2.34383         8.76071
     2014.72142         1.82632         8.88616
     2014.72416         2.51980         9.06603
     2014.72689        18.42229         9.11289
     2014.72963         2.74478         9.28218
     2014.73237        -3.01373         9.04941
     2014.73403        -4.93987        19.53323
     2014.73908         6.37566        29.12829
     2014.74059         8.05171         8.97685
     2014.74332         6.06421         9.39554
     2014.74606         1.20970         8.81966
     2014.74880        -4.68081         8.97836
     2014.75154         3.05367         9.12045
     2014.75427         7.26016         8.84082
     2014.75701         9.26465         9.62529
     2014.75975         7.07413         9.08115
     2014.76249        11.59962         8.96930
     2014.76522         1.49111         9.07661
     2014.76796         8.34159         8.92546
     2014.77070         7.55208         8.97685
     2014.77344        16.43957         9.03731
     2014.77618        12.99705         9.17033
     2014.77891         1.14354         8.88767
     2014.78165         9.64903         8.99801
     2014.78439        20.32151         8.98894
     2014.78713         8.63800         8.89977
     2014.78987         4.81949         8.90581
     2014.79260         1.11997        12.11475
     2014.79534         6.27246         9.17486
     2014.79809        11.24494         9.53460
     2014.80082         8.27643         9.46356
     2014.80355        -4.03808         9.41368
     2014.80629         1.10141         9.01464
     2014.80903         9.49089         9.07964
     2014.81178         4.41037         8.73955
     2014.81451         9.41587         8.81361
     2014.81724        14.38236         8.73803
     2014.81998         5.43384         8.81210
     2014.82272        12.78633         9.30938
     2014.82546        11.55582         8.95267
     2014.82820         3.50730         9.03731
     2014.83093         8.81579         9.10382
     2014.83367         6.25228         8.94058
     2014.83641         0.33776         8.93906
     2014.83915         7.02525         9.15975
     2014.84188         7.23874         9.63889
     2014.84462         0.86622         9.18242
     2014.84736        22.01471         9.31997
     2014.85010         8.88420         9.08568
     2014.85284         4.12468         8.90128
     2014.85557         5.06817         9.17335
     2014.85831         9.05966         9.01917
     2014.86105         6.07714         8.99046
     2014.86379         2.19163         8.84686
     2014.86653        -4.76788         8.67909
     2014.86926        -4.87940         8.73955
     2014.87200        -0.69391         8.83931
     2014.87474        -2.10042         8.77582
     2014.87748        -1.92194         8.69874
     2014.88021         5.73955         9.08115
     2014.88295        -0.91096         8.87709
     2014.88569        -2.83948         9.16881
     2014.88843        16.78601         9.37891
     2014.89117         9.34750         9.32450
     2014.89390        -1.08302         9.19602
     2014.89664         0.73047         9.06603
     2014.89938        -5.49704         9.17788
     2014.90212        -0.13855         9.33055
     2014.90485        -5.38307         9.03580
     2014.90759        -6.98358         9.11440
     2014.91033         2.66991         8.72594
     2014.91307         0.30039         8.67757
     2014.91582         7.21687         8.74861
     2014.91854         1.97637         8.80454
     2014.92128        -3.34615         8.87860
     2014.92402         2.95234         8.98139
     2014.92676        -3.40217         8.85442
     2014.92950        -5.63869         8.81210
     2014.93223         0.51780         9.03882
     2014.93497         1.17429         8.93000
     2014.93771        -8.39523         9.02522
     2014.94045       -10.00074         9.22021
     2014.94318         1.18775         9.17184
     2014.94592         3.18523         8.86349
     2014.94866       -10.92328         8.64886
     2014.95140        -9.31179         8.63072
     2014.95414         5.10469         8.62316
     2014.95687        -2.89082         8.77885
     2014.95961         7.46167         8.65188
     2014.96235         1.84115         8.79698
     2014.96509        -3.61336         8.78640
     2014.96783        -3.19587         8.68362
     2014.97056        -6.37339         8.88163
     2014.97330        -8.05690         8.78036
     2014.97604        -1.69141         8.92697
     2014.97879        -6.11794         8.73501
     2014.98151        -2.34444         8.95720
     2014.98425        -3.87895         8.81059
     2014.98699        -0.85246         8.80001
     2014.98973        -1.20298         8.62014
     2014.99247         1.55051         8.66397
     2014.99520       -10.02500         8.74408
     2014.99794         3.70048         8.48864
     2015.00068        -1.82503         8.62014
     2015.00342        -3.30554         8.85442
     2015.00616        -7.86406         8.67606
     2015.00889         1.33143         8.90732
     2015.01163         1.36892         9.02069
     2015.01437        -1.30060         8.96174
     2015.01711        -5.25711         9.49983
     2015.01984        -1.68862         8.84082
     2015.02258        -3.40914         9.38043
     2015.02532         1.94435         8.94965
     2015.02807         1.89582         8.87558
     2015.03080        -0.78168         8.81966
     2015.03353        -0.55619         8.98441
     2015.03627         4.18130         8.86802
     2015.03901         9.83078         9.10987
     2015.04175         9.27227         9.04487
     2015.04449         2.08276         8.84837
     2015.04722        -5.27676         9.11138
     2015.04996         0.73273         8.94662
     2015.05270        -2.75078         8.85744
     2015.05544        -0.29030         8.80454
     2015.05817         8.58719         8.81966
     2015.06091         3.31568         8.87256
     2015.06365        10.00917         9.10835
     2015.06639        13.18365         9.14614
     2015.06913         4.63214         9.06452
     2015.07186         2.42463         8.95871
     2015.07460        -2.76489         8.90128
     2015.07734        -3.63740         8.75466
     2015.08008        -7.51291         8.90581
     2015.08282        -3.42243         8.81966
     2015.08555         6.01706         8.89372
     2015.08829         8.35055         8.93604
     2015.09103         2.90603         8.88616
     2015.09377        -0.77648         8.79396
     2015.09650         6.02601         8.87860
     2015.09924         6.20649         9.08870
     2015.10198         5.65898         9.14010
     2015.10472         7.36947         8.89674
     2015.10746        -1.42705         8.77129
     2015.11019        -5.59956         9.06603
     2015.11293        -2.01407         9.02371
     2015.11567         5.91341         9.01917
     2015.11842         6.71789         8.89523
     2015.12115         3.54339         8.79849
     2015.12388        -5.21513         8.78489
     2015.12662        -4.43564         8.79396
     2015.12936        -2.90715         8.83326
     2015.13210         1.97433         8.79547
     2015.13483        -4.73318         9.03882
     2015.13757        -3.66369         8.92395
     2015.14031        -4.70821         8.72292
     2015.14305         1.24728         8.69118
     2015.14579         5.82377         8.90883
     2015.14852        -3.51474         8.88465
     2015.15126        -0.42126         8.78036
     2015.15400        -6.09977         8.87105
     2015.15674         0.48272         8.93000
     2015.15948         4.11420         9.04789
     2015.16221         2.43569         8.86802
     2015.16495        -2.56682         8.84233
     2015.16769         0.91966         8.85744
     2015.17043         1.49815         8.93755
     2015.17316         5.08864         9.04487
     2015.17590         2.31712         9.10080
     2015.17864         4.14661         8.89825
     2015.18138        -1.59590         8.83326
     2015.18412        10.80858         8.96778
     2015.18685         6.41807         8.84082
     2015.18959         0.61256         8.88767
     2015.19233        12.40404         9.34264
     2015.19507         9.53953         9.04789
     2015.19780        -4.85798         8.92244
     2015.20054         3.01550         8.96174
     2015.20328         2.85299         8.85442
     2015.20602        -0.22552         9.63134
     2015.20876         0.74596         8.79396
     2015.21149        -5.16555         8.88465
     2015.21423        -4.66906         9.22776
     2015.21697         1.66442         8.84233
     2015.21971         0.37891         8.93755
     2015.22245         0.60540         8.81814
     2015.22518         3.07188         8.69420
     2015.22792         1.22537         8.77129
     2015.23032         3.79530        10.57603
     2015.23613         7.96883         9.07057
     2015.23887        -3.45468         9.54065
     2015.24161        -0.92519         9.36380
     2015.24435         4.74129         9.49681
     2015.24709        -1.86722         8.99348
     2015.24982        -2.97073         8.77280
     2015.25256         0.54075         8.84233
     2015.25531         0.33122         9.01464
     2015.25804        -4.15427         8.81966
     2015.26078         6.63921         8.78036
     2015.26351        -5.04130         8.90128
     2015.26625         0.91519         8.82721
     2015.26899        -0.47233         8.80605
     2015.27173         8.28716         9.17184
     2015.27446         8.38065         9.03127
     2015.27720        -4.17287         8.82872
     2015.27994        -2.71338         9.00859
     2015.28268        -8.64189         8.77582
     2015.28542         0.56659         9.26404
     2015.28815        -8.56992         9.35322
     2015.29091        -5.18145         8.83628
     2015.29364        -4.83496         8.76524
     2015.29637        -5.42846         8.85140
     2015.29911         2.60403         8.81512
     2015.30184         5.15651         8.93604
     2015.30458        -3.92400         8.93302
     2015.30732         3.04249         8.96930
     2015.31006        -0.94103         8.64734
     2015.31279        -6.48454         8.78640
     2015.31553        -0.29505         8.83024
     2015.31827         0.18844         8.85291
     2015.32648        -2.43410         8.89221
     2015.32922         2.62638         9.01766
     2015.33196        -3.64013         8.99499
     2015.33470        -0.01164         8.65188
     2015.33744        -1.33016         8.76978
     2015.34017       -12.48867        15.79980
     2015.34291         0.24682         8.80454
     2015.34565        -6.54470         8.80908
     2015.34839        -1.52921         8.79245
     2015.35112        -4.36272         8.64432
     2015.35386        -0.77024         8.89825
     2015.35660        -2.85475         8.80605
     2015.35934         0.35674         9.22172
     2015.36208         0.93822         9.25195
     2015.36481        -0.19329         8.74257
     2015.36755         3.69720         9.17637
     2015.37031         1.19965         8.89070
     2015.37303         0.27217         8.85593
     2015.37577         0.67666         9.14614
     2015.37850         2.85914         9.22172
     2015.38124        -0.75137         8.78036
     2015.38398        -3.70688         8.86651
     2015.38672        -1.79740         8.80152
     2015.38945        -3.34391         8.94209
     2015.39222         3.06355         8.83477
     2015.39493        -1.70094         8.69420
     2015.39768         4.22953         8.92244
     2015.40041        -7.13596         8.79245
     2015.40314        -1.80947         9.35020
     2015.40588        -3.16699         9.15370
     2015.40862         0.88450         8.96023
     2015.41136         1.14799         8.81663
     2015.41410         4.53147         9.08870
     2015.41683         3.73196         8.86802
     2015.41957        -0.16455         8.90732
     2015.42231        -3.12407         9.12045
     2015.42505        -4.85858         9.31241
     2015.42778        -2.66609         8.80303
     2015.43052         2.44639         9.24137
     2015.43326         7.88888         9.01766
     2015.43600         3.06537         8.87105
     2015.43874         3.58685         8.86047
     2015.44147        -3.74466         9.29729
     2015.44421         2.79983         8.81663
     2015.44695         9.87431         8.89221
     2015.44969         3.27880         9.13405
     2015.45243         2.62629         9.10382
     2015.45516        -4.31523         8.95871
     2015.45790         5.49026         9.21567
     2015.46064         4.71675         9.05092
     2015.46338         5.18323         9.37287
     2015.46611         7.75872         8.93906
     2015.46885         8.37121         8.80605
     2015.47159        14.38869         9.13103
     2015.47433         4.29018         9.58297
     2015.47707         2.88267         9.46809
     2015.47980         9.34116         9.10533
     2015.48254         4.94864         9.08870
     2015.48528         3.57013         8.80908
     2015.48802         8.46262         8.98139
     2015.49076         6.18310         9.04034
     2015.49349         1.64759         9.19300
     2015.49586        12.00555        10.25257
     2015.50171        -2.11695         9.18695
     2015.50444        11.82854         8.96476
     2015.50718         0.25902         9.02220
     2015.50992        10.49351         9.12800
     2015.51266        11.11500         8.82117
     2015.51540         4.79248         8.86651
     2015.51813        13.59597         9.13707
     2015.52087         7.09846         8.82268
     2015.52361         9.30494         9.34264
     2015.52635        12.26743         8.99650
     2015.52908        17.96192         8.83326
     2015.53182         8.37040         8.92395
     2015.53456        12.28489         8.96174
     2015.53730        13.54438         9.03882
     2015.54004         1.95086         9.13254
     2015.54277        15.66035         9.06603
     2015.54551        29.23784         9.08870
     2015.54825         9.95032         9.13707
     2015.55099        13.09481         8.89372
     2015.55373         9.51830         8.94813
     2015.55646        15.32378         8.99197
     2015.55920        16.58627         9.21567
     2015.56194        19.86276         8.91035
     2015.56468        14.03525         9.16428
     2015.56741         6.42073         9.18695
     2015.57015        15.48222         9.11591
     2015.57289         8.43871         9.24892
     2015.57563        12.06819         8.99953
     2015.57837        11.10068         9.18846
     2015.58110         6.82517         9.23079
     2015.58384        13.74165         9.13858
     2015.58658        23.60414         9.56181
     2015.58932        11.46663         9.03580
     2015.59206        10.41111         8.98743
     2015.59479        14.20560         8.99801
     2015.60027        17.89657         9.14161
     2015.60301        12.98106         9.46809
     2015.60574         8.74955         9.14010
     2015.60848        16.59503         9.43635
     2015.61122        11.44552         9.17788
     2015.61396        16.86801         9.07964
     2015.61670        12.10549         9.25799
     2015.61943         5.43298         9.16881
     2015.62217        14.50447         9.08115
     2015.62491        16.32795         8.84837
     2015.62765        14.34044         8.90430
     2015.63039        28.23193         9.46960
     2015.63312        16.13341         9.02069
     2015.63586        11.45390         9.14463
     2015.63860        10.59639         8.95418
     2015.64134        15.39087         8.78338
     2015.64407         5.79636         8.76373
     2015.64681        14.89985         9.04941
     2015.64955        11.46834         8.81966
     2015.65229         4.18382         9.02976
     2015.65503        11.08231         9.29125
     2015.65776        13.76280         9.09475
     2015.66050        20.03828         9.10835
     2015.66324        23.09677         9.21416
     2015.66598        25.75726         9.32601
     2015.66872        20.39274         9.27160
     2015.67145        19.13323         8.85895
     2015.67419        11.54372         8.80908
     2015.67693        13.89820         8.80756
     2015.67967        15.12969         8.92697
     2015.68240        10.15318         8.96174
     2015.68514         7.12766         9.29880
     2015.68788        14.85615         9.08266
     2015.69062        18.85964         8.91488
     2015.69336        10.14212         9.11893
     2015.69609        16.43161         8.93302
     2015.69883        18.83610         9.11440
     2015.70157        19.60358         8.80001
     2015.70431        18.16907         8.69874
     2015.70705        18.03256         8.75768
     2015.70978        24.76604         8.99650
     2015.71252        12.94353         8.94813
     2015.71526        13.42802         8.83326
     2015.71800        17.71650         9.22172
     2015.72073        15.21099         8.91639
     2015.72347        18.85648         8.77582
     2015.72621        15.96696         9.00406
     2015.72895         9.01645         9.42426
     2015.73169        13.44794         9.12498
     2015.73442        15.45143         8.96930
     2015.73716        15.57691         8.83326
     2015.73990        16.88340         8.99650
     2015.74264        14.89089         9.06301
     2015.74538        14.81537         9.16730
     2015.74811         8.10386         9.19451
     2015.75085         6.12835         9.08115
     2015.75359         9.69983         8.89221
     2015.75633        13.40632         8.77885
     2015.75906        11.76981         9.01313
     2015.76180        11.42229         9.24137
     2015.76454         8.45078         8.90581
     2015.76728        10.84127         9.12347
     2015.77002        11.48675         9.22927
     2015.77275        24.43724         9.36985
     2015.77549        15.93073         9.04034
     2015.77823        28.01521         9.34264
     2015.78097        16.15370         8.83477
     2015.78371        12.80319         9.09928
     2015.78644        16.16867         8.87860
     2015.78918        17.11516         8.93604
     2015.79192        11.75465         9.01011
     2015.79466         6.22213         8.92848
     2015.79739        11.56362         8.96325
     2015.80013        11.61211         9.20660
     2015.80287        12.00359         9.35322
     2015.80561        16.63808         9.09475
     2015.80835         8.02257         9.15823
     2015.81108         7.33205         8.75164
     2015.81382         6.81754         8.83779
     2015.81656        10.99203         8.86047
     2015.81930        11.82252         8.99197
     2015.82203        14.80900         8.99953
     2015.82477        10.21649         8.86349
     2015.82751        15.80398         9.07208
     2015.83025         9.48146         9.18544
     2015.83299         7.90795         9.03127
     2015.83572         2.12344         8.87860
     2015.83846         9.31192         8.84082
     2015.84120         5.77741         8.91186
     2015.84394         3.83790         8.88465
     2015.84668         6.45138         9.10684
     2015.84916         2.33720        10.27070
     2015.85763         4.64233         8.80454
     2015.86036         2.03182         8.93000
     2015.86310        11.14930         9.00708
     2015.86584         9.34679         8.79849
     2015.86858         3.97128         8.82268
     2015.87132         3.68676         8.85442
     2015.87405         4.30825         8.68967
     2015.87679        -0.00226         8.81512
     2015.87953         2.38722         9.00104
     2015.88227         7.82971         8.89977
     2015.88501        -3.77380         8.69118
     2015.88774        -1.62732         8.89825
     2015.89048         5.98117         8.76222
     2015.89322         8.39266         9.00104
     2015.89596         3.62215         8.86198
     2015.89869         7.48563         8.67002
     2015.90143        -1.10988         8.68060
     2015.90417         1.89361         8.65188
     2015.90596         3.40131        15.49448
     2015.91074        -2.46982        19.59823
     2015.91238         2.18607         8.63072
     2015.91512        -1.51445         8.85593
     2015.91786         4.36204         9.03127
     2015.92063         7.25249         8.94662
     2015.92334         8.49101         8.92848
     2015.92607        -0.96250         8.76826
     2015.92881        -0.21701         8.87860
     2015.93155        -3.32453         9.33357
     2015.93429         5.99396         9.17637
     2015.93702         7.10945         8.91790
     2015.93976        11.78693         9.04638
     2015.94250         1.60742         9.44542
     2015.94524         6.22991         8.93604
     2015.94798        -3.57661         8.88919
     2015.95071         5.78888         8.77733
     2015.95345        -0.27763         8.52038
     2015.95619         5.73785         8.74559
     2015.96167        22.36083         9.29729
     2015.96440        12.89031         8.65641
     2015.96714        20.00980         8.81210
     2015.96988        16.22829         8.67606
     2015.97262        11.98177         8.49015
     2015.97535        21.76926         9.55274
     2015.97809         4.68675         8.57177
     2015.98083         6.44124         8.44631
     2015.98357         4.36072         8.55665
     2015.98631         1.94021         8.58839
     2015.98904         2.15270         8.56119
     2015.99178         0.39418         8.54154
     2015.99452        -1.33033         8.46899
     2015.99726         4.72816         8.47503
     2016.00000         6.30664         8.41155
     2016.00273         5.25913         8.74408
     2016.00547         5.00562         8.47805
     2016.00821        10.51210         8.62014
     2016.01095        11.68159         8.71990
     2016.01368         9.26108         8.86349
     2016.01642         8.61056         8.84989
     2016.01916         7.37205         9.21869
     2016.02190        12.14854         8.90430
     2016.02464        16.58502         8.85895
     2016.02737        11.00851         9.06905
     2016.03011        14.48500         8.93906
     2016.03285         6.83048         8.71990
     2016.03559         5.13397         8.88012
     2016.03833         4.93146         8.87558
     2016.04106        14.70394         8.77885
     2016.04380        13.63943         8.80908
     2016.04654         9.17892         8.74257
     2016.04928         3.78040         8.75013
     2016.05201        -1.48311         8.89372
     2016.05475         5.02038         8.86349
     2016.05749         8.55386         8.80454
     2016.06023         4.83435         8.65641
     2016.06297        -2.39716         8.75466
     2016.06570         4.50333         8.98894
     2016.06844         6.53681         9.22474
     2016.07118         6.52830         9.07510
     2016.07392         7.27679         9.10080
     2016.07666        12.98227         9.08870
     2016.07939        15.73376         8.91942
     2016.08213         1.76325         9.06301
     2016.08487         1.25873         9.05243
     2016.08761         2.22022         8.80303
     2016.09034         1.25471         8.91337
     2016.09308         3.11719         8.82419
     2016.09582        -3.54332         8.90279
     2016.09856        -2.04383         8.99046
     2016.10130        -2.14735         8.98894
     2016.10403        -5.16586         8.81210
     2016.10677        -2.02637         8.91488
     2016.10951         6.05811         9.07057
     2016.11225        -4.98840         9.07208
     2016.11498         7.89409         9.17335
     2016.11772        -0.33443         8.73652
     2016.12046        -1.22694         8.97534
     2016.12320        -4.52245         9.20811
     2016.12594        -1.76497         8.99650
     2016.12867         5.43852         8.93755
     2016.13141        10.55401         9.02069
     2016.13415         2.46649         8.93604
     2016.13689         1.44598         9.05847
     2016.13963         1.50947         8.98139
     2016.14236       -10.46805         9.14161
     2016.14510        -4.96256         8.86802
     2016.14784        -6.92507         8.86349
     2016.15058         0.65342         8.66246
     2016.15331         0.72490         9.09475
     2016.15605         4.53639         8.94813
     2016.15879         2.17288         8.97685
     2016.16153         0.98236         8.95267
     2016.16427         2.37785         9.26857
     2016.16700         1.07434         8.86500
     2016.16974         2.31982         9.06150
     2016.17248         2.77531         9.26102
     2016.17522        -5.53620         9.19602
     2016.17796        -0.64672         9.25195
     2016.18071         6.35275         8.96778
     2016.18343        -0.58374         9.07964
     2016.18617         9.01874         8.80303
     2016.18891         2.04323         8.96778
     2016.19164         3.63872         8.83931
     2016.19438         6.29920         8.57933
     2016.19712         5.90469         8.60956
     2016.19986        -1.12382         8.93453
     2016.20260        -4.10734         9.06150
     2016.20533        -0.85185         9.18695
     2016.20807        -4.57236         8.82570
     2016.21081        -4.06488         8.92093
     2016.21355        -3.40339         8.87407
     2016.21629        -5.82190         8.73501
     2016.21902         3.95358         8.79698
     2016.22176         2.64307         8.60956
     2016.22450        -1.56944         8.75013
     2016.22724        -3.01296         8.62165
     2016.22997        -2.95347         8.77582
     2016.23271        -2.08398         8.72141
     2016.23545         3.09251         8.69269
     2016.23819        -3.33701         8.61560
     2016.24093        -0.54352         8.83326
     2016.24366        -2.69703         8.52642
     2016.24640         1.60245         8.63223
     2016.24914         4.45294         8.92244
     2016.25188         2.15743         8.75315
     2016.25462         1.85091         8.81210
     2016.25735         2.85740         8.81814
     2016.26009        -0.52111         8.76675
     2016.26283        -1.32763         8.64281
     2016.26557        -0.88314         8.70932
     2016.26830         6.52835         8.79245
     2016.27104        -5.26817         8.69118
     2016.27378         1.61132         8.53096
     2016.27652        -1.69519         8.84082
     2016.27926        -1.09871         8.82570
     2016.28199        -0.75522         8.84082
     2016.28473        -1.54873         8.72443
     2016.28747        -5.28825         8.73652
     2016.29021        -2.36576         8.70629
     2016.29295         2.93673         8.85442
     2016.29568         2.23421         8.94360
     2016.29842         5.80570         9.01313
     2016.30116        -4.20681         9.24439
     2016.30390        -4.25833         8.95418
     2016.30663         5.24416         8.94965
     2016.30937         2.22965         8.95871
     2016.31211         2.17214         8.90128
     2016.31485         3.68062         9.04941
     2016.31759         6.24511         8.80605
     2016.32032         0.72360         8.85593
     2016.32306        -4.62792         8.95267
     2016.32580         1.76057         8.94058
     2016.32856         1.94403         8.98139
     2016.33128         4.69754         9.17788
     2016.33401         7.19203         9.03429
     2016.33675         3.96052         8.94965
     2016.33949         7.90800         9.11742
     2016.34223         7.13749         8.98592
     2016.34496         4.15898         9.08568
     2016.34770        16.63246         9.53762
     2016.35044        -3.98405         9.19300
     2016.35318         1.80244         8.89372
     2016.35592        -3.65908         8.70478
     2016.35865        -3.76559         8.88314
     2016.36139         0.59590         9.13103
     2016.36413        11.52138         9.06905
     2016.36687        12.71287         8.87558
     2016.36961        20.18536         8.94360
     2016.37234        20.39884         9.08417
     2016.37508        13.99233         9.16428
     2016.37782         0.84382         8.99197
     2016.38056         8.48230         8.97534
     2016.38329         6.17179         8.89977
     2016.38603         8.58628         8.85593
     2016.38877        20.20276         8.81361
     2016.39151         6.43925         8.83175
     2016.39425         7.22674         8.83175
     2016.39698        21.69823         8.98441
     2016.39972        23.53171         8.94360
     2016.40246         9.12620         8.98139
     2016.40520         1.86269         9.09324
     2016.40794         6.76217         8.90279
     2016.41067         2.89466         8.91488
     2016.41341         6.60415         9.02522
     2016.41615        11.63763         9.27009
     2016.41889         9.45912         9.03882
     2016.42162        14.20161         8.97081
     2016.42436        -1.26791         9.06754
     2016.42710         8.11558         8.83175
     2016.42984         5.41407         9.01313
     2016.43258         2.20255         9.11138
     2016.43531         2.50304         8.92697
     2016.43805        15.94253         8.93151
     2016.44079         5.89401         8.94058
     2016.44353         7.99850         9.11591
     2016.44626         6.28799         8.89372
     2016.44900         0.42247         9.00557
     2016.45174        12.21996         8.93906
     2016.45448        18.26745         8.97534
     2016.45722        15.59293         8.96174
     2016.45995        11.76342         8.84686
     2016.46269         9.67391         9.18695
     2016.46543         5.69339         8.86198
     2016.46817        10.35488         9.02976
     2016.47091         4.64137         9.10382
     2016.47364        13.83185         9.12347
     2016.47638        13.27634         8.93604
     2016.47912        12.43883         9.16277
     2016.48186         4.36032         9.05243
     2016.48459         9.17480         8.89977
     2016.48733        12.76029         9.04034
     2016.49007         6.09478         9.03882
     2016.49281        11.72326         8.85593
     2016.49555         2.56775         9.23079
     2016.49828         8.83024         8.97685
     2016.50102         7.43872         9.05999
     2016.50376        14.15821         9.06301
     2016.50650        10.38370         9.08568
     2016.50924        10.64018         8.95720
     2016.51197         5.94167         8.71687
     2016.51745        12.61564         9.50437
     2016.52019        18.16513         8.96930
     2016.52292        11.41262         9.05545
     2016.52566        14.75610         9.13103
     2016.52840        18.19159         8.89221
     2016.53114        10.92108         8.92244
     2016.53388        12.38356         8.91639
     2016.53661        20.96405         9.00406
     2016.53935        14.68254         8.94360
     2016.54209         8.37502         8.91639
     2016.54483        18.08451         9.14010
     2016.54757        10.56400         9.00255
     2016.55030        13.04648         9.24741
     2016.55304         8.37997         8.83628
     2016.55578        15.60846         9.04487
     2016.55852        20.19494         8.84686
     2016.56125        12.47643         8.85744
     2016.56399        13.85992         9.16428
     2016.56673        21.32441         9.07057
     2016.56947        14.04489         9.07964
     2016.57221        10.22738         9.11289
     2016.57494        13.27287         9.20207
     2016.57768         6.33435         8.86047
     2016.58042        18.08284         8.80756
     2016.58316        11.16333         8.95116
     2016.58590        14.80381         9.19904
     2016.58863        11.26030         8.99953
     2016.59137        12.35579         9.07812
     2016.59411        13.00727         8.90279
     2016.59685        20.52976         9.10835
     2016.59958        19.20225         8.88012
     2016.60232        22.15173         8.91790
     2016.60506         4.65122         9.59808
     2016.61054         5.76219         8.97383
     2016.61327         8.15868         8.89977
     2016.61601         9.77617         9.03127
     2016.61875        10.16865         8.89070
     2016.62149         6.79714         8.84233
     2016.62423        20.28163         9.08870
     2016.62696        18.21011         8.75164
     2016.62970         1.54060         8.82570
     2016.63244         5.40909         8.90581
     2016.63518        18.62657         9.12196
     2016.63791        23.11406         9.09626
     2016.64065        24.14555         8.90279
     2016.64339        17.62803         8.80454
     2016.64613        19.38952         8.82419
     2016.64887        13.63301         8.84384
     2016.65160        13.18050         9.03278
     2016.65434        22.71598         9.35473
     2016.65708        15.79947         8.82419
     2016.65982        17.68896         9.03127
     2016.66256         9.78444         9.11591
     2016.66529        16.55893         9.00859
     2016.66803        18.95642         9.41519
     2016.67077        14.07090         9.07964
     2016.67351        16.03339         8.97383
     2016.67624        14.27788         8.82117
     2016.67898        17.41936         8.66850
     2016.68172        18.33185         8.72897
     2016.68446        23.90034         9.35322
     2016.68720        13.07282         9.37136
     2016.68993        13.52531         8.95418
     2016.69267        17.90580         9.22625
     2016.69541        12.37028         9.04185
     2016.69815        19.52077         8.78338
     2016.70089        12.39226         8.82872
     2016.70362        10.36774         9.07359
     2016.70636         8.03123         9.31845
     2016.70910        16.98672         9.34113
     2016.71184        24.29020         9.30485
     2016.71457        26.75869         9.09777
     2016.71731        14.79318         8.98441
     2016.72005        13.79866         8.80756
     2016.72279        17.80715         8.81059
     2016.72553        13.50464         9.23079
     2016.72826        11.74312         9.21265
     2016.73100        14.32561         8.79547
     2016.73374        14.78510         9.02069
     2016.73648        32.50759         8.94209
     2016.73921        11.17607         8.81966
     2016.74195        13.13156         8.72443
     2016.74469         6.42105         9.05394
     2016.74743        15.97653         8.93604
     2016.75017        16.93202         8.88919
     2016.75290        14.15451         8.81512
     2016.75564        22.17799         8.96325
     2016.75838        18.73748         8.79245
     2016.76112        16.94297         8.83931
     2016.76386        22.51145         8.80605
     2016.76659        19.79694         8.94662
     2016.76933        19.82543         8.70932
     2016.77207        16.65991         8.72292
     2016.77481        18.87340         8.78036
     2016.77754        14.91289         8.62165
     2016.78028        12.21437         8.98139
     2016.78302        16.42086         8.89221
     2016.78576        19.78635         9.06452
     2016.78850        30.47483         9.15672
     2016.79123        23.05132         8.97534
     2016.79397        21.93381         8.67153
     2016.79671        16.29729         8.95720
     2016.79945         7.54578         8.86954
     2016.80219        16.95727         8.99953
     2016.80492        18.47775         8.85744
     2016.80766        13.82124         8.66850
     2016.81040         8.72273         8.81210
     2016.82956        10.27114         8.70932
     2016.83230        11.91362         8.71687
     2016.83504        14.85511         8.79547
     2016.83778        11.95960         8.82570
     2016.84052         4.96208         8.99650
     2016.84325         9.35057         8.96325
     2016.84599        -4.31694         9.02673
     2016.84873         7.97454         8.78791
     2016.85147         7.73403         8.84837
     2016.85420        -1.80948         8.98894
     2016.85694        11.22800         8.71536
     2016.85968         7.95349         8.92244
     2016.86242        10.85098         8.78640
     2016.86516        19.49646         9.00255
     2016.86789         9.62395         8.74106
     2016.87063        21.04344         8.78187
     2016.87337        14.22492         8.66548
     2016.87611        12.23041         8.70629
     2016.87885        10.14090         8.74408
     2016.88158        -1.58462         8.65641
     2016.88432         7.34687         8.91186
     2016.88706        18.46536         8.72141
     2016.88980        15.40084         8.81210
     2016.89253        10.09133         8.82419
     2016.89527        11.09782         8.61863
     2016.89801        13.79631         8.85291
     2016.90075         7.20479         8.80756
     2016.90349        15.46828         8.92848
     2016.90622        15.84777         8.83326
     2016.90896        10.23925         8.61560
     2016.91170         6.99574         8.85140
     2016.91444        11.51323         8.70327
     2016.91718         5.05771         8.98743
     2016.91991        13.20420         9.08870
     2016.92265         7.55269         8.93000
     2016.92539         7.17817         8.62467
     2016.92813         0.85566         8.86349
     2016.93086         2.07415         8.55816
     2016.93360         6.18863         8.58688
     2016.93634         7.43512         8.65490
     2016.93908         6.84361         8.80152
     2016.94182         8.20409         8.72292
     2016.94455         7.81158         8.77733
     2016.94729         6.64907         8.78791
     2016.95551         1.94753         8.54910
     2016.95824         6.68901         8.48712
     2016.97193         7.72445         8.81059
     2016.97467        16.44293         8.99348
     2016.97741        14.54942         8.64734
     2016.98015        14.29691         8.71536
     2016.98288         9.14440         8.44027
     2016.98562        10.45388         8.66850
     2016.98836         0.24937         8.82117
     2016.99384        28.46334         9.85504
     2016.99657        14.40783         8.81663
     2016.99931         5.56432         8.85140
     2017.00205         8.36680         8.69722
     2017.00479        10.18029         8.85140
     2017.00752         7.87778         8.71083
     2017.01026         7.15826         8.55665
     2017.01300        15.22775         8.69722
     2017.01574        18.48624         8.82721
     2017.01848        17.16172         8.80605
     2017.02121        18.63921         8.88767
     2017.02395        15.26670         8.88919
     2017.02669        12.10018         8.99348
     2017.02943        13.96867         8.53096
     2017.03216         8.19516         8.50677
     2017.03490        10.66964         8.71990
     2017.03764        13.42913         9.09022
     2017.04038        10.63262         8.96627
     2017.04312        16.60210         8.83175
     2017.04585        27.75059         9.14916
     2017.04859        21.34108         9.30334
     2017.05133        17.56356         8.81210
     2017.05407        17.96805         8.64886
     2017.05681        16.75054         8.56270
     2017.05954        11.13202         8.77280
     2017.06228        10.60451         8.75013
     2017.06502         0.78400         8.80454
     2017.06776         3.53449         8.75466
     2017.07049         7.88297         8.71083
     2017.07323         0.36846         8.67909
     2017.07597         5.80795         9.03278
     2017.07871         8.78743         9.00859
     2017.08145         4.77292         8.81512
     2017.08418        -1.97559         8.81210
     2017.08692         2.38689         8.67304
     2017.08966         1.01238         8.53398
     2017.09240         1.01987         8.74257
     2017.09514         8.68635         8.68513
     2017.09787         7.10084         8.84233
     2017.10061         5.76733         8.65339
     2017.10335         2.74281         8.76071
     2017.10882        19.88779         8.71838
     2017.11156         2.19127         8.99650
     2017.11430         1.63976         8.87709
     2017.11704        -2.22975         8.78187
     2017.11978         4.06073         8.77431
     2017.12251         8.16422         9.00708
