# ================= DQRFIT RESULTS ================
# INPUT FILE: series/XANE.rad
# OUTPUT: LDETRENDED
# FILTER FUNCTION: f(t)
# f(t)=+line(t)+annual(t)+jumps(t)
# line(t)=+P 1+P 2*t
# annual(t)=+P 3*sin(2*pi*t+P 4)
# jumps(t)=+P 5*heav(t-2019.5832  )
# heav(t)=(t<0?0:1)
# TOTAL OBSERVATIONS MTOT= 3078
# INITIAL TIME INTERVAL= 2021.8590 - 2012.1314 =  9.7276
# TOTAL OBSERVATIONS AFTER PREFILTER M= 2911
# TIME-SPAN= 2021.8590 - 2012.1314 =  9.7276
# OBSERVATIONS: USED M=  2911 REJECTED MTOT-M=   167 %USED=   94.5744
# N=  5 PARAMETERS
# MAXSIG= 175.00000
# MAXRES= 100.19932
# SCALE FACTOR FOR LENGTHS: SCL=  10.00000
# SCALE FACTOR FOR SIGMAS: SCLSIG=   1.00000
# CHI^2=  50790.755 DOF=  2906 CHI^2/DOF=  17.47789
# RMS=     28.794 SDEV=     28.798 MEAN=   -0.31293
#  P #       PARAMETER +-    SIGMA %error PARAMETER NAME
# P 1 =      5022.62692 +-  505.402  10.06 YZERO                              
# P 2 =        -2.49648 +-    0.251  10.04 SLOPE                              
# P 3 =         8.30116 +-    0.648   7.81 ANNUAL AMPLITUDE                   
# P 4 =         2.89668 +-    0.107   3.69 ANNUAL PHASE                       
# P 5 =        10.63400 +-    1.681  15.81 OFFSET 2019.5832                   
#       T            LDETRENDED       SIG_OBS
     2012.13141       -19.33527        22.61317
     2012.13415        -8.48742        22.62990
     2012.13689        -4.48460        22.94345
     2012.13963        -4.04876        23.06886
     2012.14236       -10.06293        23.59981
     2012.14510        -7.42609        22.67170
     2012.14784        -6.78526        22.31217
     2012.15058        -7.46042        22.17002
     2012.15332        -3.94458        22.60063
     2012.15605       -12.11375        22.63826
     2012.15879        -6.15392        22.72187
     2012.16153        -6.52408        22.45013
     2012.16427        -6.30725        22.64662
     2012.16700        -9.25641        22.52538
     2012.16974        -9.14058        22.39996
     2012.17248       -14.28873        22.38742
     2012.17522        -0.16991        22.70097
     2012.17796        -7.01207        22.73023
     2012.18069        -9.98624        22.61317
     2012.18343       -12.06840        22.25364
     2012.18617       -10.93257        22.65080
     2012.18891        -7.08073        22.59645
     2012.19164         1.55410        22.98943
     2012.19438        -5.41806        22.37488
     2012.19712        -2.33223        22.10731
     2012.19986        -6.19139        22.29126
     2012.20260       -10.49256        25.40167
     2012.20533        -7.63072        22.50448
     2012.20807        -7.57489        22.51702
     2012.21081        -3.44005        22.00698
     2012.21355        -5.83222        22.07805
     2012.21629        -0.62038        22.13240
     2012.21902       -13.71855        22.51702
     2012.22176       -13.30271        22.54628
     2012.22450       -12.11588        22.05297
     2012.22724       -12.81304        22.20765
     2012.22997        -6.44621        22.30380
     2012.23271        -5.22637        22.28290
     2012.23545        -3.67454        22.17838
     2012.23819        -5.56970        22.16584
     2012.24093        -6.15987        22.18675
     2012.24366        -8.49603        23.12321
     2012.24640       -13.39620        22.43759
     2012.24914       -10.43236        22.40832
     2012.25188        -8.62453        21.94427
     2012.25462       -13.56269        21.93591
     2012.25735       -11.53386        22.08641
     2012.26009       -11.01302        22.07805
     2012.26283       -15.19019        22.37488
     2012.26557       -14.85435        21.92336
     2012.26831       -11.32451        21.91918
     2012.27104        -9.49668        22.60899
     2012.27378        -6.51385        22.05297
     2012.27652        -5.18401        21.99862
     2012.27926        -6.58518        22.55046
     2012.28199       -10.63934        22.01116
     2012.28473       -10.25651        22.32053
     2012.28747        -9.47367        22.14076
     2012.29021       -10.90084        22.01534
     2012.29295       -15.44700        22.12822
     2012.29568       -18.39617        22.01116
     2012.29842       -11.90133        22.97689
     2012.30116       -23.12250        22.64662
     2012.30390       -19.51666        22.27454
     2012.30664       -14.68682        21.96099
     2012.30937        -5.05399        22.23691
     2012.31211        -7.45116        23.41168
     2012.31485        -9.34432        22.81384
     2012.31759       -12.13149        22.11986
     2012.32032       -10.30665        22.34561
     2012.32306       -14.96982        22.23273
     2012.32580       -17.66997        22.02788
     2012.32854        -9.49615        22.28708
     2012.33128        -4.95531        22.56301
     2012.33401       -12.69548        22.55046
     2012.33675       -11.41364        22.51702
     2012.33949       -13.89281        21.96935
     2012.34223       -19.34497        22.11986
     2012.34497       -21.44813        21.93173
     2012.34770       -14.39930        22.37070
     2012.35044       -13.47647        22.12404
     2012.35318       -23.02663        22.17838
     2012.35592       -19.40680        21.99444
     2012.35865       -13.40296        21.99862
     2012.36139       -12.14613        21.86902
     2012.36413       -12.67228        24.80384
     2012.36687       -11.20846        21.98189
     2012.36961       -12.53362        22.20765
     2012.37234        -5.08979        22.04878
     2012.37508       -11.57395        21.94009
     2012.37782       -10.62112        22.49193
     2012.38056       -13.90728        22.56719
     2012.38330        -6.19144        22.46685
     2012.38603        -9.41561        22.59645
     2012.38877       -17.05778        22.78458
     2012.39151        -8.36894        22.50866
     2012.39425        -7.62411        22.13240
     2012.39698        -3.40827        22.67170
     2012.39972        -6.70044        22.02788
     2012.40246       -13.72360        22.65498
     2012.40520       -12.70277        22.03624
     2012.40794       -18.66093        22.06133
     2012.41067       -15.80410        22.11568
     2012.41341       -15.46426        22.07387
     2012.41615        -3.37243        22.20347
     2012.41889        -5.95959        22.89746
     2012.42162       -10.05376        22.05715
     2012.42436        -8.02192        21.90664
     2012.42710       -11.10509        21.95681
     2012.42984       -12.87425        22.00280
     2012.43258        -6.73742        22.11149
     2012.43531       -12.04158        21.88992
     2012.43805       -10.34175        21.94427
     2012.44079       -26.36590        22.27454
     2012.44353       -20.32608        22.05715
     2012.44626        -9.91724        22.26618
     2012.44900       -20.36241        22.36651
     2012.45174       -19.51757        22.09477
     2012.45448       -10.74274        22.26618
     2012.45722       -16.18890        22.27036
     2012.45995         3.06793        23.01452
     2012.46228       -15.12227        27.62160
     2012.47091       -11.71573        22.13658
     2012.47364        -7.97189        22.31635
     2012.47638       -15.94906        25.29297
     2012.47912        -2.45022        22.44177
     2012.48186        -9.15739        21.96099
     2012.48459        -9.77855        22.03624
     2012.48733       -12.15472        22.01116
     2012.49007       -11.74488        21.96517
     2012.49281        -5.05305        22.39996
     2012.49555        -6.72221        22.12404
     2012.49833       -12.45826        22.28290
     2012.50102        -7.52754        22.39578
     2012.50376       -13.63571        22.18257
     2012.50650        -3.26687        21.86902
     2012.50924        -6.27004        22.59227
     2012.51197        -4.22120        22.33725
     2012.51471        -9.57137        22.17420
     2012.51745       -12.82052        22.14912
     2012.52019        -0.29770        22.98107
     2012.52292       -14.39486        22.80966
     2012.52566       -11.49203        22.28708
     2012.52840        -3.84719        22.01116
     2012.53114        -6.29536        22.68843
     2012.53388       -16.02152        23.03960
     2012.53661       -15.91969        22.95181
     2012.53935        -2.51485        23.38241
     2012.54209         3.12298        22.68006
     2012.54483       -16.40718        22.34561
     2012.54757        -5.84235        22.32053
     2012.55030        -4.67751        22.82221
     2012.55304        -0.47468        22.00280
     2012.55578        -3.60283        22.17838
     2012.55852       -10.31201        22.09895
     2012.56125         0.84983        23.31134
     2012.56399        -5.10234        22.43759
     2012.56673        -2.21850        22.32889
     2012.56947        -0.06467        22.86401
     2012.58590        -2.62166        22.50866
     2012.58858         1.30303        22.14912
     2012.59138         0.61104        22.27454
     2012.59411         1.36486        22.01952
     2012.59685         0.25368        22.55882
     2012.59958         2.54752        22.17838
     2012.60232       -19.31065        23.59981
     2012.60506        -4.14481        22.75532
     2012.60780        -4.67198        22.45849
     2012.61054        -4.16914        22.51284
     2012.61328         1.68870        22.04460
     2012.61601        -0.78047        22.34561
     2012.61875        -8.49264        22.54210
     2012.62423         5.24603        22.17420
     2012.64613      -727.83129     24917.49607
     2012.64887         5.23455        21.99026
     2012.65161         9.26739        22.23691
     2012.65434         6.19422        23.02288
     2012.65606         1.62251        48.66285
     2012.68720         6.05724        22.07387
     2012.68993         8.20307        22.85983
     2012.69267         5.33491        23.37405
     2012.69541        -0.88126        22.42086
     2012.75290         5.89628        22.71769
     2012.75564         2.10611        22.05715
     2012.75838         1.66595        22.13240
     2012.76112         2.95978        22.19511
     2012.76386         1.34862        22.22855
     2012.76659         6.68945        22.35815
     2012.76933         6.16129        22.38324
     2012.77207         6.43712        22.55046
     2012.77754         2.93379        22.19093
     2012.78028         1.65463        23.19428
     2012.78302        -6.24954        22.74277
     2012.78576         3.01531        22.51702
     2012.78850         3.82113        23.07305
     2012.79414         8.06523        24.75367
     2012.79671         1.21264        22.47103
     2012.82683        -7.88118        23.14830
     2012.82956         4.02566        23.06050
     2012.83230         2.51649        22.32471
     2012.83379        12.47122        83.69257
     2012.85694        -1.65299        22.73023
     2012.93360        -0.54461        28.22361
     2012.93634        -9.21778        23.96353
     2012.93908        -1.41794        24.18928
     2012.94182        -5.23911        27.71357
     2012.95277         3.41823        24.97106
     2012.95551         1.68807        24.16420
     2012.95824         0.67290        28.23198
     2012.96098         3.03374        23.04378
     2012.96372        -2.73443        22.41250
     2012.96646        -0.21559        22.15748
     2012.96919        -7.98276        22.76368
     2012.97193        -4.61292        24.80802
     2012.97467        -2.08108        22.94763
     2012.97741        -3.44725        22.77204
     2012.98014        -7.62843        23.80048
     2012.98285       -16.32767        86.35147
     2012.99150        21.67892       113.51320
     2013.07721         8.47989        95.52383
     2013.07871        -3.40636        22.52120
     2013.08145        -3.05452        22.69261
     2013.08418        -7.37769        22.30799
     2013.08692       -11.77385        22.73441
     2013.08966       -13.23702        22.72605
     2013.09240        -8.61117        22.51284
     2013.09514        -4.43435        22.24109
     2013.09787        -0.84351        23.53292
     2013.10061        -6.49068        23.71269
     2013.10335        -8.71184        22.58391
     2013.10594        -5.25737        24.22691
     2013.11720       -16.50127        24.72441
     2013.11978       -13.47283        23.51620
     2013.12251       -12.84800        22.87237
     2013.12525       -15.20416        22.60481
     2013.12799        -7.56033        22.65498
     2013.13073       -12.18949        22.58809
     2013.13347        -7.40666        22.83893
     2013.13618        -3.88688        22.73859
     2013.13894        -3.23599        22.63408
     2013.14168         0.09985        22.78876
     2013.14442        -3.29932        23.28626
     2013.14715        -3.73148        23.28626
     2013.14990       -17.59464        22.45013
     2013.15263       -10.14381        22.75950
     2013.15537       -19.08598        22.61735
     2013.15811       -12.76114        22.69261
     2013.16084       -13.79531        22.35397
     2013.16358       -15.18147        23.07723
     2013.16632       -12.44664        22.60063
     2013.16906        -4.91580        22.81803
     2013.17180       -10.73997        22.55046
     2013.17453        -9.08913        22.27036
     2013.17727       -17.89430        22.79294
     2013.18001        -8.97346        23.22773
     2013.18275        -9.10863        22.58809
     2013.18548        -9.96079        22.55464
     2013.18823       -14.47595        22.46685
     2013.19096        -9.45312        22.76368
     2013.19370       -13.56829        22.76786
     2013.19644       -13.96845        22.73859
     2013.19917       -12.63562        22.68006
     2013.20191        -9.67478        22.61735
     2013.20465        -8.61895        22.73023
     2013.20739        -6.64011        23.16920
     2013.21013        -6.96028        22.44595
     2013.21286        -8.33344        22.38324
     2013.21560        -8.86261        22.74695
     2013.21834        -2.52077        22.70097
     2013.22108       -17.47094        22.52956
     2013.22381       -10.80210        22.60481
     2013.22655       -12.53127        22.38324
     2013.22929       -12.10943        22.18257
     2013.23203       -12.36460        22.29126
     2013.23477        -9.86876        22.19511
     2013.23750       -15.39193        22.92254
     2013.24024       -13.90609        23.05214
     2013.24298        -9.60826        22.84311
     2013.24572        -6.69541        23.06886
     2013.24846        -5.27059        22.73441
     2013.25119       -13.10075        23.10649
     2013.25393        -9.23192        22.92254
     2013.25667        -6.96008        23.53710
     2013.25941        -3.38825        23.00616
     2013.26214        -0.97341        23.02706
     2013.26488        -3.65658        22.81803
     2013.26762        -6.82474        22.83475
     2013.27036       -12.79191        22.76786
     2013.27310       -11.65807        23.27790
     2013.27583        -7.29524        23.57054
     2013.27857        -9.26440        23.08141
     2013.28131        -7.81557        23.19847
     2013.28405       -18.94073        23.19428
     2013.28679        -8.91190        22.61317
     2013.28952       -10.56006        23.82138
     2013.29226       -12.51123        22.51284
     2013.29500       -13.13639        22.78458
     2013.29765       -18.95077        23.92172
     2013.31690        -8.01671        23.00616
     2013.31964       -13.21188        22.65916
     2013.32238        -8.69904        22.52538
     2013.32512        -1.91521        22.99779
     2013.32785       -15.18537        22.75113
     2013.33059       -15.40054        22.65498
     2013.33333       -15.06270        22.55464
     2013.33607       -16.17087        22.57555
     2013.33880        -8.39603        22.80548
     2013.34155         1.85781        22.92254
     2013.34428        -5.77836        22.89746
     2013.34702        -5.35553        22.64244
     2013.34976        -9.66069        23.28208
     2013.35249        -6.13886        22.67588
     2013.35523        -5.39902        23.21937
     2013.35797        -6.12819        22.59227
     2013.36071        -9.77334        23.19010
     2013.36344       -14.55952        23.07305
     2013.36618        -8.99068        22.68006
     2013.36892        -5.74885        22.77204
     2013.37166       -10.97901        22.79294
     2013.37440        -4.26518        22.60481
     2013.37713       -10.71334        22.60481
     2013.37987       -14.34751        22.50448
     2013.38261       -12.10867        22.67588
     2013.38535        -6.82884        22.60063
     2013.38809        -7.56500        22.49193
     2013.39082        -4.22417        22.50030
     2013.39236       -32.24532       109.45796
     2013.39907        -4.94558        26.66005
     2013.40177        -6.55483        22.57137
     2013.40451        -7.45799        22.59645
     2013.40725         0.20884        23.23191
     2013.40999        -3.87232        23.34061
     2013.41273        -8.77549        22.68006
     2013.41546        -8.29265        23.22355
     2013.41821       -13.66081        22.90164
     2013.42094        -6.40698        22.62990
     2013.42368       -12.61015        22.65498
     2013.42642        -1.43131        22.77204
     2013.42915        -5.59348        22.80130
     2013.43190       -15.05063        23.15666
     2013.43463        -3.84281        23.12739
     2013.43737       -22.07996        22.77204
     2013.44010        -9.48914        22.88074
     2013.44284        -9.19530        22.94345
     2013.44558       -11.91247        23.27372
     2013.44832       -13.86663        22.65080
     2013.45106       -10.59380        22.52538
     2013.45379        -2.19496        22.53374
     2013.45654        -4.88112        22.67170
     2013.45927        -9.28229        28.58315
     2013.46201        -5.84646        23.35733
     2013.46475        -5.68962        22.89746
     2013.46748        -2.34979        22.37070
     2013.47022        -4.96195        22.53374
     2013.47296        -5.02712        22.60063
     2013.47570        -4.89927        22.38324
     2013.47763         2.29054        38.23211
     2013.48121        -4.15253        31.32148
     2013.48391         7.43922        24.43176
     2013.48665        -6.75494        29.56979
     2013.48939        -5.18711        24.13075
     2013.49212        -6.80527        27.98950
     2013.49486        -5.10644        27.76374
     2013.49760        -3.90160        24.50701
     2013.50034        -5.48077        22.33307
     2013.50308       -18.00993        22.83475
     2013.50581       -15.43210        22.51702
     2013.50855       -12.71926        22.59227
     2013.51129        -7.40743        22.31217
     2013.51403        -3.77158        22.47521
     2013.51676        -6.32876        23.32807
     2013.51950        -1.29492        22.52120
     2013.52224        -2.85909        23.07305
     2013.52498        -0.77125        23.27372
     2013.52772        -0.99442        22.57555
     2013.53023        -7.48615        24.09313
     2013.56149        -5.99011        43.34505
     2013.56331       -11.65056        23.18174
     2013.56605       -10.58473        22.50866
     2013.56878         0.73011        22.80966
     2013.57152        -4.46706        22.64662
     2013.57426         2.51178        22.64662
     2013.57700         1.62861        22.52120
     2013.57974        -2.79955        22.85983
     2013.58247         0.58028        22.32471
     2013.58521        -0.59388        22.64244
     2013.58795         2.02395        22.58809
     2013.59069         6.57979        22.83893
     2013.59342         1.75462        23.34479
     2013.59616        -2.34154        22.70515
     2013.59890         2.11129        22.94763
     2013.60164         0.14213        23.21101
     2013.60438         6.85796        22.51284
     2013.60711        -2.64220        22.67170
     2013.60985         2.33663        23.45349
     2013.61259        -1.95753        23.05214
     2013.61533         0.18430        23.71269
     2013.61807         2.02214        22.98943
     2013.62080         4.60797        23.06886
     2013.62354        -2.46319        23.18174
     2013.62628        -2.68636        22.64662
     2013.62902        -1.92852        22.88910
     2013.63175        -0.00069        23.10649
     2013.63449         2.20714        23.56218
     2013.63723         3.85898        22.35815
     2013.63997         7.13081        22.42922
     2013.64271         3.66665        22.33725
     2013.64544         8.53648        22.38324
     2013.64818         3.66532        22.78458
     2013.65092        10.46415        22.80966
     2013.65366         2.86899        22.45431
     2013.65639         6.66082        22.70933
     2013.65913         6.58666        23.20683
     2013.66187       -11.30851        23.16920
     2013.66461         0.99733        22.53374
     2013.66735         6.53216        22.64662
     2013.67008         0.08400        22.91418
     2013.67282         1.91683        23.59981
     2013.67556         8.23767        23.28626
     2013.67830        10.13050        22.78040
     2013.68104         1.73234        23.42004
     2013.68377         2.90117        22.26200
     2013.68651         2.71301        22.24946
     2013.68925        -2.34016        23.01452
     2013.69199         4.44668        22.27872
     2013.69472         4.72451        22.28290
     2013.69746         2.68435        22.26200
     2013.70020        11.11518        22.51284
     2013.70294         9.94802        22.52538
     2013.70568        11.40885        22.31635
     2013.70841        -4.35631        22.97271
     2013.71115         1.73352        22.36233
     2013.71389         4.19736        22.27036
     2013.71663         2.77019        22.32471
     2013.71937         7.21703        22.15330
     2013.72210        12.64186        22.38742
     2013.72484         6.90670        22.33725
     2013.72758         1.99853        22.76368
     2013.73032         2.29537        22.48775
     2013.73305         9.00920        22.19093
     2013.73579         1.72504        22.09059
     2013.73853         4.99187        22.15748
     2013.74127         4.07671        22.50866
     2013.74401        14.30854        23.36569
     2013.74674        -1.65962        23.20265
     2013.74948       -10.53179        32.41681
     2013.75222        -1.20895        22.42922
     2013.75496        -1.49112        22.22855
     2013.75770        -8.56828        22.97271
     2013.76043        -6.83645        22.42922
     2013.76317        -4.48461        22.13240
     2013.76591         7.71122        22.88074
     2013.76865         7.44706        22.53792
     2013.77138         1.53489        22.36233
     2013.77412        -2.78027        22.84729
     2013.77686        -3.87344        22.31635
     2013.77954        -0.22274        22.91000
     2013.78182        -4.87505        27.60488
     2013.78781        -9.69910        22.57973
     2013.79055        -0.05826        22.71769
     2013.79329        -4.03343        22.24946
     2013.79603        -1.82559        22.05297
     2013.79876        -3.33776        22.45849
     2013.80150         1.54008        22.75950
     2013.80424         0.40591        22.66752
     2013.80698        -0.67125        22.32471
     2013.80971         0.80558        22.29126
     2013.81245         0.41742        22.10731
     2013.81519        -4.43575        22.50866
     2013.81793        -6.62491        22.31217
     2013.82067       -10.79408        23.07723
     2013.82335        -1.99338        23.19010
     2013.82574         6.71259        27.94769
     2013.82888         2.59043        22.70933
     2013.83162        -6.78574        22.71351
     2013.83436         2.07110        23.06886
     2013.83709         2.71093        22.67170
     2013.83983         1.75977        22.60481
     2013.84257        -1.92140        22.54628
     2013.84531         0.89844        22.52120
     2013.84804        -6.10473        22.41250
     2013.85078        -1.20389        22.53374
     2013.85352        -3.46506        22.10313
     2013.85626        -4.26222        22.38742
     2013.85900        -0.00239        22.02370
     2013.86173        -2.18955        22.20765
     2013.86447        -1.10672        22.57137
     2013.86721        -5.06888        22.32889
     2013.86995        -1.68805        22.08223
     2013.87269        -0.03621        22.07805
     2013.87542         0.17962        22.33725
     2013.87816         1.39646        22.41668
     2013.88090        10.10229        22.70515
     2013.88364        10.99113        23.36151
     2013.88637         2.04296        22.09477
     2013.88911        -6.11720        22.26200
     2013.89185       -12.05637        22.19929
     2013.89459        -9.28053        22.33725
     2013.89687        -2.15282        27.92261
     2013.90652        -5.60775        40.36842
     2013.90828         0.15464        22.37488
     2013.91102        -3.89352        22.51702
     2013.91375        -7.60369        22.17002
     2013.91649         2.30215        22.08641
     2013.91923         9.26598        22.99361
     2013.92197        -2.04018        22.57137
     2013.92470        -3.14435        22.24528
     2013.92744        -1.94451        22.72605
     2013.93018        -2.07368        36.70617
     2013.93292        -3.19184        21.99444
     2013.93566        -2.90501        22.60063
     2013.93839        -5.70717        22.36651
     2013.94113        -2.93934        22.21601
     2013.94301        -4.34364        34.96283
     2013.94661         1.18633        22.47103
     2013.94935        -0.94383        22.04460
     2013.95208        -3.48900        22.28290
     2013.95374       -16.20687        58.05260
     2013.95881        12.51081       284.26999
     2013.96030        -2.97649        22.23691
     2013.96303         2.81634        22.26200
     2013.96577        -2.79882        22.14912
     2013.96851         1.46701        22.27454
     2013.97125         2.68685        22.16166
     2013.97399         7.70968        22.40414
     2013.97672        -4.47448        22.72605
     2013.97946        -9.42665        22.14076
     2013.98220        -6.63381        22.27872
     2013.98494        -6.03898        22.19511
     2013.98767        -8.82114        22.32889
     2013.99041       -10.13231        22.22437
     2013.99315       -12.35147        22.42922
     2013.99589        -2.13964        22.49193
     2013.99863        -6.54880        22.76368
     2014.00410        -4.19913        22.54210
     2014.00684        -8.77530        22.60063
     2014.00958        -7.25946        22.42504
     2014.01232        -9.81863        22.62153
     2014.01505        -8.38779        22.73441
     2014.01779        -3.75296        23.11485
     2014.02053        -2.11312        22.36651
     2014.02327        -6.45129        23.45349
     2014.02600         2.63955        23.34061
     2014.02874        -1.58162        22.60063
     2014.03148        -1.22678        22.38324
     2014.03422        -2.96495        22.28708
     2014.03696       -10.31211        22.60899
     2014.03969        -5.64728        22.24109
     2014.04243        -8.77344        22.98107
     2014.04517        -3.57261        22.73859
     2014.04791        -1.99277        22.27454
     2014.05065        -1.29694        22.16166
     2014.05338        -7.61910        22.21183
     2014.05612        -9.18927        22.35815
     2014.05886       -11.03143        22.31217
     2014.06160        -1.61860        22.05297
     2014.06433        -3.61176        23.06050
     2014.06707        -1.24193        22.76786
     2014.06981        -3.01009        22.74277
     2014.07255        -4.48226        22.19929
     2014.07529        -5.71942        22.45849
     2014.07802       -10.80659        22.34143
     2014.08076        -5.61775        21.94845
     2014.08344        -1.65206        22.53374
     2014.08624        -5.94808        22.42922
     2014.09017        -1.14426        91.15086
     2014.09171        -5.74241        23.09395
     2014.09445        -7.62758        22.11568
     2014.09711       -10.39994        23.43258
     2014.09995        -2.20485        22.74277
     2014.10266        -3.20807        22.83057
     2014.10540         0.35976        22.07387
     2014.10814        -8.38840        21.98189
     2014.11088        -2.76157        22.69261
     2014.11362        -7.40773        22.43759
     2014.11635        -7.42090        22.70515
     2014.11909        -6.11306        22.57137
     2014.12183        -3.36523        22.59645
     2014.12457       -15.12639        29.45273
     2014.12731       -12.03256        22.26200
     2014.13004        -0.01572        22.26618
     2014.13278        -4.12589        22.76786
     2014.13552        -3.54005        23.13157
     2014.13805       -12.52274        26.64751
     2014.14099        -4.40438        22.59227
     2014.14373        -3.63555        22.52538
     2014.14647        -8.35271        22.34143
     2014.14921        -8.58088        22.23273
     2014.15195       -10.72204        22.47939
     2014.15468        -3.76121        22.49193
     2014.15742        -2.00237        22.88910
     2014.16016        -1.57054        23.35315
     2014.16290        -5.64370        22.70933
     2014.16564        -9.87787        22.48357
     2014.16837        -9.87603        23.11903
     2014.17111        -3.57220        23.25281
     2014.17385        -6.63136        24.03878
     2014.17659        -2.72453        22.64244
     2014.17932        -8.97069        23.80466
     2014.18206        -6.82986        23.08559
     2014.18480        -5.51402        22.47521
     2014.18754        -8.91119        25.08394
     2014.19028        -8.51035        23.77958
     2014.19301        -5.60652        22.60899
     2014.19575        -7.48868        22.67588
     2014.19849       -10.13385        23.42004
     2014.20123        -7.48701        22.94763
     2014.20397       -13.10118        22.83893
     2014.20670       -12.03234        22.75950
     2014.20944       -10.54851        22.65498
     2014.21218        -4.90867        23.02706
     2014.21492        -8.71384        23.53292
     2014.21765        -8.79800        22.61735
     2014.22039        -8.94017        34.08490
     2014.22313        -8.87333        22.49611
     2014.22588        -8.45046        23.37823
     2014.22861         0.62734        22.76786
     2014.23134         0.04217        22.66752
     2014.23408        -3.58599        22.72605
     2014.23682        -5.32816        22.42086
     2014.23956        -4.07632        23.28208
     2014.24230       -10.19549        22.92672
     2014.24503       -10.39465        22.92672
     2014.24777        -2.18482        24.43594
     2014.25051        -8.83998        22.45013
     2014.25325       -10.56915        22.68843
     2014.25598       -12.70931        23.30298
     2014.25872        -6.36148        22.48775
     2014.26146        -8.99864        23.45349
     2014.26420       -11.02481        22.40832
     2014.26694       -14.31797        22.63408
     2014.26967        -7.16914        23.37405
     2014.27241       -11.99530        23.16084
     2014.27515       -13.37047        23.26118
     2014.27789        -7.67063        22.63826
     2014.28062       -10.17380        22.47939
     2014.28336        -4.67296        22.37488
     2014.28610         4.65887        23.57891
     2014.28884       -11.86029        23.53710
     2014.29158       -14.66346        22.43341
     2014.29431        -4.49362        22.54210
     2014.29705        -4.38579        22.57137
     2014.29979       -13.79995        22.78458
     2014.30253        -6.94512        22.49611
     2014.30527        -1.50128        22.57137
     2014.30800       -10.74345        22.41250
     2014.31074        -0.63861        22.72187
     2014.31348        -7.01178        22.77622
     2014.31622        -8.52294        22.47103
     2014.31895        -5.89011        22.52538
     2014.32169        -9.73527        23.03124
     2014.32443       -15.79044        22.98107
     2014.32717       -14.27260        23.01870
     2014.32991        -6.11877        22.37906
     2014.33264       -13.31193        22.42086
     2014.33538       -14.95610        22.65498
     2014.33812       -12.10826        22.90582
     2014.34086        -4.51743        22.41250
     2014.34360        -9.93259        22.55046
     2014.34633        -6.22476        22.56301
     2014.34907       -10.05892        23.14412
     2014.35181        -7.93809        23.19428
     2014.35455       -10.15225        22.28708
     2014.35728       -11.72942        22.43759
     2014.36002       -15.08458        22.34979
     2014.36276       -16.76175        22.32471
     2014.36550        -7.66591        22.57555
     2014.36824       -11.95408        22.60063
     2014.37097        -9.41924        23.21101
     2014.37371       -21.08041        22.57973
     2014.37645        -9.78457        22.41668
     2014.37919        -7.66274        22.68006
     2014.38193       -13.20690        22.78040
     2014.38466       -12.99907        22.77622
     2014.38740       -10.51723        22.81384
     2014.39014       -13.07540        23.02288
     2014.39288       -11.97156        22.87655
     2014.39561        -8.15673        22.93090
     2014.39835       -14.87889        23.45349
     2014.40109       -10.39906        22.81384
     2014.40383       -10.93622        22.67588
     2014.40657       -10.34439        22.86819
     2014.40930       -12.23055        22.66752
     2014.41204       -11.56372        22.52538
     2014.41478       -12.28688        22.51284
     2014.41752        -4.30905        22.63408
     2014.42026       -10.46621        23.02706
     2014.42299        -8.85938        23.07723
     2014.42573       -19.28754        22.62572
     2014.42847       -10.16071        22.74277
     2014.43121       -14.92187        22.55882
     2014.43394       -13.83604        22.77204
     2014.43668        -2.53820        23.16502
     2014.43942       -11.37637        22.59227
     2014.44216        -6.78353        22.94763
     2014.44490        -2.00770        23.80048
     2014.44763        -3.99286        22.92254
     2014.45037       -11.36903        22.50030
     2014.45311        -7.87519        22.50448
     2014.45585        -3.84736        22.58809
     2014.45859       -10.93052        22.56301
     2014.46132       -14.39169        22.61317
     2014.46406       -14.92985        23.05214
     2014.46680        -2.34102        23.07723
     2014.46954       -10.44918        22.33307
     2014.47227        -3.47835        22.83057
     2014.47501        -0.86951        22.75113
     2014.47775       -10.11568        23.06886
     2014.48049        -7.54684        22.70515
     2014.48323        -4.53401        22.91836
     2014.48596         3.71783        22.96853
     2014.48870         3.48266        23.21937
     2014.49144        -5.04550        22.42922
     2014.49418        -7.81667        22.30380
     2014.49692        -8.31983        22.34143
     2014.49965        -6.03900        22.43759
     2014.50239       -17.65916        23.40750
     2014.50513       -10.49333        23.01034
     2014.50787         5.53451        22.77204
     2014.51060        -8.29166        22.58391
     2014.51334        -4.50182        22.89328
     2014.51608         0.04801        22.82221
     2014.51882        -5.29215        23.56636
     2014.52156        -4.65432        22.94763
     2014.52429        -1.37948        22.39578
     2014.52703         5.40035        22.66752
     2014.52977        -4.01581        22.62990
     2014.53251        -3.14998        23.20265
     2014.53525         0.11586        22.88910
     2014.53798        -1.62731        22.70933
     2014.54072       -12.41647        23.33225
     2014.54346       -21.17664        23.23191
     2014.54620         2.60720        23.52038
     2014.54893         0.54103        23.13157
     2014.55167        -6.70113        22.98107
     2014.55441        -5.77430        22.75950
     2014.55715        -7.75446        23.54546
     2014.55989       -14.98463        22.60063
     2014.56262         5.04921        22.42504
     2014.56536        -2.51796        22.60063
     2014.56810         1.33988        22.76786
     2014.57084        -1.27529        23.02288
     2014.57357        -4.20745        23.04796
     2014.57631        -9.54162        23.20265
     2014.57905        -9.07778        23.16920
     2014.58179         1.57905        22.72187
     2014.58453        -3.39211        22.95181
     2014.58726         1.36172        24.51537
     2014.59000        -2.48844        23.39496
     2014.59274       -10.85361        23.21101
     2014.59548       -13.58277        23.27790
     2014.59822        -5.97994        23.64998
     2014.60095        -3.70710        23.30298
     2014.60369        -9.35227        23.41586
     2014.60643        -6.06043        22.94345
     2014.60917        -6.19560        23.07723
     2014.61190         3.84224        23.36987
     2014.61464         2.16407        23.15248
     2014.61738        -0.67909        24.67424
     2014.62012        -1.42726        23.29880
     2014.62286        -2.91542        22.77622
     2014.62559         1.51041        22.71769
     2014.62833        -3.57975        23.30716
     2014.63107        -8.45692        24.30216
     2014.63381        -1.22408        23.88409
     2014.63655         0.04575        23.57054
     2014.63928         0.73859        23.09813
     2014.64202        -2.66158        22.69679
     2014.64476         2.26826        23.31970
     2014.64750         2.22109        22.70933
     2014.65023        -2.02707        22.92254
     2014.65297         3.39876        22.89328
     2014.65571        -2.12040        22.85565
     2014.65845        -3.47257        23.46185
     2014.66119        -9.25073        23.11485
     2014.66392         0.16210        22.98107
     2014.66666        -7.48006        22.63826
     2014.66940         7.20777        22.56719
     2014.67214        -3.37439        23.14830
     2014.67488         1.35044        22.61317
     2014.67761        -3.15472        22.88074
     2014.68035         4.23411        22.62990
     2014.68309        -2.26005        22.72187
     2014.68583        -0.80222        22.64662
     2014.68856        -6.28338        23.05632
     2014.69130        -1.71155        22.78458
     2014.69404        -3.15071        22.53792
     2014.69678        -1.43388        22.30380
     2014.69952         1.76296        22.27036
     2014.70225         1.56479        22.53374
     2014.70499         1.83263        22.61735
     2014.70773         8.32746        22.95599
     2014.71047         3.65730        23.00197
     2014.71321         1.31713        22.48775
     2014.71594        -5.58603        23.70432
     2014.71868         2.59280        22.71769
     2014.72142         3.62264        22.65080
     2014.72416         7.87547        22.78040
     2014.72689         9.15231        22.66334
     2014.72963         5.94014        22.55046
     2014.73237         2.80698        22.90164
     2014.73511        -2.29319        22.49611
     2014.73785        -9.07335        22.58809
     2014.74058        -1.17352        22.39996
     2014.74332        -0.67468        23.17756
     2014.74606        -3.08685        23.65416
     2014.74880        -2.62001        22.65080
     2014.75154        -0.07818        23.44930
     2014.75427         2.59866        22.74695
     2014.75701         2.59649        22.89746
     2014.75975         1.83233        23.29462
     2014.76249         7.01316        22.73023
     2014.76522        -2.20500        22.77204
     2014.76794        -4.64121        23.77958
     2014.77002         4.01896        30.62749
     2014.79352         5.69063        40.77813
     2014.79534         3.44018        22.68006
     2014.79808         4.91102        23.09813
     2014.80082        -1.99715        22.80966
     2014.80355        -0.57431        22.98107
     2014.80629         4.92452        22.78040
     2014.80903        -1.45064        23.18174
     2014.81177         3.11019        22.69679
     2014.81451         5.87403        22.52538
     2014.81724         6.82186        22.72187
     2014.81998        -2.44930        22.66752
     2014.82272         1.77253        23.52874
     2014.82546         2.45637        22.90582
     2014.82820        -2.11180        22.28708
     2014.83093         2.09104        22.70097
     2014.83367        -1.57713        22.68006
     2014.83641        -4.09229        22.66752
     2014.83915        -3.96946        28.53716
     2014.84188        -8.21762        23.29880
     2014.84462        -7.38479        23.45349
     2014.84736        -5.63295        23.67924
     2014.85010        -6.49612        23.13157
     2014.85284        -2.34328        22.61735
     2014.85557        -9.26145        23.97607
     2014.85831        -0.53861        23.09813
     2014.86105        -7.12878        22.66334
     2014.86379        -6.84794        22.65498
     2014.86653        -2.81311        22.68424
     2014.86926        -3.71427        22.70933
     2014.87200        -3.32644        22.81803
     2014.87474        -6.43060        22.66752
     2014.87748        -5.84377        22.60063
     2014.88021        -1.96293        22.87655
     2014.88295        -1.92510        22.86401
     2014.88569        -1.37926        23.98443
     2014.88843         2.11057        23.68342
     2014.89117        -1.35159        24.15166
     2014.89390        -2.36276        23.38659
     2014.89664         1.75108        23.43676
     2014.89938        -2.58709        23.57054
     2014.90212        -4.48725        23.34897
     2014.90485        -4.44942        22.93926
     2014.90759         2.00842        23.40750
     2014.91033         5.44325        22.79712
     2014.91307        -1.81991        22.38742
     2014.91581        -2.26508        22.41250
     2014.91854        -0.74024        22.38324
     2014.92128        -4.57541        22.41668
     2014.92402         3.09843        22.33307
     2014.92676        -1.73374        22.47103
     2014.92950       -15.03090        22.52956
     2014.93223        -8.71907        22.42504
     2014.93497        -7.76323        22.68006
     2014.93771        -2.03940        22.88492
     2014.94045        -3.88656        22.76786
     2014.94318         4.48727        23.42422
     2014.94592        -6.50989        22.97689
     2014.94866       -11.34806        22.26200
     2014.95140        -8.38222        22.09059
     2014.95414        -2.27539        22.00698
     2014.95687        -0.12955        22.31217
     2014.95961        -7.49772        22.32471
     2014.96235        -2.53988        22.10731
     2014.96509        -2.92105        22.68843
     2014.96783       -12.23621        22.37906
     2014.97056        -8.99238        22.98525
     2014.97330       -16.27354        22.72187
     2014.97604       -13.12671        22.34143
     2014.97878        -5.39287        22.34143
     2014.98151         1.07996        22.66752
     2014.98425        -7.26920        22.86819
     2014.98699        -1.10237        22.22019
     2014.98973        -9.51953        22.42504
     2014.99247       -17.44870        21.95681
     2014.99520       -15.71086        22.01534
     2014.99794        -5.62503        22.02788
     2015.00068        -6.64219        22.01116
     2015.00342        -8.56836        22.20765
     2015.00616       -13.21652        21.93173
     2015.00889       -11.36469        22.59227
     2015.01163       -12.45885        22.55882
     2015.01437       -10.77602        22.55464
     2015.01711       -11.81718        22.83893
     2015.01984        -7.24735        22.46685
     2015.02258        -4.35251        22.98107
     2015.02532        -5.11368        22.16584
     2015.02806        -5.02984        23.09813
     2015.03080        -2.25301        22.97689
     2015.03353       -11.95217        22.20765
     2015.03627        -7.51334        22.19093
     2015.03901        -4.65150        22.54210
     2015.04175        -0.99567        22.48775
     2015.04449        -7.41583        22.42086
     2015.04722       -10.30400        22.60063
     2015.04996       -10.76316        22.35815
     2015.05270       -11.07933        22.32889
     2015.05544        -8.17449        22.95181
     2015.05817        -0.38966        23.39078
     2015.06091        -6.80682        22.37070
     2015.06365        -2.92299        23.02706
     2015.06639        -4.27115        22.16166
     2015.06913        -2.11932        22.27454
     2015.07186        -6.51548        22.24109
     2015.07460        -6.92865        22.43341
     2015.07734       -12.08381        22.23691
     2015.08008       -13.55698        22.14912
     2015.08282        -4.82514        22.11568
     2015.08555        -5.32931        22.03624
     2015.08829        -2.37247        22.10731
     2015.09103        -5.60264        22.17002
     2015.09367        -8.45905        23.25699
     2015.09650        -4.86097        22.74277
     2015.09924        10.83487        23.01870
     2015.10198         2.02570        22.29126
     2015.10472         2.73554        22.33307
     2015.10746        -5.72463        22.18257
     2015.11019       -11.76079        23.24863
     2015.11293        -8.77296        25.04632
     2015.11567        -5.68412        22.39996
     2015.11841       -12.54629        22.21183
     2015.12115        -9.50545        22.76368
     2015.12388        -9.18962        22.17420
     2015.12662       -10.64978        22.17838
     2015.12936        -5.15995        22.14494
     2015.13210        -4.03011        22.19093
     2015.13483        -9.95828        22.64662
     2015.13757       -14.62844        22.35815
     2015.14031        -9.20361        22.15748
     2015.14305        -6.25377        22.05715
     2015.14579        -6.19994        22.30380
     2015.14852        -5.06310        22.36651
     2015.15126        -3.27227        22.33307
     2015.15400        -9.52943        21.94427
     2015.15674         1.03540        22.01116
     2015.15948         0.80324        22.24109
     2015.16221        -2.80293        22.05297
     2015.16495        -0.78109        22.06969
     2015.16769        -0.18226        22.34143
     2015.17043        -2.21642        22.05715
     2015.17316        -3.65159        23.39496
     2015.17590        -5.16175        22.67588
     2015.17864        -2.22492        22.21183
     2015.18138        -0.17308        22.18675
     2015.18412         0.70575        22.17420
     2015.18685        -0.26341        22.21183
     2015.18959        -3.59958        22.64244
     2015.19233        -7.96574        23.59145
     2015.19507        -4.04491        22.05297
     2015.19780         6.97093        22.33725
     2015.20054        -3.09724        25.20518
     2015.20328        -5.08540        21.99862
     2015.20602        -5.63157        22.90582
     2015.20876        -7.72573        22.23691
     2015.21149        -9.37590        22.16166
     2015.21423        -3.87906        23.08977
     2015.21697        -3.78723        23.25699
     2015.21971        -7.12239        22.28290
     2015.22245        -3.82756        22.23273
     2015.22518        -6.38472        22.13240
     2015.22792        -5.50189        22.10731
     2015.23066        -4.97305        22.27036
     2015.23340        -1.17922        22.75950
     2015.23613         9.82562        24.51955
     2015.23887        -3.73755        23.24445
     2015.24161        -0.86671        23.62071
     2015.24435         7.62512        24.32724
     2015.24709        -6.51504        22.71769
     2015.24982        -3.96021        22.22437
     2015.25256        -1.34437        22.40832
     2015.25530        -3.57354        22.22019
     2015.25804         0.51930        22.06969
     2015.26078         2.86413        21.94009
     2015.26351        -1.73403        22.02370
     2015.26625         1.15880        22.09477
     2015.26899        -2.85636        22.26618
     2015.27107         9.32382        33.57904
     2015.28031         0.35290        28.31559
     2015.28268        -3.97519        22.29126
     2015.28542        -6.13235        22.68006
     2015.28815        -4.26652        23.01034
     2015.32217       -22.37560        56.74406
     2015.32375        -8.83566        22.44595
     2015.32648        -8.32883        22.27872
     2015.32922        -5.05099        22.42086
     2015.33196         3.29484        21.83975
     2015.33470         2.75168        21.80213
     2015.33744         1.19251        22.06969
     2015.34017        -4.05965        22.04042
     2015.34289        -9.10387        22.25782
     2015.34566        -1.40995        21.75196
     2015.34839        -0.13115        22.88910
     2015.35112        -1.85931        22.93090
     2015.35386         2.12352        22.09895
     2015.35660        -5.55064        21.63490
     2015.35934        -2.98281        22.65916
     2015.36208        -0.51797        23.01034
     2015.36481        -1.42014        22.03624
     2015.36755         2.93370        21.85647
     2015.37029        -5.93547        21.73105
     2015.37303       -11.96663        22.68843
     2015.37559        -2.28223        24.13911
     2015.37854        -7.26087        23.44930
     2015.38125        -3.16312        22.49193
     2015.38398        -1.24429        22.59645
     2015.38670         1.41351        22.96017
     2015.38952       -11.40647        23.00197
     2015.39218        -1.25581        22.86401
     2015.39493        -3.00295        22.04878
     2015.39767        -5.09912        22.06551
     2015.40041        -3.32028        22.42504
     2015.40314        -5.26045        22.50866
     2015.40588        -0.99561        22.32889
     2015.40862         0.92322        22.84311
     2015.41136         0.10006        23.37823
     2015.41410         1.02289        22.91836
     2015.41683        -1.66927        24.38159
     2015.41957        -5.12845        23.77122
     2015.42231        -3.00859        22.24109
     2015.42493        -6.32305        28.77128
     2015.42780        -4.07490        23.43676
     2015.43052         2.81690        23.13576
     2015.43326        -7.12226        23.10649
     2015.43600        -3.93443        21.87320
     2015.43874        -0.27458        22.04878
     2015.44150       -11.47469        25.65251
     2015.44419         4.33402        23.04796
     2015.44695        -0.62809        22.26200
     2015.44969        -4.31425        22.37070
     2015.45221        -0.12596        24.95434
     2015.45488         7.61372        25.15501
     2015.45800        -6.74251        24.72022
     2015.46064         2.90909        22.79712
     2015.46338        -3.69808        23.08141
     2015.46611         0.94576        22.41250
     2015.46885         7.92859        22.27036
     2015.47159         3.01043        22.49193
     2015.47433         3.98526        23.39914
     2015.47708        -2.10887        23.93008
     2015.47980         0.87193        22.40832
     2015.48254         0.25477        23.34479
     2015.48528         2.64260        22.77204
     2015.48802         4.46144        23.24863
     2015.49076         6.17427        23.08977
     2015.49349        -3.42189        23.98443
     2015.49623        -2.45907        24.60735
     2015.49897        -2.27022        22.64662
     2015.50168         2.86455        24.02624
     2015.50444        -7.10455        23.39496
     2015.50718        -0.09672        22.78458
     2015.50992         8.22012        23.47857
     2015.51266         3.95695        24.30216
     2015.51540         2.97479        22.39160
     2015.51813         3.23362        22.70097
     2015.52087         6.13646        23.49111
     2015.52361         4.04929        24.41086
     2015.52636        -3.19285        23.07305
     2015.52908         4.55396        23.63325
     2015.53182         7.38780        22.19929
     2015.53456         0.03763        22.70097
     2015.53730         3.77747        23.42422
     2015.54004         5.17730        23.61235
     2015.54277         6.69414        23.81302
     2015.54551        11.27797        22.78458
     2015.54825         4.67981        22.98107
     2015.55097         2.61459        25.07140
     2015.55356         7.34707        27.85572
     2015.55767        26.01633        82.40075
     2015.55920        11.34515        23.15248
     2015.56194        -9.58602        24.13075
     2015.56468         9.69382        23.05214
     2015.56741         4.81165        23.54128
     2015.57013         6.66043        25.55636
     2015.57289         7.39232        24.75367
     2015.57563         6.14616        24.17256
     2015.57783        15.69766        30.74455
     2015.58194         6.81991        41.76058
     2015.58384         9.33666        23.67924
     2015.58658        15.22450        24.10567
     2015.58932         6.79533        25.15919
     2015.59206        15.72219        24.14747
     2015.59479        15.43600        24.63661
     2015.59702        19.02755        31.03720
     2015.74653        15.62280        56.27582
     2015.75210         3.58871        69.89222
     2015.75364         3.68355        27.45855
     2015.75638        14.01241        25.74449
     2015.75912        11.82824        28.00622
     2015.76185         8.24904        26.77293
     2015.76454         7.55777        23.86737
     2015.76728        -1.22339        23.13157
     2015.77002         2.05444        24.70768
     2015.77275         6.99128        23.67506
     2015.77550         2.39713        24.36487
     2015.77823        11.77995        24.48611
     2015.78097         9.80779        24.60317
     2015.78367        12.99953        25.56890
     2015.78650        14.48358        27.01959
     2015.79048         6.77953       133.25844
     2015.79122        15.68538        31.30058
     2015.80561         4.26530        23.34479
     2015.80835         5.54314        23.81720
     2015.81108         6.80297        24.67842
     2015.81382         7.69180        24.06804
     2015.81656         7.23264        23.19428
     2015.81930         4.17947        25.59816
     2015.82203        10.52331        24.18928
     2015.82477         6.27514        23.93844
     2015.82751        14.79198        26.70604
     2015.83025        17.63781        25.02123
     2015.83299         5.46565        23.52874
     2015.83570         5.18341        25.33896
     2015.83846         5.96832        26.09566
     2015.84121         5.92317        24.44430
     2015.84395         5.21301        24.41504
     2015.84668        -1.52418        26.30887
     2015.84941         6.76466        24.67424
     2015.85215        11.52349        25.07558
     2015.85489        13.96533        30.02548
     2015.85763        -1.38684        27.93097
     2015.86036         4.30800        24.40668
     2015.86310         3.54483        23.25699
     2015.86584         9.13267        24.55300
     2015.86856         2.35945        23.15248
     2015.87132         3.76934        26.07476
     2015.87405        -0.96983        25.54381
     2015.87679         3.99701        23.70432
     2015.87953        19.30284        34.73708
     2015.88227         6.88068        24.93762
     2015.88501        -3.77949        25.91171
     2015.88774        -2.09065        27.88498
     2015.89048         3.44018        32.38337
     2015.89323         8.40105        27.35404
     2015.89595         2.20584        25.73612
     2015.89869         6.19067        26.20018
     2015.90142        -1.12450        26.65169
     2015.90418        -3.14361        23.94262
     2015.90691         1.33719        25.82810
     2015.90965         1.67103        28.84235
     2015.91238         3.71086        24.43176
     2015.91512         3.73570        26.11656
     2015.91786        -1.66547        25.02123
     2015.92060        -1.71463        28.41593
     2015.92335        -1.76776        24.66588
     2015.92607        -8.16496        24.50283
     2015.92881       -15.39513        23.64998
     2015.93156         0.65474        24.78711
     2015.93429        11.45954        24.47775
     2015.93702         7.23038        27.34150
     2015.93976         4.90021        26.66841
     2015.94251         1.98407        28.46191
     2015.94523         1.11387        26.93597
     2015.94798         8.16272        25.71522
     2015.95070        11.61553        35.19277
     2015.95345        -2.87861        28.38666
     2015.95619         7.40022        23.13157
     2015.95794        -1.52240        46.89443
     2015.96206         5.76289        28.64586
     2015.96440         2.24573        23.90918
     2015.96714         3.02056        26.72276
     2015.96988         4.21340        25.49783
     2015.97262         8.34123        23.56218
     2015.97535         0.35507        24.01787
     2015.97809         4.65490        29.00958
     2015.98083        -0.23526        26.53463
     2015.98356        -5.26144        38.57074
     2015.98631       -10.22859        26.30469
     2015.98904       -10.33976        23.22355
     2015.99178        -3.59292        26.81473
     2015.99451        -3.41610        23.83393
     2015.99726        -2.00925        23.13157
     2015.99998        -5.90645        25.38913
     2016.00183        -9.22185        48.91787
     2016.00594        -5.84359        28.01876
     2016.00821       -12.40291        23.95098
     2016.01095         6.49592        24.84146
     2016.01368        -4.38624        23.75867
     2016.01640         2.20354        33.75044
     2016.01916         0.05143        27.52545
     2016.02189        -1.03975        23.61235
     2016.02460         2.40601        29.49035
     2016.02737        -0.19007        25.99532
     2016.03115       -11.30964        65.69902
     2016.03957        -7.81062        78.45421
     2016.04106         1.94411        24.57390
     2016.04378         0.31689        26.72276
     2016.04654         4.52978        27.07811
     2016.04928         0.43561        28.99704
     2016.05201        -1.64455        29.20189
     2016.05475        -4.16872        26.62660
     2016.05749        -3.49988        34.26884
     2016.06023        -3.24805        28.93851
     2016.06297        -3.68821        22.98943
     2016.06567        -1.02046        23.36151
     2016.06854        -7.97031        34.60330
     2016.07118        -2.81571        28.87162
     2016.07390         2.65709        24.75367
     2016.07668        -8.28798        31.66848
     2016.07939         2.76078        30.54806
     2016.08217         1.05473        26.27961
     2016.08487         1.84847        25.14247
     2016.08756        -6.54882        31.16680
     2016.09034        -6.59688        37.69698
     2016.09308       -11.30703        25.92007
     2016.09584        -6.42815        26.75620
     2016.09854       -10.35640        26.35486
     2016.10137        -6.78533        33.63338
     2016.10403        -9.50669        23.65416
     2016.10678        -6.33584        27.63832
     2016.10951        -7.47102        28.07729
     2016.11225       -19.36418        61.70232
     2016.11498         1.17865        44.75811
     2016.11772        -6.84151        39.68698
     2016.12019         6.60866        46.10010
     2016.12355       -11.02698        36.60583
     2016.12597        -4.04891        55.85358
     2016.12866         9.26078        30.06310
     2016.13144        15.39073        59.73741
     2016.13419         4.51759        29.54888
     2016.13689        -0.82167        28.52044
     2016.13903        -2.15532        45.41448
     2016.14291       -17.01665        61.91971
     2016.14509        -4.03020        37.95618
     2016.14792        -6.10614        54.85858
     2016.15043        -1.90986        29.74119
     2016.15367         1.45923        39.67443
     2016.15595        -3.34409        32.68438
     2016.15882        -6.34592        44.22717
     2016.16173        -8.67566        45.99559
     2016.16440        -4.91099        40.40605
     2016.16683        -1.34591        39.92945
     2016.16926        -3.79385        32.51297
     2016.17269         2.83171        51.02492
     2016.17519         3.22696        37.81404
     2016.17803         3.12703        51.18796
     2016.18075        19.59583        55.02999
     2016.18343         0.47053        35.56903
     2016.18734         5.15629        67.11627
     2016.18891         6.26920        24.22691
     2016.19164         2.73503        23.74613
     2016.19438        11.15087        22.41668
     2016.19712        -0.02030        24.76621
     2016.19986         6.66854        25.45184
     2016.20260        -5.27762        25.15501
     2016.20533        -1.83379        24.54046
     2016.20807         2.59604        23.35315
     2016.21081        -5.05212        25.74449
     2016.21360        -0.80617        26.49700
     2016.21629        -1.69045        26.25453
     2016.21902         2.25138        22.13658
     2016.22176         1.82022        22.26200
     2016.22449        -4.79696        30.84071
     2016.22720         1.85879        25.38077
     2016.22997         4.91372        27.68431
     2016.23271         0.20656        23.31970
     2016.23545         0.62239        22.70933
     2016.23819         1.22223        22.15330
     2016.24093         6.17406        23.42004
     2016.24366        -0.69212        23.04378
     2016.24641         1.38475        24.20600
     2016.24914         1.78257        24.83728
     2016.25188         7.43740        28.11492
     2016.25462         6.33324        23.69596
     2016.25735         1.85407        24.51119
     2016.26009        -4.75709        25.85736
     2016.26287        -3.75316        22.65498
     2016.26541        -1.61282        23.89663
     2016.27764         2.50370        57.17048
     2016.27927        -5.77721        26.54299
     2016.28185        -6.51178        37.29982
     2016.28474         9.96643        28.49118
     2016.28746        -0.13278        24.19346
     2016.29021        -3.60590        25.56472
     2016.29297        -4.92702        24.55300
     2016.29568         3.99776        23.03960
     2016.29842         2.97260        23.52456
     2016.30116         2.67043        27.45019
     2016.30390        -5.14973        26.92761
     2016.30665        12.43215        27.11574
     2016.30938        -3.57204        23.30298
     2016.31211        10.98877        24.22691
     2016.31485        -0.76839        25.63161
     2016.31762         2.51852        23.75867
     2016.32032        -1.46472        23.95516
     2016.32306        -6.43589        23.99697
     2016.32578        -6.25910        26.40921
     2016.32852        -5.04327        26.16255
     2016.33128         3.74261        23.15248
     2016.33401         5.43545        25.24699
     2016.33675         2.13128        26.68931
     2016.33949         6.94912        26.79383
     2016.34223         1.03595        25.22608
     2016.34496        -1.59222        26.58062
     2016.34771         8.91864        24.93344
     2016.35044         4.86746        25.11321
     2016.35318         1.44329        25.26789
     2016.35592        -1.03787        23.19010
     2016.35865        -5.08604        24.77457
     2016.36137        -0.20026        27.40839
     2016.36412        12.72462        27.76374
     2016.36687         5.35447        26.36740
     2016.36962         9.91734        24.71186
     2016.37233        10.94510        26.81891
     2016.37508        -1.08503        28.06057
     2016.37782        -4.96519        25.62743
     2016.38056         3.69164        27.59234
     2016.38331         5.52552        25.42676
     2016.38603         5.23831        27.89752
     2016.38878        13.88719        25.37659
     2016.39151         3.66498        22.50448
     2016.39425         1.38782        26.26707
     2016.39698         8.49565        23.42422
     2016.39972         2.05849        24.60317
     2016.40246         6.69732        27.08230
     2016.40524        -2.03275        35.82405
     2016.40796        -4.50893        45.01731
     2016.41018        -3.94239        38.02307
     2016.41432        -7.65807        50.02574
     2016.41615         0.45450        24.72022
     2016.41944         0.24171        74.16903
     2016.42159         6.39209        42.45039
     2016.42435        -6.86203        36.17522
     2016.42674         9.90795        40.32244
     2016.43808        -7.43274        28.10656
     2016.44079         0.99801        24.87491
     2016.44355         2.04590        24.45266
     2016.44627         1.26970        22.33307
     2016.44903         1.33359        47.86852
     2016.45174         1.48335        29.92514
     2016.45448         8.60319        35.66936
     2016.45722        -2.88398        35.23040
     2016.45976        17.91939        39.16857
     2016.46276         1.91686        29.60741
     2016.46543         1.00953        23.98443
     2016.46817         5.01736        29.54052
     2016.47091         5.82720        23.56218
     2016.47363       -10.49899        55.16377
     2016.47643       -25.35600        90.67009
     2016.47915        -0.42422        79.85891
     2016.48187         4.29858        28.21525
     2016.48459         5.64837        30.48953
     2016.48731         6.32115        33.40763
     2016.48984         7.73348        50.53996
     2016.49564         8.22495        24.99197
     2016.49829        -8.06043        29.08483
     2016.50082        -4.21311        28.31141
     2016.50492        40.39712       158.50125
     2016.50662        12.77136        29.43182
     2016.50924         6.14589        25.88663
     2016.51194         0.82565        23.70014
     2016.51477        11.62570        36.25048
     2016.51745        -4.24861        38.28646
     2016.52022         1.75531        36.05817
     2016.52292         3.92406        26.73530
     2016.52566         5.92489        22.36651
     2016.52838         8.93769        35.79897
     2016.53114         2.31457        26.99032
     2016.53385         4.35233        54.66209
     2016.53635       -14.42742        45.54826
     2016.53932         3.98599        25.15501
     2016.54211         8.37597        42.80157
     2016.54478        13.45464        22.62153
     2016.54757         2.58058        24.38995
     2016.55030         7.23541        22.85983
     2016.55304        13.58325        27.65086
     2016.55852         7.90292        23.39078
     2016.56125        14.14975        27.42093
     2016.56366         9.83777        27.91843
     2016.56794        31.58045      2268.57618
     2016.56949         4.08732        29.54470
     2016.57226        10.32924        27.88080
     2016.57494         2.80893        25.86572
     2016.57768        18.69676        25.79883
     2016.58046         4.05971        22.70097
     2016.58292        -1.01817        40.23046
     2016.58590         3.19427        27.43347
     2016.58863         3.42810        24.92926
     2016.59305        29.89914       117.98232
     2016.59683         3.65456        50.22223
     2016.60064        -2.27892       130.52847
     2016.60232         7.15028        28.44101
     2016.60500        10.07397        27.41675
     2016.60787         5.68914        44.68704
     2016.61055         7.18082        35.88258
     2016.61327        11.22561        28.04803
     2016.61601         7.46445        26.07476
     2016.62150         1.68716        28.94687
     2016.62425        14.04302        31.13335
     2016.62704         4.18300        29.32313
     2016.62970         9.98163        27.96441
     2016.63245         9.36950        46.50563
     2016.63519         8.61934        36.67690
     2016.63790        16.00010        30.39338
     2016.64070        12.93408        26.00369
     2016.64319        15.20629        31.92768
     2016.64736       -20.78629        98.20781
     2016.64887        25.18147        89.26957
     2016.65052        32.92660      1730.77610
     2016.65462        12.13084        36.60165
     2016.65713        15.40811        40.84084
     2016.65985        11.49889        48.56669
     2016.66255        30.62064        52.18714
     2016.66532         1.60354        38.56656
     2016.66802         5.25928        56.08769
     2016.67349         7.53794        42.87682
     2016.67627        12.72088        23.09813
     2016.67898        14.55766        24.35233
     2016.68172        19.97049        24.81220
     2016.68372         3.26348        60.04678
     2016.68780        11.06568        42.48384
     2016.68997        11.63608        26.83564
     2016.69269        10.27287        22.89746
     2016.69539         8.01161        26.69349
     2016.69816        11.79954        25.79047
     2016.70086        14.10828        27.46692
     2016.70364        17.85622        30.53970
     2016.70635        10.10897        34.82487
     2016.70914         7.41494        37.83913
     2016.71185        21.72470        28.58315
     2016.71457        15.37951        24.47775
     2016.71731        15.76235        22.46685
     2016.71994        11.06090        30.00039
     2016.72553        14.04185        27.36240
     2016.72814         9.42938        38.26137
     2016.73102        20.42156        38.50803
     2016.73364        11.60912        26.94851
     2016.73655        11.34038        23.62071
     2016.73925        14.44811        34.40681
     2016.74187         2.66866        83.45427
     2016.74475        13.02285        27.06139
     2016.74743        15.03053        31.70192
     2016.75014        14.70331        24.97524
     2016.75282         7.76599       107.04572
     2016.75551         5.67472        75.08460
     2016.75857        15.31135       131.18483
     2016.76113        12.51173        30.27632
     2016.76386        17.68756        28.19853
     2016.76664         9.60750        23.18174
     2016.76933        13.57721        58.90546
     2016.77208        14.22607        34.10162
     2016.77479        10.44684        22.08641
     2016.77757         9.53978        52.40035
     2016.78032         5.73264        22.59645
     2016.78304        12.88444        25.35150
     2016.78576         8.94022        36.66436
     2016.78847        13.20999        79.23181
     2016.79123        22.23689        42.14938
     2016.79389        11.86753        22.25364
     2016.79673        12.09962        23.33643
     2016.79942         6.97334        38.59164
     2016.80223        10.82334       110.64945
     2016.80494         9.14512        27.28715
     2016.80766        11.38490        28.93015
     2016.81038         7.60169        24.58644
     2016.81365         7.44784        39.03897
     2016.81578         7.66518        26.88162
     2016.81854         5.14205        79.86727
     2016.82136        13.11609        30.04638
     2016.82409        13.69391        22.80548
     2016.82683         6.37275        24.44430
     2016.82955         7.61354        27.94351
     2016.83234         7.89050        26.61824
     2016.83500        -5.60885        37.21621
     2016.83784        41.26024      1213.92498
     2016.84071         3.43841        30.10073
     2016.84323        -5.03429        29.39002
     2016.84604         8.66472        26.64333
     2016.84802        13.30266        41.01224
     2016.85117         3.79053        26.55971
     2016.85422         4.15513        25.15919
     2016.85694         7.24093        22.34979
     2016.85968         7.36377        27.61324
     2016.86242         3.61460        23.09813
     2016.86516         9.39844        25.99532
     2016.86787         9.59021        31.62249
     2016.87068         5.97724        25.04213
     2016.87337        12.06694        22.79294
     2016.87600        10.80452        41.80239
     2016.87886         6.67066        25.64415
     2016.88158        -0.14555        24.95852
     2016.88432         9.33028        22.67588
     2016.88706         9.48612        21.99444
     2016.88983         5.61204        79.62061
     2016.89256         6.48785        74.76269
     2016.89522         5.93248        55.07179
     2016.89804         2.50753        59.72068
     2016.90075        10.46729        27.39166
     2016.90349         2.19113        29.08483
     2016.90614         6.00275        24.67424
     2016.90907        14.22206        38.11923
     2016.91170         2.66763        23.85065
     2016.91445         5.28549        23.74195
     2016.91734         2.30572        27.55053
     2016.91956         1.55625        56.36780
     2016.92365         7.98648       174.42191
     2016.92525         2.04745        64.18145
     2016.92826         1.51198        25.50619
     2016.93056        -6.69128        39.97962
     2016.93456        17.01770       595.78653
     2016.93644        12.25339       133.11630
     2016.93908        -4.72802        22.70933
     2016.94186         1.51293        39.00971
     2016.94454        -4.99337        31.98621
     2016.94732         6.61455        27.19099
     2016.95003         4.19832        24.43176
     2016.95277         2.24016        22.43759
     2016.95551        -1.30101        24.64915
     2016.95799         4.35819        26.76875
     2016.96097         3.57164        21.71433
     2016.96393        -1.52997        23.92172
     2016.96646         6.26433        32.85578
     2016.96919         4.27017        23.33225
     2016.97193        -3.27000        24.79548
     2016.97467         4.37484        37.03226
     2016.97741         7.68967        32.37919
     2016.98013         3.25846        24.38577
     2016.98290         0.14139        30.68184
     2016.98551         5.56791        23.23191
     2016.98837         2.05904        22.98525
     2016.99108        10.27381        49.00566
     2016.99384         5.38671        63.20735
     2016.99660        -0.81941        46.10428
     2016.99804        -3.18581       121.21815
     2017.00214        -0.34757        42.74304
     2017.00479        -2.97398        35.16769
     2017.00752        -5.16314        43.91362
     2017.01022        -0.56641        57.90628
     2017.01301         6.62956        49.52406
     2017.01576         1.10442        29.40674
     2017.01848         2.16920        23.27372
     2017.02121        -4.59797        23.77540
     2017.02395         4.13087        30.85743
     2017.02662         3.62154        24.14747
     2017.02935         8.29835        48.15281
     2017.03214         1.82931        35.08825
     2017.03398        -2.85411        56.70643
     2017.03807        -2.35689        32.70110
     2017.04038        -0.85712        30.88669
     2017.04312        -0.25827        30.64003
     2017.04585        10.73555        33.93439
     2017.04859         6.88238        46.90697
     2017.05133         1.17222        30.49371
     2017.05410         8.26314        44.92534
     2017.05681         9.45389        24.01787
     2017.06223         8.07244        30.89505
     2017.06400         3.35085        57.86865
     2017.06811        -1.24589        25.25535
     2017.07049         2.00006        22.19511
     2017.07324        -7.17309        26.91507
     2017.07598        -9.69324        29.99203
     2017.07872        -5.74240        34.39426
     2017.08141        -5.67968        28.49118
     2017.08419        -1.62174        26.16255
     2017.08692        -4.60093        29.47363
     2017.08966        -2.73309        27.19517
     2017.09238        -1.85130        24.50701
     2017.09514         2.27259        26.15001
     2017.10067        -3.79761        54.72062
     2017.10345         1.41333        33.88004
     2017.10609        -0.48107        26.82728
     2017.10879       -16.37534        27.80973
     2017.11704        -7.42374        22.78040
     2017.11975        -1.86697        32.09490
     2017.12252        -3.80706        24.49447
     2017.12525         0.02676        23.14830
     2017.13073         4.21243        25.13411
     2017.13342         2.48216        23.98025
     2017.13925        -3.52429        31.31312
     2017.14168        -5.04023        22.32889
     2017.14442        -5.80439        28.64168
     2017.14717        -2.94751        33.89677
     2017.15263         1.35710        25.23445
     2017.15537         6.04695        27.68849
     2017.15812         3.15281        28.46191
     2017.16084         5.45162        27.36658
     2017.16359         1.59748        25.28879
     2017.16906         2.17012        27.80555
     2017.17180         2.89696        27.79719
     2017.17729         3.50166        29.67012
     2017.18003         0.02351        28.23616
     2017.18282         2.06448        39.49885
     2017.18548        -7.34387        23.00616
     2017.18821        -8.79706        27.52963
     2017.19096        -8.57220        36.35081
     2017.19368         3.46660        31.66011
     2017.19645         1.10650        42.93535
     2017.19917         0.02430        28.17763
     2017.20191         3.07913        38.52057
     2017.20466         4.75801        23.26954
     2017.20739         1.22681        39.89183
     2017.21013         8.87565        24.99615
     2017.21285         4.17045        30.33903
     2017.21563         0.84639        23.34897
     2017.21834         4.82915        33.27803
     2017.22112         7.55711        29.10991
     2017.22379        -1.49524        29.18935
     2017.22655         7.83266        27.14501
     2017.22931        -8.11245        29.98367
     2017.23203         2.31733        51.52660
     2017.23478         2.90620        33.42017
     2017.23750        -5.20700        23.23609
     2017.24024        -0.03217        22.91000
     2017.24298         1.08767        28.33231
     2017.24574        -8.71244        33.91767
     2017.24846         1.56234        26.62242
     2017.25117         2.24511        30.82398
     2017.25397        -0.25290        22.14076
     2017.25666        -2.94017        26.58062
     2017.25940        -7.64535        39.90437
     2017.26214         4.47851        29.57397
     2017.26491         8.76842        32.20778
     2017.26762         5.70317        28.70021
     2017.27036        -1.84098        25.99951
     2017.27312        -1.65309        28.41174
     2017.27583        -3.66231        24.57390
     2017.27860        -4.80541        32.79725
     2017.28131        -5.69964        29.98785
     2017.28405        -5.54681        28.82145
     2017.28679        -3.23297        31.46780
     2017.28953        -2.07711        30.84907
     2017.29229        -0.10522        23.19010
     2017.29500        -5.73847        22.63408
     2017.29774        -1.82363        22.64244
     2017.30045        -5.39086        27.81809
     2017.30322        -4.60994        22.64662
     2017.30595        -0.03114        28.90088
     2017.30871        -4.40023        23.47439
     2017.31143         4.20954        28.73784
     2017.31417        -2.97761        27.39584
     2017.31690        -1.80879        24.04296
     2017.31964        -2.50495        26.58480
     2017.32236        -9.08815        29.03884
     2017.32512        -9.39828        23.02288
     2017.32785         1.13955        24.46520
     2017.33060       -10.49259        25.08812
     2017.33333        -5.78878        24.52373
     2017.33607        -5.64294        22.83893
     2017.33876        -9.15223        49.11854
     2017.34428        -8.31645        27.68431
     2017.34715        -5.73028        33.30311
     2017.34976        -5.62177        31.40509
     2017.35370         0.33808        84.57887
     2017.35520        -1.73617        25.57726
     2017.35760       -12.11518        49.22724
     2017.37005        -2.94810        83.85980
     2017.37166         1.17491        23.16502
     2017.37440        -2.79525        23.19428
     2017.37713        -2.64542        22.42086
     2017.37984        -3.25665        27.01541
     2017.38261        -8.88475        24.90835
     2017.38535        -4.67191        22.88074
     2017.38801        -5.96125        34.20195
     2017.39085         3.07082        26.75620
     2017.39356         3.58059        28.46191
     2017.39630        -0.08357        30.73619
     2017.39902         0.52522        23.29462
     2017.40183         0.11724        36.15850
     2017.40451         2.36893        25.74867
     2017.40726         2.66879        30.90760
     2017.40999         4.30461        36.42188
     2017.41271         6.95540        34.41517
     2017.41820         1.73111        25.83228
     2017.42090         5.87484        24.03042
     2017.42378       -11.23197        27.35404
     2017.42638        -6.23648        29.54888
     2017.42915         3.62445        29.99621
     2017.43458        -0.23200        29.73283
     2017.43737         9.18596        23.03124
     2017.44010         3.97179        25.77375
     2017.44284         3.72562        25.33478
     2017.44829        -5.28277        24.56972
     2017.45106         6.31713        26.11656
     2017.45379         5.23796        28.55807
     2017.45651        -4.53526        29.06393
     2017.45927         0.69464        24.26035
     2017.46201         5.72047        24.44430
     2017.46475         4.27430        22.69679
     2017.46748        -8.85586        30.41428
     2017.47022         6.33697        27.22862
     2017.47570         1.64364        24.32724
     2017.47843        -3.24552        25.19682
     2017.48117         1.62631        24.41922
     2017.48395         4.94024        28.02712
     2017.48594         4.56821        41.19619
     2017.49012        -0.77234        40.86174
     2017.49105        38.22297        61.69813
     2017.49509         1.13605        32.96866
     2017.49759        -6.58769        26.22526
     2017.50034         2.69316        24.36487
     2017.50306        -0.90705        23.89663
     2017.50579         4.56078        24.33978
     2017.50855         1.53466        28.14000
     2017.51123        -2.58464        27.90588
     2017.51409         8.77350        32.87669
     2017.51672         2.63805        24.75367
     2017.51950        -4.66300        27.32059
     2017.52220        -6.31126        32.34992
     2017.52498         7.05467        22.95181
     2017.52737         8.88665        29.97949
     2017.53144        14.54881        82.71848
     2017.53319         7.70017        27.92261
     2017.53593        12.43901        26.43011
     2017.53866         5.20384        28.19853
     2017.54105         7.38779        30.66512
     2017.54420         5.70567        26.33396
     2017.54688         5.46135        23.23609
     2017.55236         1.84202        23.97189
     2017.55509        10.14186        25.03795
     2017.55783        10.89469        26.43847
     2017.56057         2.56753        25.97860
     2017.56324         2.29918        31.80644
     2017.56605         8.76520        28.72947
     2017.56878         7.55203        24.78711
     2017.57152         8.56287        26.80637
     2017.57426        -0.28629        29.03884
     2017.57700        -0.02246        24.84982
     2017.57974         2.71237        24.63661
     2017.58247         3.88320        27.10320
     2017.58794         4.82187        23.40750
     2017.59069         3.36572        24.54882
     2017.59616        10.02938        32.22868
     2017.59889        13.82919        31.05810
     2017.60437         5.90188        32.64257
     2017.60834         7.53277       137.93241
     2017.60983         5.91551        31.51379
     2017.61259         9.91239        26.68095
     2017.61534        11.02525        29.07229
     2017.61811        -4.22583        35.79478
     2017.61953        11.40073       405.03017
     2017.62638         5.94083        29.04720
     2017.62904        -8.77553        30.38501
     2017.63174        -1.80180        27.76792
     2017.63449         3.16907        25.49365
     2017.63722         5.17488        25.61070
     2017.63999        12.25379        26.99032
     2017.64268         9.20552        35.05899
     2017.64539         0.76228        33.28221
     2017.64820         7.55430        25.14247
     2017.65366         6.61393        34.76634
     2017.65637         8.21768        23.35315
     2017.65913        15.97759        28.12328
     2017.66187         6.82542        24.01787
     2017.66461        14.40626        35.62338
     2017.66735         3.46210        33.78389
     2017.67010        13.50796        26.73948
     2017.67282        11.25776        23.46185
     2017.67554         9.98654        31.98203
     2017.67837        12.74061        28.49536
     2017.68377        17.38510        27.57979
     2017.68651         8.53294        23.83811
     2017.68925        38.65577        29.51544
     2017.69200         4.36164        29.43182
     2017.69475        16.49150        24.06386
     2017.69746         9.14728        25.97442
     2017.70020        11.60711        31.40509
     2017.70842        14.65863        27.28297
     2017.71115        12.87445        27.73448
     2017.71391        24.96133        29.55724
     2017.71766        24.33771        44.36931
     2017.71900        17.36604        26.82728
     2017.72229        14.20227        39.17694
     2017.72484         9.80863        25.88663
     2017.72758        11.22646        24.00533
     2017.73032        12.21330        23.93426
     2017.73588        10.71419        34.02637
     2017.73857         9.49891        38.91774
     2017.74125        11.36760        26.85236
     2017.74349        16.27019        40.41441
     2017.74763        35.62153       133.21663
     2017.74948         4.08514        32.07400
     2017.75222         9.01498        31.16680
     2017.75497         8.03685        29.88334
     2017.75770         9.78565        26.43011
     2017.76043         7.68148        24.05132
     2017.76317        17.78032        27.41675
     2017.76473        18.53420       337.03625
     2017.76886         2.15952        30.28886
     2017.77138         6.89982        27.14919
     2017.77412        14.03966        27.20353
     2017.77673         9.62916        25.68178
     2017.77960        11.65334        28.30723
     2017.78507         4.92900        25.99114
     2017.78781         3.65683        26.42175
     2017.79054         2.49364        26.85236
     2017.80144         6.49785        36.24630
     2017.80966        75.66037        47.54661
     2017.81243        35.96030       106.29738
     2017.81518        68.99716        91.18849
     2017.82180        60.01168      1421.19203
     2017.82614        69.31652        46.06248
     2017.83434        65.40099        28.36158
     2017.83733        69.41344        30.44772
     2017.84803        61.57615        27.42093
     2017.85899        75.01552        57.79340
     2017.86173        72.94438        28.81727
     2017.86720        75.37204        46.22970
     2017.87536        67.30140        50.37274
     2017.88088        53.71417       141.11389
     2017.88375        66.15534        25.93261
     2017.89179        70.49842        59.32770
     2017.89472        11.15573       162.42470
     2017.89737        42.87834       164.52975
     2017.89987        35.78158       822.57676
     2017.91123        35.69895       166.67861
     2017.91377        38.02429       139.36220
     2017.91935        15.00922        34.71199
     2017.92452         3.58913        24.49865
     2018.16622        11.05252        90.63664
     2018.16842         1.66202        25.10484
     2018.17111         2.91173        25.12575
     2018.17380        -0.05756        31.00375
     2018.17660         1.47044        50.06337
     2018.17976         0.71833        49.30667
     2018.18206         6.23007        22.90164
     2018.18454         1.58827        44.36513
     2018.18754         7.18174        35.11752
     2018.19018        -2.08067        31.72282
     2018.19305         1.64249        29.14754
     2018.19575         8.20625        30.72783
     2018.19842         5.50092        23.05632
     2018.20129        14.88708        30.94522
     2018.20397         9.59775        30.32649
     2018.20669         6.58256        26.34232
     2018.20947         4.36850        27.42511
     2018.21212        -2.59090        33.28639
     2018.21493       -10.08888        39.06406
     2018.21765         8.34693        30.65676
     2018.22039         8.35276        25.68178
     2018.22279        -0.20525        35.65682
     2018.22608        -6.36205        35.07989
     2018.22859        -1.60277        27.11156
     2018.23136         1.17614        28.68349
     2018.23404        -3.18917        26.71440
     2018.23695         2.66509        22.92672
     2018.23935         8.13008        41.97380
     2018.24274        21.77955       125.74998
     2018.24500        -0.42879        50.97475
     2018.24780         2.63918        23.82138
     2018.25048        12.23588        44.47383
     2018.25325        -5.36222        44.62015
     2018.25639        -0.67237        50.12608
     2018.25878        -0.95741        27.07811
     2018.26146        -0.59471        38.79232
     2018.26373       -14.18104       151.06804
     2018.26789        16.61233        99.46201
     2018.26968        -7.12318        56.89874
     2018.27237         7.00452        30.61913
     2018.27519        13.50256        33.44944
     2018.27782         8.16713        29.71611
     2018.28064         3.39717        22.80130
     2018.28338        -5.22400        42.98551
     2018.28621        -8.53294        57.39206
     2018.28889         7.96777        25.39749
     2018.29151         4.96531        22.81803
     2018.29728         1.76170        36.50968
     2018.29979        -1.47702        25.46020
     2018.30238         2.31443        24.18928
     2018.30518        -1.80657        31.60995
     2018.30759        11.71545        52.41708
     2018.31000        -8.44952        65.27678
     2018.31530        -6.85129       101.61506
     2018.31782        38.95199      4237.02252
     2018.32061        -4.54405        68.29939
     2018.32532        18.33872      1055.90888
     2018.32608       -38.26840      1596.61890
     2018.32964        -4.63350        96.28889
     2018.33413        26.08071      1295.92944
     2018.33931         2.27063       550.74007
     2018.33967       -13.34945       248.27043
     2018.34362       -35.92360       814.05055
     2018.34716        -2.14576       319.03782
     2018.35112       -11.13489        70.26430
     2018.35414       -17.84834       301.14584
     2018.35666        20.24196       915.42279
     2018.36257        -0.27129        73.37471
     2018.36578         0.87872        57.77250
     2018.36775        -8.05536        31.42733
     2018.37099       -14.02028       163.91520
     2018.37246        23.03440      1134.45906
     2018.37933         8.17755        25.84900
     2018.38088        10.86742        62.69731
     2018.38347       -37.61312      1990.37220
     2018.38676         5.33811        40.78649
     2018.39009        10.26440        33.95111
     2018.39197        25.63110        56.97817
     2018.39632        10.90897       994.23193
     2018.39944        -8.76625        73.29014
     2018.40111        -9.49208        35.12170
     2018.40336        10.12154        59.84610
     2018.40805        66.56926      3453.05582
     2018.41583       -34.45633      1042.27612
     2018.42475        10.55394        48.67539
     2018.42775       -30.19858      1253.69098
     2018.43194       -12.57512       319.64211
     2018.43606        18.48617       983.33417
     2018.43939         8.13948        44.18118
     2018.44169         1.65023        54.98400
     2018.44484        -4.25591        89.11488
     2018.45022         7.69252        57.86447
     2018.45311         9.70175        26.00369
     2018.45585        18.85157        26.15419
     2018.45830        17.78471        27.00286
     2018.46579        41.65140      2272.84347
     2018.46915       -21.54623       939.08550
     2018.47233        18.06572       140.25686
     2018.47496         8.87627        24.39413
     2018.47943        13.04745        49.69965
     2018.48519        -8.20318        52.70136
     2018.48790        25.42560      2772.34398
     2018.49332         6.42911       340.11922
     2018.49590        37.05357      2820.47613
     2018.49965         7.42893        25.46438
     2018.50154        15.14264        40.79903
     2018.51274        10.11360       148.17502
     2018.52219       -24.51980      1273.50446
     2018.52433         8.26354        32.15761
     2018.52648         3.00792        34.95029
     2018.53043       -26.63223      1227.97755
     2018.53751        11.64343        43.14020
     2018.54336         8.76204        25.18010
     2018.55057        -7.49196       371.27541
     2018.55441         6.32264        24.20600
     2018.55670        10.11934        29.48617
     2018.56446        -4.37627       283.07690
     2018.57180        91.96504      8596.40480
     2018.57253        -9.01513       766.73784
     2018.57801        23.13956      1801.83380
     2018.58195        35.33538      1590.15820
     2018.58377        41.86692      2500.56086
     2018.58682        23.74554       666.74894
     2018.58976       -15.73912       817.09831
     2018.59252        18.68076       118.81427
     2018.59493        40.14979      3890.35105
     2018.59752        17.74325       118.30841
     2018.60117       -15.40963      1140.20966
     2018.60254         3.97278        44.30933
     2018.60638        41.67338      1401.69772
     2018.60915        13.87730        37.53812
     2018.61133       -10.29727       749.09005
     2018.61406        31.78254       909.19752
     2018.62001         3.07141        34.42923
     2018.62190         0.72411       277.51597
     2018.63332       -16.47936       945.92625
     2018.63843         9.55839        61.51001
     2018.64108        20.45300        47.39611
     2018.64513        -1.44089        94.24873
     2018.64744        14.38387        40.71542
     2018.65319         4.91924        39.19478
     2018.65599        23.85523        43.88018
     2018.65751         0.38001       110.18539
     2018.66377        13.52664        31.55978
     2018.66663         0.77278        65.00085
     2018.66940         6.67771        29.65340
     2018.67537        11.61060        35.33073
     2018.67700        11.94567        32.36247
     2018.68129       106.67338      5732.89689
     2018.68185       -11.59622      1082.55431
     2018.68580        31.78565       116.42293
     2018.69220        41.67462      1088.71579
     2018.69667       -14.06422       759.11370
     2018.70026         3.60275       156.49453
     2018.70118         5.42104        53.68347
     2018.70431        -5.60414       106.02146
     2018.71053         6.50839        32.05728
     2018.71277        10.11698        33.36164
     2018.71574         3.72440       108.53821
     2018.72105        21.93964       588.79193
     2018.72416         4.87641        95.73286
     2018.72683         4.96708        25.45184
     2018.72872        15.76679       100.75383
     2018.73144       -44.49341      2826.04409
     2018.73514         5.37781        26.79801
     2018.73700        14.47845        49.79580
     2018.74640        19.87792       135.53690
     2018.74750         7.25166        37.81947
     2018.75077         6.30184        89.81576
     2018.75531        21.19718        65.13882
     2018.75918       -19.93317      1067.21087
     2018.76529        -0.37892        75.56955
     2018.76756         6.46975        29.79972
     2018.77080        11.96684        24.13493
     2018.77330        13.37010        32.12417
     2018.77559        17.79579       302.45970
     2018.77794        16.29467        45.21799
     2018.78166        12.86695        25.09648
     2018.78399        12.66179        32.29976
     2018.78644        -8.02812       143.32546
     2018.79260         4.53928        23.75031
     2018.79540         3.35826        92.15422
     2018.79686        33.90491      2092.78030
     2018.79997         7.35166        35.99964
     2018.80293         0.73606       405.31119
     2018.80722        14.06276        57.78504
     2018.80890        11.40997        25.85318
     2018.81197        23.49663        98.41266
     2018.81423        11.45926        29.74119
     2018.81986        11.48032        43.73385
     2018.82280         5.48167        35.38090
     2018.82472        -1.56454        37.91020
     2018.82808         5.14985        26.55553
     2018.83173        22.47195        58.73823
     2018.83335         0.80901        26.73948
     2018.83915         8.82347        22.87655
     2018.84188         6.89231        23.34897
     2018.84462         9.01614        22.74277
     2018.84735         2.15195        23.45349
     2018.85010         3.76281        23.92590
     2018.85284         2.33965        22.82221
     2018.85557         3.57248        23.64998
     2018.85830         5.39029        22.94345
     2018.86104         4.63714        23.40750
     2018.86379         2.91400        23.43676
     2018.86653         7.67283        22.55464
     2018.86926        -0.08536        24.13911
     2018.87201         8.88450        23.16920
     2018.87474         8.47134        22.70515
     2018.87748         6.10217        23.64998
     2018.88021         5.58800        24.64079
     2018.88295        10.78083        24.06804
     2018.88569         5.91668        23.46185
     2018.88842        11.58149        23.35315
     2018.89117        15.84335        23.35733
     2018.89391         4.98818        22.85565
     2018.89665         4.03502        24.17256
     2018.89938         5.13684        22.88492
     2018.90212         8.33269        23.06886
     2018.90485         9.36451        23.16502
     2018.90760         5.93236        22.62990
     2018.91033        12.46718        22.82221
     2018.91307        16.27703        22.97271
     2018.91581         9.72686        22.56719
     2018.91855        13.17570        23.28626
     2018.92128         9.81552        23.36151
     2018.92402         6.44136        23.15248
     2018.92676        10.29619        22.80130
     2018.92950        10.97904        22.79294
     2018.93224         9.12687        23.49529
     2018.93498         8.72371        23.31134
     2018.93771         6.85554        22.70097
     2018.94045         4.70738        22.69679
     2018.94319         5.66821        22.41250
     2018.94592         7.64604        23.15666
     2018.94866        10.90187        23.79630
     2018.95100        13.58872        29.13918
     2018.95414        19.02555        26.12074
     2018.95688        -4.30561        22.62153
     2018.95962         9.64922        22.75950
     2018.96235        19.67806        24.83728
     2018.96509         0.01189        23.37405
     2018.96783         8.12072        23.74613
     2018.97056        13.92755        23.23191
     2018.97331         4.39940        23.13994
     2018.97604         4.90723        24.06386
     2018.97878         8.84607        23.52038
     2018.98151        -0.79811        22.93508
     2018.98426         7.17274        24.10985
     2018.98700         4.50257        23.50365
     2018.98973         4.45440        24.99197
     2018.99247         6.42224        23.18592
     2018.99521         3.75708        23.47857
     2018.99794        -2.31510        22.85983
     2019.00068        -0.92826        23.39914
     2019.00342         1.58358        23.54128
     2019.00616         4.78642        23.01870
     2019.00890         6.83825        22.77204
     2019.01164        -1.40591        23.48693
     2019.01437        12.51492        23.10649
     2019.01711        10.41375        23.11485
     2019.01985        -3.93241        22.99361
     2019.02258        -7.61558        23.51620
     2019.02532         0.11725        24.10149
     2019.02806         0.73709        23.18592
     2019.03080         2.22092        23.47857
     2019.03353         1.24476        24.17674
     2019.03627        -6.06441        23.30298
     2019.03901         2.61242        21.89410
     2019.04175         1.44726        21.72687
     2019.04449         4.85609        21.75196
     2019.04722         2.72293        22.43341
     2019.04996       -15.14124        22.85565
     2019.05270        -0.49040        22.66752
     2019.05544         2.93643        22.26618
     2019.05817         2.16427        23.00197
     2019.06091         1.39610        22.75532
     2019.06365         0.01994        22.07387
     2019.06639         2.52277        22.37906
     2019.06913        -1.13339        22.57555
     2019.07186        -2.48556        22.45431
     2019.07460         1.59228        22.23691
     2019.07734         4.20411        22.10313
     2019.08008         6.88695        21.78540
     2019.08282         5.72478        22.67588
     2019.08555        10.26462        21.71015
     2019.08829         3.64045        21.60982
     2019.09103        10.79229        21.83139
     2019.09377         7.55512        21.79795
     2019.09650         5.12796        21.83557
     2019.09924         7.85479        21.63490
     2019.10198        -0.39937        21.56801
     2019.10472         5.00546        21.82721
     2019.10746        -2.64970        21.75196
     2019.11019         0.15713        21.70179
     2019.11293         6.04597        22.18675
     2019.11567         6.69480        22.90164
     2019.11841        16.11164        21.65162
     2019.12115        17.64147        22.48357
     2019.12388        11.93331        22.19929
     2019.12662        11.43214        22.74695
     2019.12936         8.25698        22.18675
     2019.13210         3.78881        21.86902
     2019.13483         1.84965        22.18675
     2019.13757         8.59748        22.00698
     2019.14031         8.24932        22.14912
     2019.14305         5.69015        22.27872
     2019.14579         2.02399        21.99862
     2019.14852         1.78182        21.82303
     2019.15126         7.11866        21.60982
     2019.15400         2.29549        21.86066
     2019.15674         3.71833        21.60982
     2019.15948        -0.75784        21.59727
     2019.16221         0.71000        22.16584
     2019.16495         0.57183        21.79376
     2019.16769        -4.12933        21.70597
     2019.17043        -4.12150        22.14076
     2019.17316        -1.05366        21.86484
     2019.17590         0.93317        21.87738
     2019.17864        -0.81999        22.11986
     2019.18138         6.76384        21.71433
     2019.18412        -4.66132        21.78122
     2019.18685         0.27951        21.94427
     2019.18959         1.56735        22.13240
     2019.19233         3.37918        21.68507
     2019.19507        -2.68898        22.30380
     2019.19780         0.25785        22.08641
     2019.20054        -1.21231        22.21183
     2019.20328        -3.75048        21.82303
     2019.20602        -6.65764        23.59981
     2019.20876        -8.25081        21.76032
     2019.21149        -3.95597        21.96099
     2019.21423         0.59286        22.04042
     2019.21697         0.43870        21.68925
     2019.21971         3.33253        22.24109
     2019.22245         0.15937        22.14076
     2019.22518         1.03420        22.17420
     2019.22792         1.40604        21.92755
     2019.23066        -4.36513        21.98607
     2019.23340         2.97871        21.74778
     2019.23613        -0.69046        22.24109
     2019.23887        -0.44162        21.94009
     2019.24161        -6.75179        23.26118
     2019.24435        -0.76295        22.59645
     2019.24709         1.55688        22.50030
     2019.24982         4.22872        21.99862
     2019.25256         4.18355        22.47521
     2019.25530        -2.05461        22.08223
     2019.25804         5.36522        22.17420
     2019.26078         3.45806        22.16584
     2019.26351         1.94589        22.06969
     2019.26625         1.84173        21.75196
     2019.26899        -3.61944        22.27872
     2019.27173         5.31040        22.93508
     2019.27446         0.07623        22.01534
     2019.27720         2.63207        22.29962
     2019.27994         6.47590        21.56383
     2019.28268         2.90574        22.39160
     2019.28542         6.64457        22.06133
     2019.28815         7.84941        21.83139
     2019.29089         2.95824        21.99444
     2019.29363         4.05208        21.89410
     2019.29637        -5.59009        22.12404
     2019.29911         8.88475        21.72269
     2019.30184         2.74358        22.11568
     2019.30458        -3.92158        22.12404
     2019.30732         0.53125        21.72687
     2019.31006        -0.88291        21.95263
     2019.31279        -4.41708        22.49611
     2019.31553         4.02176        21.84811
     2019.31827         8.28959        21.92755
     2019.32101         2.11243        21.65580
     2019.32375       -10.07774        21.60982
     2019.32648        -0.73890        21.60563
     2019.32922         0.99093        22.69679
     2019.33196        -1.48223        22.33725
     2019.33470        -1.93140        23.13576
     2019.33744         0.85844        22.33725
     2019.34017         0.19527        21.83557
     2019.34291         3.99811        21.60145
     2019.34565         0.66794        22.18675
     2019.34839        -0.22522        22.53792
     2019.35112         0.87061        21.55547
     2019.35386         2.47345        21.52620
     2019.35660         6.52328        21.79795
     2019.35934         5.94312        22.07387
     2019.36208         8.32895        22.03624
     2019.36481         9.63379        22.03624
     2019.36755         2.28962        21.74778
     2019.37029         7.71846        21.73942
     2019.37303         9.43329        21.86484
     2019.37577         8.23213        22.50030
     2019.37850        10.27896        22.55046
     2019.38124         8.30280        22.25782
     2019.38398        13.02463        21.70597
     2019.38672         6.84047        21.82303
     2019.38945         3.88730        22.30799
     2019.39219         7.30414        22.09059
     2019.39493         7.43297        21.84393
     2019.39767         6.71581        21.83139
     2019.40041         9.28164        21.67253
     2019.40314         8.47748        22.29544
     2019.40588         8.51031        22.50866
     2019.40862         7.07715        22.14494
     2019.41136        10.44298        21.93591
     2019.41410         2.82282        22.27454
     2019.41683         5.68065        22.72605
     2019.41957         5.03049        22.52120
     2019.42231         8.48632        22.16166
     2019.42505         4.76716        22.21601
     2019.42769         0.49777        22.93090
     2019.43084         6.66162        25.01287
     2019.43326         0.95866        21.99862
     2019.43600         4.19650        22.25782
     2019.43874         1.58933        22.46267
     2019.44147         1.35617        22.23273
     2019.44421         4.77300        22.11568
     2019.44695         8.00884        22.46267
     2019.58384        44.24359        23.85483
     2019.58658        32.59842        22.50448
     2019.58932        49.77726        22.09477
     2019.59206        48.74509        22.46267
     2019.59479        41.33493        23.11485
     2019.59753        51.59176        23.36151
     2019.60027        41.79260        22.85983
     2019.60301        41.68543        22.22855
     2019.60574        45.30427        23.42422
     2019.60848        44.98210        23.26536
     2019.61122        40.22394        22.14494
     2019.61396        47.31077        22.72187
     2019.61670        51.92861        22.14912
     2019.61943        38.95844        22.36651
     2019.62217        42.84128        23.31134
     2019.62491        44.70411        22.38742
     2019.62765        54.00495        22.29544
     2019.63039        38.27678        22.28290
     2019.63312        43.57062        21.99444
     2019.63586        49.55645        23.51620
     2019.63860        46.89329        22.48775
     2019.64134        48.39712        22.50030
     2019.64407        42.20796        23.66252
     2019.64681        44.33679        22.23273
     2019.64955        42.38263        22.11568
     2019.65229        50.50646        22.00698
     2019.65503        42.89930        30.27214
     2019.65776        46.84313        22.89328
     2019.66050        43.07897        22.70515
     2019.66324        42.88980        22.35815
     2019.66598        33.19864        22.42086
     2019.66872        43.75347        22.42086
     2019.67145        44.35731        22.43759
     2019.67419        40.21414        23.32807
     2019.67693        48.19498        22.79294
     2019.67967        43.87681        22.58391
     2019.68240        46.15365        22.17002
     2019.68514        44.67848        22.62990
     2019.68788        47.39932        22.50866
     2019.69062        48.41815        22.33725
     2019.69336        45.00599        21.96935
     2019.69609        45.01782        22.22437
     2019.69883        48.15266        23.03960
     2019.70157        41.34849        22.08223
     2019.70431        49.13033        21.90664
     2019.70705        46.71016        22.11149
     2019.70978        49.77200        22.20347
     2019.71252        43.45983        22.10313
     2019.71526        45.33467        21.90664
     2019.71800        36.07150        22.71351
     2019.72073        43.36834        23.27372
     2019.72347        46.64517        22.02788
     2019.72621        40.05601        22.29962
     2019.72895        37.65484        22.21183
     2019.73169        43.38068        22.37070
     2019.73442        46.05051        23.34479
     2019.73716        51.20935        22.34561
     2019.73990        50.46318        22.73023
     2019.74264        47.13402        22.24946
     2019.74538        48.71985        21.71015
     2019.74811        49.28969        22.42086
     2019.75085        48.35652        22.73441
     2019.75359        45.80936        23.19428
     2019.75633        46.48019        22.51284
     2019.75906        47.61703        21.99444
     2019.76180        43.10886        21.85647
     2019.76454        49.73270        22.68006
     2019.76728        41.54453        23.03542
     2019.77002        44.75737        22.59645
     2019.77275        45.78420        22.78040
     2019.77543        55.39290        45.13855
     2019.77843        43.18237        30.23869
     2019.78097        51.52271        28.02294
     2019.78371        44.48654        24.04714
     2019.78644        44.77338        24.28962
     2019.78918        54.56221        23.18592
     2019.79192        52.75105        22.48775
     2019.79466        56.91488        23.53292
     2019.79739        54.26272        22.45849
     2019.80013        48.81255        22.57973
     2019.80287        52.73739        22.50448
     2019.80561        47.11322        23.00616
     2019.80835        41.27106        22.23691
     2019.81108        48.25189        22.85147
     2019.81382        40.93673        23.42004
     2019.81656        45.96956        22.70933
     2019.81930        46.86740        22.34979
     2019.82203        44.02223        22.78040
     2019.82477        44.52107        22.78458
     2019.82751        43.84090        22.50030
     2019.83025        46.83674        23.25281
     2019.83299        43.41657        22.99779
     2019.83572        49.40641        22.90582
     2019.83846        50.18224        22.37070
     2019.84120        44.83808        22.43341
     2019.84394        47.58191        23.16502
     2019.84668        44.36875        22.85147
     2019.84941        47.71358        22.42086
     2019.85215        48.42242        22.50448
     2019.85489        49.31125        22.97689
     2019.85763        44.48109        22.39160
     2019.86036        44.19092        22.89328
     2019.86310        44.59576        22.80966
     2019.86584        50.57259        22.80548
     2019.86858        50.08143        22.43341
     2019.87132        53.50826        23.10649
     2019.87405        52.75810        22.45013
     2019.87679        43.92393        23.94262
     2019.87953        58.78177        22.49193
     2019.88227        59.90160        22.39160
     2019.88501        55.09144        22.60481
     2019.88774        52.74427        22.93926
     2019.89048        56.76011        22.37070
     2019.89322        58.97494        23.35315
     2019.89596        44.33678        22.74695
     2019.89869        50.75061        22.40414
     2019.90143        52.66645        22.18257
     2019.90417        57.98928        22.75532
     2019.90691        50.82212        22.37070
     2019.90965        48.95195        22.14912
     2019.91238        51.03179        22.13240
     2019.91512        57.45762        22.55882
     2019.91786        59.63446        22.21183
     2019.92060        51.40429        22.32889
     2019.92334        49.20713        22.12822
     2019.92607        51.73896        22.33307
     2019.92881        50.37280        22.23691
     2019.93155        55.40663        22.21601
     2019.93429        51.94447        22.24946
     2019.93702        50.10230        22.36651
     2019.93976        48.47214        22.24528
     2019.94250        50.71497        22.22437
     2019.94524        47.77381        22.56301
     2019.94798        43.66164        23.96771
     2019.95071        45.52948        23.32807
     2019.95345        50.73831        22.27872
     2019.95619        52.18815        22.26200
     2019.95893        46.50998        22.20347
     2019.96167        47.38182        22.32889
     2019.96440        55.66765        23.25699
     2019.96714        40.11249        22.84311
     2019.96988        50.37332        22.64244
     2019.97262        46.93216        22.83057
     2019.97535        49.36299        22.18675
     2019.97809        46.60083        22.23691
     2019.98083        49.47966        22.23273
     2019.98357        47.09450        22.28708
     2019.98631        50.60933        22.34561
     2019.98904        44.29517        22.36651
     2019.99178        44.41200        22.32471
     2019.99452        45.27384        22.09059
     2019.99726        56.52867        22.27454
     2020.00000        58.75051        22.98943
     2020.00273        47.91434        22.36651
     2020.00547        49.78118        22.85983
     2020.00821        41.91101        23.14412
     2020.01095        46.41285        22.75532
     2020.01368        44.93268        22.70933
     2020.01642        47.42052        23.13994
     2020.01916        45.02035        23.37405
     2020.02190        41.17519        22.71769
     2020.02464        40.71702        22.95181
     2020.02737        50.05686        22.36651
     2020.03011        45.23669        22.58391
     2020.03285        39.56253        22.29126
     2020.03559        46.60136        21.96517
     2020.03833        44.65520        21.78958
     2020.04106        38.37203        22.42922
     2020.04380        45.24887        22.34143
     2020.04654        43.36070        21.63908
     2020.04928        41.02254        21.70597
     2020.05201        40.29037        21.75614
     2020.05475        47.63621        21.73105
     2020.05749        47.50804        21.70597
     2020.06023        51.23188        22.01534
     2020.06297        42.13571        22.14076
     2020.06563        47.92736        22.84729
     2020.09582        48.42073        22.25364
     2020.09856        40.75357        22.06551
     2020.10130        42.19340        21.91918
     2020.10403        37.65024        22.12822
     2020.10677        37.31007        22.23273
     2020.10951        33.72491        22.07387
     2020.11225        39.28574        24.16002
     2020.11498        41.83058        22.16166
     2020.11772        43.81441        22.66334
     2020.12046        41.03825        23.23609
     2020.12320        38.73708        21.98189
     2020.12594        50.66192        22.80548
     2020.12867        38.46675        21.84393
     2020.13141        35.70659        23.72941
     2020.13415        32.82342        23.40750
     2020.13689        39.33726        23.84229
     2020.13963        40.75609        24.23527
     2020.14236        42.63193        22.04042
     2020.14510        45.84976        24.23945
     2020.14784        39.48360        22.39160
     2020.15058        35.65143        23.43676
     2020.15331        39.61127        22.16584
     2020.15605        30.73810        22.34979
     2020.15879        41.05494        22.19929
     2020.16153        34.23177        22.13240
     2020.16427        41.19661        22.29544
     2020.16700        44.28144        22.29544
     2020.16974        43.29627        24.48193
     2020.17132        24.72722       100.16854
     2020.17528        43.98510        24.30634
     2020.17796        48.57078        24.84146
     2020.18036        47.98778        28.81727
     2020.18230        55.42062       114.85937
     2020.18891        38.26412        27.96023
     2020.19164        45.96996        27.25370
     2020.19684        35.88893        37.73461
     2020.19988        44.65852        26.73112
     2020.20260        36.60230        22.83475
     2020.20533        40.63213        22.33725
     2020.20807        40.90897        22.24528
     2020.21081        34.41880        22.68006
     2020.21355        36.07964        24.30634
     2020.21629        41.16047        23.98861
     2020.21902        37.46531        23.08977
     2020.22179        43.95921        67.69320
     2020.22450        46.37598        22.65498
     2020.22723        44.18479        23.13576
     2020.22997        44.70865        23.83393
     2020.23272        43.83349        23.63743
     2020.23546         2.10533       148.06633
     2020.23819        38.17715        24.23109
     2020.24093        42.00599        24.72441
     2020.24343        50.72223        27.15337
     2020.25022        38.84719        54.15623
     2020.25188        39.10234        24.18928
     2020.25461        38.49014        24.20600
     2020.25736        48.28301        24.82056
     2020.26008        54.10081        23.18592
     2020.26282        48.35364        24.50283
     2020.26557        46.71650        23.49111
     2020.26830        40.75334        22.63826
     2020.27104        41.92917        22.11986
     2020.27378        41.93101        22.67170
     2020.27652        49.62484        22.63408
     2020.27929        44.90676        23.06886
     2020.28199        47.58651        34.34828
     2020.28473        36.90135        33.18187
     2020.28747        55.79618        34.57403
     2020.29021        40.64702        22.28290
     2020.29295        44.14885        22.27454
     2020.29568        44.00469        22.26200
     2020.29842        42.32252        22.14076
     2020.30116        49.02836        22.14912
     2020.30390        41.65019        22.27872
     2020.30663        46.51403        22.55882
     2020.30937        39.86886        22.93926
     2020.31211        40.04770        23.12321
     2020.31485        47.65553        22.65916
     2020.31759        45.58037        22.48775
     2020.32032        51.65920        23.00197
     2020.32306        42.65904        22.22019
     2020.32580        40.70887        22.08641
     2020.32854        25.40771        22.19093
     2020.33128        35.67254        22.01534
     2020.33401        46.99438        22.17420
     2020.33675        40.49221        22.52538
     2020.33949        44.47205        22.24528
     2020.34223        40.71888        22.59227
     2020.34496        41.97172        22.57555
     2020.34770        39.81755        22.10313
     2020.35044        45.06939        22.17002
     2020.35318        37.33822        22.46685
     2020.35592        39.48206        22.48357
     2020.35865        42.05189        22.04042
     2020.36139        45.22873        22.22437
     2020.36413        46.22856        21.86484
     2020.36687        45.03140        22.16584
     2020.36961        42.52823        22.33725
     2020.37234        48.85307        21.94427
     2020.37508        50.18490        21.98607
     2020.37782        47.99274        22.19929
     2020.38056        41.07157        22.10731
     2020.38329        38.19141        21.99026
     2020.38603        40.61024        22.25782
     2020.38877        46.36408        22.31217
     2020.39151        38.97091        22.09895
     2020.39425        42.55375        21.97771
     2020.39698        43.20958        22.11149
     2020.39972        40.60142        22.06969
     2020.40246        39.45325        21.90664
     2020.40520        41.84409        22.28708
     2020.40794        43.52992        21.84393
     2020.41067        46.18776        21.98607
     2020.41341        43.15859        22.51702
     2020.41615        38.19143        21.96099
     2020.41889        41.88226        22.04460
     2020.42162        37.80910        22.75950
     2020.42436        46.34593        23.87991
     2020.42710        43.09477        22.87655
     2020.42984        44.22760        22.67588
     2020.43258        46.30344        22.39160
     2020.43531        43.13427        22.98943
     2020.43805        43.55411        22.58391
     2020.44079        43.01394        22.63826
     2020.44353        44.61678        22.90582
     2020.44626        44.14661        22.51284
     2020.44900        42.67445        21.94427
     2020.45174        43.58828        22.01116
     2020.45448        43.33812        22.09059
     2020.45722        41.99395        22.07805
     2020.45995        40.39979        21.92336
     2020.46269        34.49662        22.11986
     2020.46543        41.59546        21.95681
     2020.46817        38.66129        22.16584
     2020.47091        45.93513        22.65498
     2020.47364        33.42496        22.38324
     2020.47638        42.46680        22.00280
     2020.47912        34.35663        23.19010
     2020.48186        37.06847        22.44595
     2020.48459        44.65730        23.24027
     2020.48733        40.57714        24.00115
     2020.49007        48.01697        23.34479
     2020.49281        47.42481        22.50448
     2020.49555        35.59264        22.93926
     2020.49828        39.36648        22.07387
     2020.50102        39.64831        22.16166
     2020.50376        37.52215        22.30380
     2020.50650        34.18298        21.94845
     2020.50924        34.35182        21.91500
     2020.51197        42.78665        22.06551
     2020.51471        41.26649        22.52956
     2020.51745        37.37932        21.98189
     2020.52019        42.67916        22.70097
     2020.52292        43.18799        22.53792
     2020.52566        41.77483        22.93508
     2020.52840        46.35866        23.21101
     2020.53114        41.64150        22.89746
     2020.53388        39.54633        22.55464
     2020.53661        39.46317        22.92672
     2020.53935        32.47900        23.02706
     2020.54209        35.21284        22.55882
     2020.54483        37.08167        22.73441
     2020.54757        36.23651        22.58391
     2020.55030        41.63234        22.54210
     2020.55304        38.97918        22.86401
     2020.55578        43.07101        24.01369
     2020.55852        25.29185        22.76368
     2020.56125        50.99768        23.63743
     2020.56399        43.06952        22.72605
     2020.56673        46.62335        22.48775
     2020.56947        47.62519        22.59227
     2020.57221        39.20802        23.52038
     2020.57494        41.93786        23.12321
     2020.57768        42.27069        22.43759
     2020.58042        44.38253        22.97689
     2020.58316        33.24936        23.75867
     2020.58590        35.27520        22.61735
     2020.58863        32.40203        22.83057
     2020.59137        36.68587        22.59645
     2020.59411        51.98170        22.90582
     2020.59685        54.60454        25.38077
     2020.59958        46.17037        23.00197
     2020.60232        42.98221        22.38742
     2020.60506        35.33104        22.51702
     2020.60780        52.21088        23.08977
     2020.61054        46.10671        22.76368
     2020.61327        44.74855        22.96435
     2020.61601        40.88738        23.09813
     2020.61875        38.99122        22.39996
     2020.62149        36.78305        22.77204
     2020.62423        44.31389        22.88910
     2020.62696        36.31972        23.45767
     2020.62970        44.89956        24.65751
     2020.63244        41.27439        22.99361
     2020.63518        48.75923        23.86319
     2020.63791        52.35506        24.56136
     2020.64065        41.44390        23.13994
     2020.64339        44.41973        22.55882
     2020.64613        51.99257        22.79294
     2020.64887        38.20440        22.86819
     2020.65160        39.97524        22.81803
     2020.65434        37.78607        22.82221
     2020.65708        46.49491        22.73859
     2020.65982        51.05974        23.49529
     2020.66256        39.61158        23.00197
     2020.66529        45.85641        22.81803
     2020.66803        38.56525        22.92254
     2020.67077        45.52708        23.98443
     2020.67351        49.59692        22.88492
     2020.67624        43.67675        22.60899
     2020.67898        40.59559        22.85147
     2020.68172        34.24242        23.21937
     2020.68446        31.33126        23.46185
     2020.68720        46.73709        22.59227
     2020.68993        45.69993        22.85983
     2020.69267        47.13976        22.99361
     2020.69541        45.35260        23.90082
     2020.69815        43.59943        23.04378
     2020.70089        46.55227        22.36233
     2020.70362        47.86710        22.84311
     2020.70636        43.57294        24.26035
     2020.70910        35.86277        23.85483
     2020.71184        42.55961        23.24445
     2020.71457        48.67844        23.00197
     2020.71731        43.91328        23.50365
     2020.72008        39.92019        23.70432
     2020.72279        43.27695        22.66752
     2020.72553        42.24378        23.35315
     2020.72826        43.95762        23.55382
     2020.73100        45.77245        23.18174
     2020.73374        47.81329        23.23609
     2020.73648        39.63512        22.84311
     2020.73921        44.95396        22.74277
     2020.74195        43.88679        22.46267
     2020.74469        42.75663        22.38742
     2020.74743        43.88746        22.96435
     2020.75017        43.75930        22.65498
     2020.75290        41.34213        22.85983
     2020.75564        38.25297        22.26618
     2020.75838        15.48280        22.58391
     2020.76112         8.13364        22.89328
     2020.76386        11.20747        22.60063
     2020.76659        12.67431        22.38742
     2020.76933        11.12814        23.17338
     2020.77207         7.80198        22.73023
     2020.77481        30.50881        22.99361
     2020.77754        22.74665        22.69679
     2020.78028        13.53148        23.88827
     2020.78302        18.38532        22.94345
     2020.78576        12.18415        22.95599
     2020.78850         8.22499        22.52956
     2020.79123        12.03182        22.79294
     2020.79397        17.61666        23.35315
     2020.79671        12.17149        22.84729
     2020.79945         6.98333        22.57137
     2020.80219        12.21416        23.11485
     2020.80492        10.52300        22.60481
     2020.80766        13.54383        22.72605
     2020.81040        14.06367        22.80548
     2020.81314        19.80150        22.39996
     2020.81587         8.66334        22.77204
     2020.81861        12.96516        22.73859
     2020.82135        17.42101        22.87655
     2020.82409        10.85184        22.77204
     2020.82683        21.65068        22.56301
     2020.82956        16.08351        23.25281
     2021.06339       -70.11575        51.67710
     2021.06492       -60.03092        24.92926
     2021.08683       -48.76422        75.89147
     2021.09022       -69.65876        30.28468
     2021.09240       -70.15733        23.95098
     2021.09514       -62.12749        24.46520
     2021.09787       -62.57466        24.70768
     2021.10061       -66.47182        24.23945
     2021.10282       -74.34831        32.47534
     2021.11990       -62.88168        24.77875
     2021.12251       -66.90214        24.03878
     2021.12525       -62.93931        23.92172
     2021.12799       -58.54947        23.74195
     2021.13073       -64.59164        23.79630
     2021.13347       -66.64280        24.18928
     2021.13620       -61.57297        23.90500
     2021.13894       -66.59813        23.98443
     2021.14168       -62.96830        24.10567
     2021.14442       -66.26246        24.35233
     2021.14715       -72.09563        24.27289
     2021.14989       -71.31979        23.78794
     2021.15263       -65.53096        24.51537
     2021.15537       -60.62912        24.23527
     2021.15811       -68.19029        25.19264
     2021.16084       -65.47145        24.92090
     2021.16358       -63.10662        24.52791
     2021.16632       -63.65078        24.67424
     2021.16906       -61.35895        25.35986
     2021.17180       -62.14211        23.86319
     2021.17453       -55.78328        24.45684
     2021.17727       -65.08244        24.57390
     2021.18001       -65.19061        24.47775
     2021.18275       -69.05177        24.75367
     2021.18548       -66.26094        23.83811
     2021.18822       -63.60110        24.52791
     2021.19096       -60.75027        23.84229
     2021.19370       -71.10343        24.27289
     2021.19644       -68.98760        23.70851
     2021.19917       -66.17476        23.64580
     2021.20191       -63.16393        23.77540
     2021.20465       -63.78709        24.05550
     2021.20739       -66.42726        24.01787
     2021.21013       -63.81642        24.23945
     2021.21286       -66.99159        24.54046
     2021.21560       -61.57975        24.19764
     2021.21834       -69.73692        23.83811
     2021.22108       -65.77408        23.95516
     2021.22381       -68.84025        23.94262
     2021.22655       -66.56541        24.15584
     2021.22929       -60.95458        23.90500
     2021.23203       -63.64874        23.98025
     2021.23477       -71.36591        24.21018
     2021.23750       -67.92507        24.28544
     2021.24024       -60.37624        24.24363
     2021.24298       -63.94540        23.96771
     2021.24572       -68.63657        23.76285
     2021.25119       -64.42990        23.93008
     2021.25393       -66.74206        24.04714
     2021.25667       -68.52223        23.75031
     2021.25941       -65.43639        23.82138
     2021.26214       -68.02456        23.86737
     2021.26488       -64.84872        23.82974
     2021.26762       -63.55389        23.99697
     2021.27036       -64.95505        24.45266
     2021.27310       -53.69322        24.90835
     2021.27583       -64.66138        23.71687
     2021.27857       -63.86755        24.01787
     2021.28131       -60.65071        24.03878
     2021.28405       -55.96288        24.63243
     2021.28679       -56.23704        24.17674
     2021.28952       -63.12921        24.23945
     2021.29226       -65.58137        24.10985
     2021.29500       -65.18754        24.10985
     2021.29774       -60.13170        25.27625
     2021.30047       -58.10387        24.05968
     2021.30321       -57.46303        24.02624
     2021.30595       -66.98420        24.88327
     2021.30869       -55.16036        24.84982
     2021.31143       -57.74253        23.72523
     2021.31410       -52.76686        23.90082
     2021.31693       -58.05080        23.74613
     2021.31964       -64.59802        24.44012
     2021.32512       -67.17735        24.21018
     2021.32785       -67.76252        24.12657
     2021.33059       -55.72768        24.08476
     2021.33333       -62.77985        23.90918
     2021.33607       -64.32101        24.01369
     2021.33880       -70.70418        24.08058
     2021.34154       -64.88434        23.94680
     2021.34428       -57.40051        24.44012
     2021.34702       -67.03767        23.88827
     2021.34976       -64.85484        23.97189
     2021.35249       -63.87000        24.19764
     2021.35523       -60.59917        24.03460
     2021.35797       -70.62033        24.53209
     2021.36071       -68.26450        23.82556
     2021.36344       -67.87566        24.15166
     2021.36618       -76.43483        24.82056
     2021.36892       -68.35599        24.11821
     2021.37166       -62.96716        24.18928
     2021.37440       -70.94732        24.08476
     2021.37713       -56.80949        24.36069
     2021.37987       -61.97465        25.18428
     2021.38261       -58.55782        26.10402
     2021.38535       -61.14498        25.51037
     2021.38809       -63.02415        24.49447
     2021.39055       -62.35799        26.83564
     2021.42483       -80.95841        72.83540
     2021.42642       -51.78046        25.17174
     2021.42915       -50.34862        24.44848
     2021.43189       -59.31779        25.57308
     2021.43463       -58.18395        24.74113
     2021.43737       -67.41612        25.07976
     2021.44010       -64.64828        24.64497
     2021.44284       -68.94945        25.69432
     2021.44558       -62.12361        25.63997
     2021.44832       -58.33778        25.86991
     2021.45106       -59.54894        26.13329
     2021.45379       -50.28911        26.01623
     2021.45653       -62.48827        25.21772
     2021.45927       -58.97444        24.82892
     2021.46201       -61.91860        25.37241
     2021.46475       -67.15977        27.75120
     2021.46748       -59.33893        25.01287
     2021.47022       -60.15110        25.34314
     2021.47296       -72.11526        25.86991
     2021.47570       -58.53643        25.79047
     2021.47843       -59.16659        25.71104
     2021.48117       -66.73876        24.93762
     2021.48391       -69.72492        25.24699
     2021.48665       -70.82709        25.28043
     2021.48939       -62.44425        25.26371
     2021.49212       -67.71242        26.98196
     2021.49486       -64.72358        25.38495
     2021.49760       -70.04975        26.70186
     2021.50034       -70.88791        26.86490
     2021.50308       -72.84108        25.66923
     2021.50581       -83.22324        26.29633
     2021.50855       -75.97641        25.43930
     2021.51129       -70.78357        26.29633
     2021.51403       -66.18474        25.64833
     2021.51676       -62.99590        25.40585
     2021.51950       -63.04207        26.00787
     2021.52224       -83.10423        25.21354
     2021.52498       -67.43240        25.00869
     2021.52772       -64.66456        24.83728
     2021.53045       -63.97673        25.24699
     2021.53319       -72.01889        26.21690
     2021.53593       -66.05806        26.03713
     2021.53867       -64.13822        26.18345
     2021.54141       -60.66239        25.76957
     2021.54414       -71.60255        25.41421
     2021.54688       -73.79272        24.89581
     2021.54962       -62.18588        26.07476
     2021.55236       -61.98105        25.47274
     2021.55509       -63.13121        25.09230
     2021.55783       -65.64638        25.33478
     2021.56057       -66.43154        25.07558
     2021.56331       -58.86871        25.63161
     2021.56605       -68.41287        24.85401
     2021.56878       -59.10304        25.15501
     2021.57152       -64.48420        25.12993
     2021.57426       -64.63637        25.27207
     2021.57700       -56.28053        25.72358
     2021.57974       -63.60570        24.98779
     2021.58247       -64.07786        25.19682
     2021.58521       -63.47703        25.50619
     2021.58795       -62.13319        25.58980
     2021.59069       -58.39336        25.48528
     2021.59276       -53.75717        33.93439
     2021.68480       -62.76042        49.42373
     2021.68651       -58.76413        24.93344
     2021.68925       -59.02230        24.49447
     2021.69199       -55.11946        25.17592
     2021.69472       -59.75163        25.29716
     2021.69746       -55.13879        24.82892
     2021.70020       -61.08596        24.93762
     2021.70294       -63.47212        25.15083
     2021.70518       -50.18852        31.77299
     2021.72339       -88.25406      3237.62867
     2021.72484       -65.96144        25.08812
     2021.72758       -61.67861        25.83228
     2021.73032       -63.34978        26.40503
     2021.73305       -57.91094        25.19264
     2021.73579       -51.08510        26.24198
     2021.73855       -40.43621        26.86908
     2021.74127       -61.19744        25.32224
     2021.74401       -54.70960        25.42676
     2021.74674       -56.92677        25.68596
     2021.74948       -62.56193        25.92425
     2021.75222       -59.49710        25.56890
     2021.75496       -54.68626        26.44684
     2021.75770       -55.75143        30.63585
     2021.76043       -49.98559        26.32978
     2021.76317       -60.39376        25.75285
     2021.76865       -52.66909        25.52291
     2021.77138       -57.84125        25.36823
     2021.77412       -53.11142        25.87409
     2021.77686       -56.68758        25.52709
     2021.77960       -56.43475        25.26371
     2021.78234       -56.08491        25.53127
     2021.78507       -50.20508        25.14665
     2021.78781       -50.13624        24.95016
     2021.79055       -54.64841        25.16337
     2021.79329       -49.84557        25.13411
     2021.79603       -54.50574        25.07140
     2021.79876       -52.59490        24.95852
     2021.80150       -51.83507        25.83646
     2021.80424       -51.99923        25.65669
     2021.80698       -53.42640        25.17174
     2021.80971       -54.65656        25.00869
     2021.81245       -40.63973        25.37659
     2021.81519       -41.47989        25.08812
     2021.81793       -55.44506        25.00033
     2021.82067       -49.71522        25.77375
     2021.82340       -48.86039        25.93680
     2021.82614       -47.95555        25.86991
     2021.82888       -54.20172        25.20936
     2021.83162       -46.93888        25.68178
     2021.83436       -49.20105        25.38913
     2021.83709       -52.39521        25.56054
     2021.83983       -55.02338        25.79883
     2021.84257       -49.84854        26.19600
     2021.84531       -53.53471        25.46438
     2021.84804       -48.50687        25.21354
     2021.85078       -43.21004        25.37659
     2021.85352       -54.48120        25.33060
     2021.85626       -49.50237        25.09230
     2021.85900       -49.92253        25.12157
