# ================= DQRFIT RESULTS ================
# INPUT FILE: series/YAKS.rad
# OUTPUT: LDETRENDED
# FILTER FUNCTION: f(t)
# f(t)=+line(t)+annual(t)+jumps(t)
# line(t)=+P 1+P 2*t
# annual(t)=+P 3*sin(2*pi*t+P 4)
# jumps(t)=+P 5*heav(t-2020.3060  )
# heav(t)=(t<0?0:1)
# TOTAL OBSERVATIONS MTOT=  895
# INITIAL TIME INTERVAL= 2022.7488 - 2020.1725 =  2.5763
# TOTAL OBSERVATIONS AFTER PREFILTER M=  875
# TIME-SPAN= 2022.7488 - 2020.1725 =  2.5763
# OBSERVATIONS: USED M=   875 REJECTED MTOT-M=    20 %USED=   97.7654
# N=  5 PARAMETERS
# MAXSIG= 175.00000
# MAXRES=  31.32432
# SCALE FACTOR FOR LENGTHS: SCL=  10.00000
# SCALE FACTOR FOR SIGMAS: SCLSIG=   1.00000
# CHI^2=    824.399 DOF=   870 CHI^2/DOF=   0.94759
# RMS=      5.712 SDEV=      5.715 MEAN=    0.00781
#  P #       PARAMETER +-    SIGMA %error PARAMETER NAME
# P 1 =      5408.16512 +-  541.946  10.02 YZERO                              
# P 2 =        -2.73907 +-    0.268   9.79 SLOPE                              
# P 3 =         3.19593 +-    0.274   8.59 ANNUAL AMPLITUDE                   
# P 4 =         2.25031 +-    0.077   3.44 ANNUAL PHASE                       
# P 5 =       130.60052 +-    0.944   0.72 OFFSET 2020.3060                   
#       T            LDETRENDED       SIG_OBS
     2020.17248        -9.29104         5.66737
     2020.17519        -5.31062         5.48436
     2020.17796        -3.52703         5.49994
     2020.18070        -8.39553         5.57002
     2020.18344        -4.80103         5.32082
     2020.18617        -4.03755         5.46002
     2020.18891        -4.98904         5.45418
     2020.19165        -5.21954         5.54277
     2020.19439       -10.04404         5.56224
     2020.19713        -5.62354         5.52135
     2020.19986        -4.50604         5.58949
     2020.20260        -3.73455         5.42887
     2020.20533        -0.32605         5.39967
     2020.20807        -2.42155         5.35100
     2020.21081        -5.26606         5.39091
     2020.21355        -2.65456         5.88055
     2020.21629        -4.47606         5.69852
     2020.21900        -8.51962         5.74232
     2020.22176         0.23494         5.56029
     2020.22450         1.77344         5.37047
     2020.22724        -4.65805         5.55737
     2020.22998         0.10845         5.33834
     2020.23271         3.14394         5.52622
     2020.23546        -0.64655         5.66347
     2020.23819        -1.23605         5.65861
     2020.24093        -6.84555         5.65763
     2020.24367        -7.24305         5.72285
     2020.24641        -4.12855         5.48533
     2020.24914        -6.78805         5.61675
     2020.25094         8.18887        10.34475
     2020.25569         6.12489        12.55446
     2020.25735        -2.16357         5.65082
     2020.26009         8.47993         5.33445
     2020.26283         1.43543         5.34419
     2020.26557        -5.88807         5.51259
     2020.26830         3.27643         5.31206
     2020.27104         2.55693         5.27118
     2020.27378         1.54243         5.36268
     2020.27652        -5.86808         5.51746
     2020.27929         0.30851         5.40065
     2020.28199        22.93091         9.42387
     2020.28474         3.88545         7.84787
     2020.28747         8.26292         8.40663
     2020.29021        -3.94758         5.30330
     2020.29295        -2.07708         5.26339
     2020.29568         5.47342         5.43472
     2020.29842         5.91992         5.23516
     2020.30116         6.17242         5.24879
     2020.30390         1.74992         5.32374
     2020.33401       129.73241         5.29162
     2020.33675       127.13491         5.19914
     2020.33949       127.57941         5.13684
     2020.34223       128.83390         5.30038
     2020.34496       121.39140         5.41038
     2020.34770       124.16790         5.19136
     2020.35044       125.53040         5.23127
     2020.35318       124.58090         5.22835
     2020.35592       128.04940         5.20790
     2020.35865       131.09990         5.17091
     2020.36139       132.07240         5.20012
     2020.36413       129.20290         5.48241
     2020.36687       127.37240         5.19914
     2020.36961       124.24790         5.16994
     2020.37234       128.44439         5.09304
     2020.37508       127.66089         5.20790
     2020.37782       133.40939         5.24684
     2020.38056       129.42189         5.48241
     2020.38329       129.92339         5.24587
     2020.38603       133.67989         5.16021
     2020.38877       129.18239         5.23224
     2020.39151       128.76089         5.18941
     2020.39425       127.41139         5.15923
     2020.39698       123.76789         5.17870
     2020.39972       128.96739         5.17675
     2020.40246       125.92189         5.20985
     2020.40520       126.38238         5.23029
     2020.40794       126.87688         5.21277
     2020.41067       127.01738         5.16897
     2020.41341       124.75988         5.31109
     2020.41615       129.09738         5.13295
     2020.41889       127.35688         5.17383
     2020.42162       122.72938         5.32666
     2020.42436       126.24188         5.48533
     2020.42710       129.61938         5.46392
     2020.42984       132.06688         5.29551
     2020.43258       131.95938         5.25658
     2020.43531       131.43888         5.31304
     2020.43805       125.00337         5.24197
     2020.44079       125.33787         5.40357
     2020.44353       133.84637         5.54763
     2020.44626       125.62387         5.19622
     2020.44900       131.27137         5.21180
     2020.45174       133.43587         5.19914
     2020.45448       126.23337         5.11153
     2020.45722       130.29987         5.22543
     2020.45995       124.77637         5.12419
     2020.46269       129.74987         5.14852
     2020.46543       128.25237         5.14755
     2020.46817       129.24487         5.27215
     2020.47091       129.92136         5.26047
     2020.47364       124.31986         5.13392
     2020.47638       131.73336         5.22835
     2020.47912       132.11186         5.37047
     2020.48186       124.52336         5.31206
     2020.48459       119.59086         5.31888
     2020.48733       126.40436         5.52135
     2020.49007       131.47486         5.36852
     2020.49281       133.14136         5.28967
     2020.49555       135.64386         5.33056
     2020.49828       131.69936         5.09596
     2020.50102       120.67086         5.10861
     2020.50376       123.64135         5.19330
     2020.50650       121.71785         5.13782
     2020.50924       122.96435         5.07746
     2020.51197       126.00485         5.10959
     2020.51471       128.25035         5.13782
     2020.51745       126.32385         5.18259
     2020.52019       133.65435         5.26047
     2020.52292       133.39485         5.22737
     2020.52566       121.72935         5.30719
     2020.52840       127.61185         5.42401
     2020.53114       129.28635         5.27604
     2020.53388       128.88685         5.22251
     2020.53661       125.75834         5.31012
     2020.53935       130.40984         5.22737
     2020.54209       124.96834         5.56126
     2020.54483       128.06184         5.27604
     2020.54757       126.55034         5.22153
     2020.55030       131.16384         5.22640
     2020.55304       131.01634         5.27507
     2020.55578       133.20384         5.27410
     2020.55852       132.33134         5.41233
     2020.56125       137.67684         5.38507
     2020.56399       127.83534         5.22153
     2020.56673       126.63384         5.17091
     2020.56947       134.02733         5.29065
     2020.57221       132.70883         5.43180
     2020.57494       128.55233         5.29065
     2020.57768       131.24283         5.28189
     2020.58042       131.26133         5.49799
     2020.58316       131.91783         5.37047
     2020.58590       132.62133         5.22835
     2020.58863       127.34183         5.35100
     2020.59137       125.59233         5.38507
     2020.59411       131.45983         5.20985
     2020.59685       130.09933         5.74914
     2020.59958       128.65282         5.29357
     2020.60232       130.17332         5.24976
     2020.60506       125.65382         5.40259
     2020.60780       129.12332         5.18941
     2020.60965       134.18440         9.25936
     2020.61958       126.76260         8.19929
     2020.62149       124.60682         5.30427
     2020.62423       130.79832         5.42401
     2020.62696       123.63582         5.36268
     2020.62970       140.81032         5.72285
     2020.63244       131.58181         5.33542
     2020.63518       130.86631         5.38410
     2020.63791       126.03681         5.54277
     2020.64065       132.56531         5.33445
     2020.64339       128.22981         5.27897
     2020.64613       133.01031         5.28578
     2020.64887       133.16781         5.29454
     2020.65160       132.37631         5.26339
     2020.65434       131.21381         5.20498
     2020.65708       134.48431         5.31985
     2020.65982       135.28681         5.33640
     2020.66256       128.20231         5.32666
     2020.66529       133.34680         5.26923
     2020.66803       130.62330         5.24100
     2020.67077       129.10280         5.28675
     2020.67351       136.78830         5.30622
     2020.67624       130.19680         5.30817
     2020.67898       125.31230         5.29162
     2020.68172       124.61080         5.27410
     2020.68446       125.43530         5.41719
     2020.68720       124.55280         5.26728
     2020.68993       132.19430         5.31012
     2020.69267       130.36780         5.37144
     2020.69541       131.56930         5.48631
     2020.69815       130.92979         5.28675
     2020.70089       133.12129         5.19330
     2020.70362       134.36779         5.47073
     2020.70636       129.92929         5.75303
     2020.70910       125.81079         5.47657
     2020.71184       131.76329         5.31304
     2020.71457       129.93079         5.34224
     2020.71731       132.17229         5.39772
     2020.72008       131.39088         5.44834
     2020.72279       132.50429         5.24879
     2020.72553       133.41779         5.34905
     2020.72826       134.11529         5.57781
     2020.73100       141.45378         5.43666
     2020.73374       141.59728         5.52038
     2020.73648       128.52578         5.30233
     2020.73921       130.21128         5.25852
     2020.74195       131.89478         5.24003
     2020.74469       129.83128         5.22153
     2020.74743       132.59978         5.28286
     2020.75017       129.90928         5.26144
     2020.75290       125.18178         5.28189
     2020.75564       128.16428         5.17481
     2020.75838       130.50878         5.29065
     2020.76112       135.13528         5.31012
     2020.76386       133.86377         5.21374
     2020.76659       135.34727         5.18065
     2020.76933       136.00677         5.32666
     2020.77207       134.67827         5.20693
     2020.87611       139.77024         5.42498
     2020.87885       143.00874         5.36171
     2020.88158       141.55924         5.37631
     2020.88432       142.28974         5.28773
     2020.88706       136.85224         5.54569
     2020.88980       138.68974         5.38507
     2020.89253       136.20623         5.31596
     2020.89527       135.89773         5.45126
     2020.89801       143.16223         5.41817
     2020.90075       146.38173         5.27702
     2020.90349       140.56623         5.24684
     2020.90622       138.71673         5.26728
     2020.90896       142.01923         5.54763
     2020.91170       138.30473         5.54471
     2020.91444       144.82823         5.34711
     2020.91718       135.27273         5.27312
     2020.91991       132.42723         5.24489
     2020.92265       134.43873         5.31012
     2020.92539       128.93722         5.29746
     2020.92813       130.46472         5.22932
     2020.93086       135.50622         5.28189
     2020.93360       138.72472         5.30330
     2020.93634       141.35922         5.41330
     2020.93908       136.18972         5.33348
     2020.94182       133.11422         5.23711
     2020.94455       133.70072         5.24879
     2020.94729       129.01522         5.21959
     2020.95003       128.15972         5.29454
     2020.95277       123.80722         5.22932
     2020.95551       127.87772         5.29259
     2020.95824       132.96521         5.52525
     2020.96098       130.94271         5.84843
     2020.96372       134.87421         5.36365
     2020.96646       134.18871         5.38896
     2020.96919       134.47121         5.33348
     2020.97193       127.08171         5.21764
     2020.97467       130.49321         5.33153
     2020.97741       127.88971         5.32277
     2020.98015       129.27921         5.43180
     2020.98288       130.99671         5.36949
     2020.98562       138.52321         5.23321
     2020.98836       132.40571         5.29649
     2020.99657       144.96620         5.21277
     2020.99931       146.46770         5.18551
     2021.00205       130.58020         5.19136
     2021.00479       143.66370         5.28481
     2021.00752       141.11820         5.23419
     2021.01026       136.58270         5.20401
     2021.01300       136.20420         5.22640
     2021.01574       135.31270         5.40649
     2021.01848       135.36620         5.16994
     2021.02121       134.72370         5.23808
     2021.02395       131.16319         5.18162
     2021.02669       128.29069         5.32764
     2021.02943       133.73119         5.19136
     2021.03216       132.68469         5.23321
     2021.03490       146.24219         5.38896
     2021.03764       129.87069         5.22153
     2021.04038       129.24419         5.31985
     2021.04312       133.12769         5.20693
     2021.04585       134.51019         5.30233
     2021.04859       130.85769         5.21569
     2021.05133       130.43619         5.22348
     2021.05407       134.44769         5.51940
     2021.05681       132.68918         5.37534
     2021.05954       126.11268         5.19525
     2021.06228       128.62918         5.21861
     2021.06502       130.91968         5.31012
     2021.06776       135.03218         5.23127
     2021.07049       134.65768         5.18746
     2021.07871       130.30818         5.25852
     2021.08145       130.39668         5.19330
     2021.08418       119.67118         5.23905
     2021.08692       129.58167         5.22153
     2021.08966       133.28817         5.22932
     2021.09240       128.74267         5.20596
     2021.09514       128.18117         5.33640
     2021.09787       133.59767         5.40551
     2021.10061       137.56217         5.30330
     2021.10336       138.27171         5.40259
     2021.10609       128.64117         5.19817
     2021.10882       131.25267         5.18259
     2021.11156       127.74517         5.19038
     2021.11430       125.65967         5.20596
     2021.11704       131.58817         5.18844
     2021.11978       132.94466         5.19136
     2021.12251       135.75016         5.23808
     2021.13073       121.61366         5.16799
     2021.13347       122.59016         5.28870
     2021.13620       129.10466         5.25755
     2021.13894       129.76416         5.16313
     2021.14168       125.90366         5.25366
     2021.14442       131.67316         5.24781
     2021.14715       132.69566         5.17870
     2021.14989       125.05716         5.21959
     2021.15262       121.62763         5.32180
     2021.15539       136.76522         5.39383
     2021.15811       126.51965         5.46100
     2021.16084       132.46415         5.54763
     2021.16358       126.74865         5.50286
     2021.16632       128.82815         5.45905
     2021.16849       129.37109         7.10709
     2021.17180       129.57615         5.53011
     2021.17453       122.98465         5.49507
     2021.17727       126.63515         5.33932
     2021.18001       127.40565         5.44542
     2021.18275       123.88915         5.49702
     2021.18548       126.94364         5.15729
     2021.18822       127.13014         5.25463
     2021.19096       128.19564         5.50188
     2021.19370       125.31914         5.31888
     2021.19644       121.07864         5.19233
     2021.19917       123.63214         5.32666
     2021.20191       128.11864         5.27702
     2021.20465       129.38214         5.15339
     2021.20739       126.26264         5.30719
     2021.21013       129.79614         5.65763
     2021.21286       130.95764         5.38215
     2021.21560       135.43214         5.30817
     2021.21834       128.83763         5.28773
     2021.22108       124.30213         5.37631
     2021.22381       122.42963         5.27118
     2021.22572       124.93184         8.84662
     2021.22929       135.34463         5.55542
     2021.23203       132.76513         5.12906
     2021.23477       131.67763         5.34613
     2021.23750       123.05613         5.35489
     2021.24024       129.30963         5.47463
     2021.24298       131.35713         5.26242
     2021.24572       123.29663         5.18259
     2021.24846       130.06413         5.44250
     2021.25119       129.87062         5.34808
     2021.25393       124.66312         5.46197
     2021.25667       128.35362         5.27897
     2021.25941       130.15812         5.17967
     2021.26214       132.14262         5.45126
     2021.26488       134.43212         5.35197
     2021.26762       131.06162         5.30135
     2021.26954       132.50788         8.18858
     2021.27310       133.52362         5.47755
     2021.27583       126.20312         5.13976
     2021.27857       127.67662         5.30525
     2021.28131       133.34112         5.40551
     2021.28405       136.02161         5.42206
     2021.28679       129.78111         5.35003
     2021.28952       123.54061         5.88542
     2021.29226       127.53611         5.30525
     2021.29500       131.54561         5.44348
     2021.29774       130.36211         5.58463
     2021.30047       128.98761         5.37436
     2021.30321       132.50611         5.38702
     2021.30595       132.66961         5.60215
     2021.30869       142.47111         5.55445
     2021.31143       136.67361         5.20109
     2021.31416       141.23910         5.22251
     2021.31690       135.78860         5.48533
     2021.32021       133.42767         7.46434
     2021.32295       133.96316         7.20151
     2021.32569       130.93969         7.50620
     2021.32843       121.88118         7.29983
     2021.33117       132.30668         6.81700
     2021.33390       134.17616         6.87541
     2021.33664       132.72266         6.88806
     2021.33937       131.45116         7.21416
     2021.34211       131.96966         7.07594
     2021.34485       132.70816         8.78238
     2021.34759       131.38566         7.26868
     2021.35033       124.16316         7.04479
     2021.35306       122.69366         6.78682
     2021.35580       126.45215         7.12558
     2021.35854       128.25565         6.97664
     2021.36133       123.13631         7.51301
     2021.36402       128.29165         8.39495
     2021.36653       124.44553         6.91240
     2021.36891       126.02205         5.19525
     2021.37172       129.07676         5.46489
     2021.37438       128.56603         5.42011
     2021.37770       123.54615         7.03602
     2021.38044       131.65265         7.45363
     2021.38318       132.21415         7.89460
     2021.38592       132.03965         7.33682
     2021.38866       127.05714         7.67265
     2021.39413       123.90014         6.81213
     2021.39687       127.70564         7.04673
     2021.39938       129.80952         6.57364
     2021.40177       134.66808         5.93896
     2021.40451       129.08058         5.37339
     2021.40782       126.62364         7.10611
     2021.41055       132.11311         7.67363
     2021.41330       132.61164         7.03213
     2021.41603       132.55814         7.62496
     2021.41877       117.66764         7.17425
     2021.42151       123.98913         7.41664
     2021.42425       138.38763         7.33487
     2021.42699       133.20713         7.43513
     2021.42972       139.58063         7.29691
     2021.43246       134.91313         7.12558
     2021.43520       127.01763         7.31053
     2021.43794       131.69413         8.03380
     2021.44068       126.82563         7.05647
     2021.44341       126.07713         7.59673
     2021.44615       127.66663         7.45850
     2021.44889       123.44513         7.11974
     2021.45163       129.00763         7.50425
     2021.45436       131.27512         7.63761
     2021.45710       126.08562         7.62204
     2021.45984       124.94812         6.94744
     2021.46258       126.78562         7.30664
     2021.46528       123.46403         7.82451
     2021.46805       129.18762         6.89974
     2021.47079       128.91712         7.03700
     2021.47353       130.51762         7.41664
     2021.47627       121.83412         6.96594
     2021.47901       118.38262         7.01169
     2021.48174       111.75512         6.91532
     2021.48448       114.46662         7.32124
     2021.48722       109.98311         7.09443
     2021.48996       122.16961         6.82576
     2021.49269       122.07511         6.93187
     2021.49520       126.91299         6.24754
     2021.50091       116.95761         7.19567
     2021.50365       129.17511         7.21806
     2021.50638       112.54961         7.52177
     2021.50912       123.35311         7.01656
     2021.51186       130.80161         7.62301
     2021.51458       133.93807         7.14408
     2021.51733       129.26060         7.21124
     2021.52007       125.78810         7.74566
     2021.52281       115.16360         7.22098
     2021.52555       133.69710         7.40204
     2021.52829       118.46060         6.93576
     2021.53102       122.06510         6.94841
     2021.53376       127.74860         6.99125
     2021.53650       117.47210         7.50036
     2021.53924       132.32160         7.75929
     2021.54198       127.32810         7.03700
     2021.54471       119.19260         7.30859
     2021.54745       117.39710         7.07594
     2021.55019       123.76959         7.24726
     2021.55293       122.72709         7.64442
     2021.55566       125.47459         7.20054
     2021.55842       116.30313         7.21222
     2021.56115       122.62860         6.91629
     2021.56388       126.26309         7.04868
     2021.56605       130.18903         5.30038
     2021.56878       125.36953         5.41330
     2021.57152       123.87703         5.41525
     2021.57426       118.00452         5.34905
     2021.57700       126.59002         5.61675
     2021.57974       124.46652         5.28383
     2021.58247       120.08902         5.35100
     2021.58521       124.46652         5.46587
     2021.58795       123.48702         5.31206
     2021.59069       130.27852         5.40551
     2021.59342       126.41702         5.32764
     2021.59616       122.98152         5.79878
     2021.59890       124.08302         5.37436
     2021.60164       132.77452         5.53595
     2021.60438       126.53802         5.21082
     2021.60711       128.37851         5.28286
     2021.60985       127.48401         5.31206
     2021.61259       131.46351         5.34613
     2021.61533       122.28501         5.31693
     2021.61807       124.36551         5.28383
     2021.62080       128.85001         5.24295
     2021.62354       128.29351         5.28967
     2021.62628       128.83301         5.53693
     2021.62902       129.48851         5.32374
     2021.63175       125.71301         5.34029
     2021.63449       127.01851         5.61383
     2021.63723       128.74401         5.50967
     2021.63997       133.35550         5.47365
     2021.64271       128.71700         5.35781
     2021.64544       125.97450         5.24295
     2021.64818       126.80200         5.21764
     2021.65092       128.80850         5.28773
     2021.65366       133.32800         5.33737
     2021.65639       129.26850         5.30622
     2021.65913       124.35600         5.28578
     2021.66187       128.94050         5.29162
     2021.66461       128.55000         5.19622
     2021.66735       133.53250         5.25074
     2021.67008       125.86700         5.32958
     2021.67282       129.75749         5.48241
     2021.67556       132.26999         5.62843
     2021.67830       128.57649         5.37631
     2021.68104       128.22599         5.34808
     2021.68377       131.35649         5.27994
     2021.68651       128.99199         5.43666
     2021.68925       126.75549         5.28189
     2021.69199       128.19499         5.30135
     2021.69472       127.36949         5.53303
     2021.69746       131.97299         5.28675
     2021.70020       128.28649         5.35976
     2021.70294       129.67499         5.36171
     2021.70568       130.81848         5.58170
     2021.70841       131.22098         5.35197
     2021.71115       138.60948         5.39772
     2021.71389       139.01098         5.58073
     2021.71663       133.01548         5.42401
     2021.71937       128.18698         5.39383
     2021.72210       125.03048         5.35197
     2021.72484       132.79798         5.45710
     2021.72758       130.49748         5.42498
     2021.73032       129.93398         5.68392
     2021.73305       134.33048         5.37631
     2021.73579       140.38198         5.54958
     2021.73855       134.70453         5.71896
     2021.74127       134.94497         5.43666
     2021.74401       136.87347         5.46879
     2021.74674       133.26697         5.38799
     2021.74948       125.65347         5.51454
     2021.75222       129.81697         5.38604
     2021.75496       139.61647         5.63914
     2021.75706       137.39522         7.38841
     2021.76043       142.55947         5.64985
     2021.76317       132.25597         5.46587
     2021.76591       135.74047         5.38604
     2021.76851       134.31359         5.62259
     2021.77787       125.11022        11.00474
     2021.77960       139.74696         5.39578
     2021.78234       133.50746         5.42985
     2021.78507       142.08396         5.43764
     2021.78781       137.16546         5.40551
     2021.79055       135.45496         5.35295
     2021.79329       136.32446         5.39870
     2021.79603       140.17196         5.41622
     2021.79876       135.69246         5.33445
     2021.80150       139.21195         5.55250
     2021.80424       135.13245         5.51551
     2021.80698       135.83195         5.48923
     2021.80971       133.13245         5.51940
     2021.81245       143.05595         5.64303
     2021.81519       148.98245         5.42011
     2021.81793       142.54995         5.45321
     2021.82067       131.73845         5.62162
     2021.82340       140.47795         5.58852
     2021.82614       135.51245         5.57002
     2021.82888       137.99595         5.40259
     2021.83162       139.26145         5.52914
     2021.83436       138.78794         5.47365
     2021.83709       129.88644         5.51454
     2021.83983       129.07294         5.55153
     2021.84257       136.25044         5.63816
     2021.84531       134.04994         5.51551
     2021.84804       135.35044         5.47171
     2021.85078       137.00194         5.46976
     2021.85352       132.66144         5.40357
     2021.85626       136.81094         5.46295
     2021.85900       133.90044         5.47560
     2021.86447       127.56144         5.55932
     2021.86721       123.08293         5.76471
     2021.86995       134.84543         5.78418
     2021.87269       139.08793         5.57197
     2021.87542       123.08143         5.52525
     2021.87816       126.99293         5.37534
     2021.88090       129.46243         5.42595
     2021.88364       125.88393         5.54569
     2021.88637       128.90443         5.33640
     2021.88911       124.64593         5.35197
     2021.89185       126.18643         5.51746
     2021.89733       126.84943         5.37242
     2021.90006       125.20592         5.35295
     2021.90280       129.26142         5.45321
     2021.90554       130.88592         5.44348
     2021.90828       137.31642         5.64790
     2021.91102       135.22692         5.60409
     2021.91375       135.78142         5.41233
     2021.91649       133.41692         5.51162
     2021.91923       134.53242         5.57781
     2021.92197       124.89592         5.69657
     2021.92470       127.10042         5.61578
     2021.92744       130.06092         5.49312
     2021.93018       125.93542         5.50967
     2021.93292       135.95191         5.72675
     2021.93566       132.76641         5.71604
     2021.93839       137.41791         5.69170
     2021.94113       139.87941         5.72577
     2021.94387       141.66791         5.60604
     2021.94661       137.13441         5.53401
     2021.94935       138.21491         5.53011
     2021.95208       135.33941         5.51162
     2021.95482       133.18591         5.50188
     2021.95756       135.09341         5.44250
     2021.96030       132.77791         5.56321
     2021.96303       135.97441         5.58852
     2021.96577       133.87890         5.46100
     2021.96851       132.60540         5.53693
     2021.97125       140.13390         5.54861
     2021.97399       142.89240         5.63232
     2021.97672       144.26790         5.53693
     2021.97946       143.50640         5.47073
     2021.98220       143.95290         5.50675
     2021.98494       145.69640         5.59923
     2021.98767       139.82290         5.47755
     2021.99041       142.95340         5.47949
     2021.99315       140.63490         5.49896
     2021.99589       145.85740         5.57684
     2021.99863       131.99389         5.51843
     2022.00136       132.47039         5.52233
     2022.00410       131.91189         5.48339
     2022.00684       120.56439         5.48339
     2022.00958       114.70589         5.49604
     2022.01232       121.06039         5.51551
     2022.01779       118.02139         6.11515
     2022.01990       164.14017         8.21875
     2022.02345       111.82288         6.31471
     2022.02600       115.24489         5.49604
     2022.02874       121.15239         5.56029
     2022.03148       119.76288         5.67418
     2022.03422       122.94338         5.52817
     2022.03696       120.31088         5.45224
     2022.03969       114.28538         5.79781
     2022.04243       125.51788         5.48533
     2022.04517       124.87338         5.56808
     2022.04791       124.70288         5.62940
     2022.05065       124.27038         5.45224
     2022.05338       126.58788         5.51746
     2022.05612       120.11338         5.59144
     2022.05886       116.84888         5.45126
     2022.06160       118.27937         5.49799
     2022.06433       127.22287         5.52233
     2022.06707       120.59437         5.42206
     2022.06981       128.06287         5.50188
     2022.07255       118.48437         5.37047
     2022.07529       124.53987         5.34516
     2022.07802       130.09637         5.40843
     2022.08076       132.89587         5.40162
     2022.08350       132.25937         5.44250
     2022.08624       133.07687         5.38215
     2022.08898       132.99937         5.36657
     2022.09171       127.52787         5.36949
     2022.09445       126.09736         5.42109
     2022.09719       126.64086         5.31693
     2022.09993       124.39136         5.51648
     2022.10266       115.05786         5.63135
     2022.10540       128.54536         5.42401
     2022.10814       138.75086         5.32861
     2022.11088       133.92336         5.46197
     2022.11362       130.40586         5.33445
     2022.11635       133.31736         5.33640
     2022.11909       129.41286         5.35295
     2022.12183       138.88136         5.37923
     2022.12457       138.52186         5.52817
     2022.12731       131.10935         5.44250
     2022.13004       127.00585         5.33542
     2022.13278       131.13135         5.42011
     2022.13552       135.37985         5.42303
     2022.13826       134.88835         5.37436
     2022.14099       133.85985         5.31985
     2022.14373       122.05135         5.31596
     2022.14647       132.59585         5.36463
     2022.14921       134.71235         5.56808
     2022.15195       129.85985         5.57878
     2022.15468       131.38835         5.33056
     2022.15742       132.26185         5.35879
     2022.16016       133.24834         5.44250
     2022.16290       126.74484         5.43958
     2022.16564       125.88734         5.33640
     2022.16837       131.86984         5.38410
     2022.17111       128.68434         5.38215
     2022.17385       131.12584         5.31790
     2022.17659       127.92534         5.32180
     2022.17932       120.43284         5.33737
     2022.18206       123.99334         5.41817
     2022.18480       122.07584         5.41233
     2022.18754       128.25634         5.42109
     2022.19028       125.99084         5.42595
     2022.19301       130.57733         5.35100
     2022.19575       136.84883         5.40843
     2022.19849       132.10133         5.37534
     2022.20123       132.40483         5.39286
     2022.20397       134.48033         5.47073
     2022.20670       129.91183         5.47463
     2022.20944       133.05133         5.51454
     2022.21218       134.42783         5.45808
     2022.21492       128.82633         5.39772
     2022.21765       126.86183         5.35100
     2022.22039       127.17433         5.33640
     2022.22313       129.62083         5.42011
     2022.22587       122.30732         5.45516
     2022.22861       136.37482         5.46587
     2022.23134       136.89732         5.43666
     2022.23408       135.23182         5.36852
     2022.23682       134.24732         5.47365
     2022.23956       130.21982         5.41135
     2022.24230       126.15532         7.18204
     2022.24452       130.12441        14.15284
     2022.24777       130.78832        29.71231
     2022.25051       126.02283         9.91643
     2022.25325       131.41332         6.30108
     2022.25598       145.26082         5.48339
     2022.25872       142.40331         5.48631
     2022.26146       127.15681         5.44056
     2022.26420       131.64431         5.39383
     2022.26694       127.91181         5.64108
     2022.26967       132.59631         5.53887
     2022.27241       141.92881         5.42985
     2022.27515       133.61131         5.62746
     2022.27789       132.17281         5.39480
     2022.28062       128.84831         5.40649
     2022.28336       135.08581         5.37728
     2022.28610       132.07331         5.44834
     2022.28884       132.50480         5.54958
     2022.29158       127.37830         5.40357
     2022.29431       128.55480         5.36365
     2022.29705       132.09530         5.38020
     2022.29979       137.54180         5.34516
     2022.30253       134.57930         5.47852
     2022.30527       135.35780         5.55834
     2022.30800       130.23530         5.47755
     2022.31074       128.26380         5.41719
     2022.31348       131.69430         5.41525
     2022.31622       131.56680         5.33542
     2022.31895       119.59630         5.55640
     2022.32169       132.57379         5.57294
     2022.32443       131.72329         5.37826
     2022.32717       124.20079         5.42498
     2022.32991       123.14229         5.44348
     2022.33264       124.06979         5.46781
     2022.33538       130.11129         5.61188
     2022.33812       130.50279         5.68586
     2022.34086       129.21829         5.51843
     2022.34360       129.46579         5.49020
     2022.34633       129.84429         5.39480
     2022.34907       133.43679         5.38020
     2022.35181       137.08029         5.38118
     2022.35455       132.33478         5.37436
     2022.35728       128.27428         5.36365
     2022.36002       129.61678         5.38702
     2022.36276       135.15928         5.44932
     2022.36550       126.41178         5.38312
     2022.36824       130.62528         5.55153
     2022.37097       126.58578         5.44737
     2022.37371       119.69328         5.35587
     2022.37645       126.73878         5.61675
     2022.37919       132.77028         5.55153
     2022.38193       127.01778         5.48923
     2022.38466       126.05328         5.48825
     2022.38740       112.37177         5.40941
     2022.39014       125.08527         5.48533
     2022.39288       131.78677         5.50286
     2022.39561       128.50027         5.35587
     2022.39835       130.77177         5.36365
     2022.40109       126.01027         5.68684
     2022.40383       129.88477         5.32277
     2022.40657       128.76627         5.32861
     2022.40930       122.24077         5.40065
     2022.41204       128.38327         5.44542
     2022.41478       127.69277         5.28967
     2022.41752       129.27427         5.40843
     2022.42026       124.75776         5.50383
     2022.42218       128.64302         8.61300
     2022.43762       127.47634         9.65263
     2022.43942       129.44926         5.34613
     2022.44216       124.52876         5.51064
     2022.44490       131.33726         5.49410
     2022.44763       131.49276         5.30427
     2022.45037       124.65226         5.35392
     2022.45311       122.32675         5.27312
     2022.45585       128.92925         5.40065
     2022.45859       112.51175         5.34419
     2022.46132       125.81025         5.31596
     2022.46406       120.55575         5.33348
     2022.46680       124.90125         5.34516
     2022.46954       122.15975         5.34516
     2022.47227       113.21425         5.31498
     2022.47501       135.01275         5.37144
     2022.47775       122.69125         5.47171
     2022.48049       123.40375         5.32472
     2022.48323       131.75725         5.28383
     2022.48596       136.43374         5.31596
     2022.48870       134.19224         5.47949
     2022.49144       121.52874         5.38994
     2022.49418       127.48224         5.48631
     2022.49692       134.87374         5.42303
     2022.49965       123.95224         5.39480
     2022.50239       111.26374         5.38507
     2022.50513       130.70724         5.61578
     2022.50787       138.45574         5.71993
     2022.51060       121.86524         5.48436
     2022.51334       125.77474         5.49410
     2022.51608       121.02023         5.35295
     2022.51882       122.16673         5.38507
     2022.52156       126.86823         5.42401
     2022.52429       128.69673         5.38118
     2022.52703       137.80823         5.41038
     2022.52977       131.65673         5.40259
     2022.53251       126.95123         5.39675
     2022.53525       131.72273         5.54179
     2022.53798       123.44623         5.60215
     2022.54072       124.58873         5.44056
     2022.54347       128.44925         5.45418
     2022.54620       130.36973         5.46002
     2022.54893       129.58422         5.34711
     2022.55167       135.69672         5.39578
     2022.55441       137.89222         5.52817
     2022.55715       134.86872         5.52622
     2022.55989       125.38722         5.38118
     2022.56262       125.33472         5.32861
     2022.56536       112.31822         5.28870
     2022.56810       122.49072         5.32374
     2022.57084       124.31222         5.57489
     2022.57357       132.20072         5.45224
     2022.57631       117.92922         5.34127
     2022.57905       120.67572         5.40357
     2022.58179       134.93321         5.35295
     2022.58453       131.50771         5.67321
     2022.58726       133.05521         5.49507
     2022.59000       141.79971         5.64498
     2022.59274       119.62921         5.23711
     2022.59548       126.91271         5.28481
     2022.59822       117.84021         5.32374
     2022.60095       116.34571         5.27897
     2022.60369       132.31021         5.33250
     2022.60643       125.68771         5.58073
     2022.60917       124.73721         5.44153
     2022.61190       132.67071         5.60799
     2022.61464       129.14320         5.55250
     2022.61738       132.50570         5.22056
     2022.62012       124.78820         5.24879
     2022.62286       129.75370         5.27312
     2022.62559       127.76020         5.24879
     2022.62833       127.14570         5.21959
     2022.63107       127.87420         5.24976
     2022.63381       134.60470         5.28578
     2022.63655       130.67220         5.39383
     2022.63928       129.11370         5.33834
     2022.64202       127.96920         5.72577
     2022.64476       138.75070         5.62356
     2022.64750       136.41619         5.35976
     2022.65023       126.02969         5.51162
     2022.65297       138.69319         5.48631
     2022.65571       136.63569         5.39967
     2022.65845       135.86219         5.22153
     2022.66119       133.35369         5.20012
     2022.66392       130.29619         5.38702
     2022.66666       136.08469         5.32569
     2022.66940       130.39319         5.25852
     2022.67214       132.48769         5.29357
     2022.67488       134.04919         5.24197
     2022.67761       137.41469         5.24392
     2022.68035       134.47018         5.23613
     2022.68309       137.78968         5.34808
     2022.68583       136.55718         5.54277
     2022.68856       135.95968         5.36171
     2022.69130       135.77618         5.27507
     2022.69404       136.96668         5.32082
     2022.69678       137.82918         5.51940
     2022.69952       125.17668         5.33640
     2022.70225       140.87118         5.44932
     2022.70499       135.19068         5.41817
     2022.70773       136.17218         5.30038
     2022.71047       136.80368         5.25560
     2022.71321       139.73617         5.29649
     2022.71868       134.21617         5.20790
     2022.72142       141.28467         5.23224
     2022.72416       135.23517         5.38020
     2022.72689       139.57167         5.39091
     2022.72963       135.08517         5.25755
     2022.73238       134.03571         5.38410
     2022.73511       135.66717         5.21666
     2022.73785       135.29367         5.24879
     2022.74058       140.39317         5.58755
     2022.74332       146.13867         5.53790
     2022.74606       138.32816         5.32666
     2022.74880       133.29566         5.26534
