# ================= DQRFIT RESULTS ================
# INPUT FILE: series/YCS2.rad
# OUTPUT: LDETRENDED
# FILTER FUNCTION: f(t)
# f(t)=+line(t)
# line(t)=+P 1+P 2*t
# heav(t)=(t<0?0:1)
# TOTAL OBSERVATIONS MTOT=  502
# INITIAL TIME INTERVAL= 2022.7488 - 2021.3782 =  1.3706
# TOTAL OBSERVATIONS AFTER PREFILTER M=  501
# TIME-SPAN= 2022.7488 - 2021.3782 =  1.3706
# OBSERVATIONS: USED M=   501 REJECTED MTOT-M=     1 %USED=   99.8008
# N=  2 PARAMETERS
# MAXSIG= 175.00000
# MAXRES=  20.32154
# SCALE FACTOR FOR LENGTHS: SCL=  10.00000
# SCALE FACTOR FOR SIGMAS: SCLSIG=   1.00000
# CHI^2=    782.976 DOF=   499 CHI^2/DOF=   1.56909
# RMS=      7.225 SDEV=      7.230 MEAN=   -0.20272
#  P #       PARAMETER +-    SIGMA %error PARAMETER NAME
# P 1 =      8215.23545 +- 1701.861  20.72 YZERO                              
# P 2 =        -4.12919 +-    0.842  20.38 SLOPE                              
#       T            LDETRENDED       SIG_OBS
     2021.37822       -16.84149        17.21995
     2021.38044         2.52569         9.15049
     2021.38318        -0.37900         9.51626
     2021.38592        -1.09170         9.34214
     2021.38866        -8.41039         8.94631
     2021.39208         5.44774        27.90742
     2021.39413        -1.15178         9.02898
     2021.39687        -3.67848         8.95758
     2021.39938        -1.12911         7.98303
     2021.40177        -8.87322         7.03229
     2021.40451        -5.04192         6.92581
     2021.40782        -1.91426         8.92000
     2021.41056         2.66105         8.99015
     2021.41330        -2.38865         9.02397
     2021.41603        -2.92434         9.02147
     2021.41877        -1.63504         9.05654
     2021.42151        -0.93773         9.01520
     2021.42425        10.29458         9.02147
     2021.42699         1.82488         9.07283
     2021.42972         2.90019         9.01395
     2021.43246         3.49149         8.94506
     2021.43520        -1.46720         8.84735
     2021.43794         0.21510         9.00143
     2021.44068       -13.71759         9.09788
     2021.44341        -8.85829         8.91249
     2021.44615        -9.03898         8.88493
     2021.44889        -6.21468         8.78597
     2021.45163         3.81663         9.12794
     2021.45436         3.77093         9.45112
     2021.45710        -2.02176         9.17178
     2021.45984        -4.21346         8.79349
     2021.46258        -3.85615         8.70831
     2021.46528        -1.31001         8.98013
     2021.46805        -7.43954         8.64317
     2021.47079        -3.29724         8.83107
     2021.47353         3.41307         9.03024
     2021.47627        -1.66363         8.82230
     2021.47901        -9.22632         8.85988
     2021.48174        -8.66802         8.85111
     2021.48448       -14.11171         8.86739
     2021.48722        -9.61641         8.85111
     2021.48996        -8.67610         8.97011
     2021.49269        -7.57780         8.98639
     2021.49520        -3.10443         7.88282
     2021.49817       -15.06219         9.42983
     2021.50091        -7.14588         8.95132
     2021.50365        -7.36758         8.88242
     2021.50638       -15.31927         8.88493
     2021.50912       -13.16497         8.96134
     2021.51186        -9.34666         9.38223
     2021.51459         1.12060         9.03149
     2021.51733        -0.02705         8.94756
     2021.52007        -3.01375         9.04527
     2021.52281        -9.05044         8.82981
     2021.52555        -2.00514         8.83482
     2021.52829        -6.38983         8.76468
     2021.53102        -7.93353         8.78096
     2021.53376        -0.71322         8.91499
     2021.53650        -1.45092         9.17930
     2021.53924         7.57839         9.39726
     2021.54198         3.30869         9.04401
     2021.54471       -12.13500         8.94130
     2021.54745        -3.73970         9.00769
     2021.55019        -1.77739         8.87240
     2021.55293        -2.15009         8.96009
     2021.55566        -0.21278         9.18932
     2021.55840        -4.49148         9.11416
     2021.56114        -1.49717         8.80852
     2021.56388        -1.45487         8.89996
     2021.56605         1.11308         6.77800
     2021.56878        -4.05961         6.81057
     2021.57152        -0.62431         6.86193
     2021.57426        -4.77300         6.86819
     2021.57700         6.58930         7.35922
     2021.57974        -5.46039         6.81433
     2021.58247        -9.20808         6.74543
     2021.58521        -4.83578         6.90577
     2021.58795         0.09853         6.92080
     2021.59069        -1.23017         7.06611
     2021.59342        -2.56086         6.84439
     2021.59616        -0.13656         7.05609
     2021.59890         0.35375         7.00723
     2021.60164         2.11805         6.99721
     2021.60438        -1.17264         6.77550
     2021.60711         2.16866         6.87445
     2021.60985        -2.33203         6.93583
     2021.61259         2.78127         6.81558
     2021.61533        -2.51242         6.89825
     2021.61807        -0.33112         6.82560
     2021.62080        -1.20981         6.85942
     2021.62354        -0.12451         6.80055
     2021.62628         2.62480         6.96590
     2021.62902         4.72710         6.74042
     2021.63175         4.04441         6.87821
     2021.63449         8.37271         7.20139
     2021.63723         3.47702         7.06861
     2021.63997         5.54932         6.97466
     2021.64271         4.75663         6.90827
     2021.64544         0.20893         6.81057
     2021.64818         0.39124         6.81683
     2021.65092         3.12854         6.97216
     2021.65366         2.93085         6.79428
     2021.65639         0.89315         6.83938
     2021.65913         5.08246         6.78176
     2021.66187         9.83576         6.87195
     2021.66461         6.03407         6.89324
     2021.66735         4.00937         6.74042
     2021.67008         1.58268         6.90827
     2021.67282         6.59798         7.06986
     2021.67556         9.72829         7.17383
     2021.67830         1.84359         7.08239
     2021.68104         8.21190         6.92832
     2021.68377         1.84720         6.90076
     2021.68651         2.66651         6.93708
     2021.68925         5.56481         6.81808
     2021.69199         4.70512         6.82310
     2021.69472         7.15142         6.95838
     2021.69746         5.41673         6.86067
     2021.70020         4.50703         6.90827
     2021.70294         3.43934         6.95713
     2021.70568        12.44764         7.15880
     2021.70841         8.65295         6.90827
     2021.71115        11.03725         7.05483
     2021.71389        17.02456         7.24523
     2021.71663         6.72486         7.11872
     2021.71937         1.37117         6.95963
     2021.72210         2.13547         6.94210
     2021.72484         4.16478         6.99846
     2021.72758         6.02009         6.95963
     2021.73032        -1.07061         7.33668
     2021.73305         5.76970         6.86819
     2021.73579         6.38100         7.17634
     2021.73855         8.60438         7.86403
     2021.74127        11.20161         7.10118
     2021.74401         9.41192         6.92957
     2021.74674         3.70122         7.07613
     2021.74948         0.20153         6.96339
     2021.75222         8.89383         6.99972
     2021.75496        17.68414         7.18260
     2021.75706        10.06881         9.53379
     2021.76043         7.30675         7.31162
     2021.76317         7.06805         6.95212
     2021.76591         2.23636         6.94585
     2021.76865         8.08466         7.01350
     2021.77138         7.18197         7.00849
     2021.77412        12.67627         7.04231
     2021.77686        10.79758         6.95212
     2021.77960        11.42788         6.96214
     2021.78234        11.14619         6.96590
     2021.78507        10.95049         6.93333
     2021.78781        11.07680         6.99721
     2021.79055         5.42010         6.97216
     2021.79329         8.27441         6.91579
     2021.79603         8.45071         6.88948
     2021.79876         9.56302         6.89450
     2021.80150        13.41932         7.12247
     2021.80424         8.66363         7.25525
     2021.80698         5.05493         7.00723
     2021.80971         3.26924         7.00723
     2021.81245        20.32154         7.15003
     2021.81519        18.78385         6.89575
     2021.81793         9.63415         7.07613
     2021.82067         1.79246         7.24649
     2021.82340        10.04076         7.23646
     2021.82614         8.60607         7.15254
     2021.82888         9.33337         7.01350
     2021.83162        12.07568         7.04732
     2021.83436         8.57898         7.12874
     2021.83709         6.06229         7.13500
     2021.83983         3.14059         7.30786
     2021.84257         2.63890         7.34169
     2021.84531         1.48420         7.15254
     2021.84804         3.21251         7.10995
     2021.85078         4.33281         7.01099
     2021.85352         5.10712         6.99721
     2021.85626         2.91242         7.06736
     2021.85900         2.94173         6.89825
     2021.86173        -1.23097         7.18260
     2021.86447        -5.27566         7.23145
     2021.86721         0.42864         7.31538
     2021.86995        -1.10305         7.30536
     2021.87269        11.39026         7.24774
     2021.87542        -0.96644         7.05107
     2021.87816        -1.57813         6.97717
     2021.88090        -1.27283         7.01600
     2021.88364        -7.70352         6.97341
     2021.88637        -4.10422         6.91454
     2021.88911        -5.28091         6.91955
     2021.89185        -7.96261         7.22394
     2021.89459        -7.85630         6.97091
     2021.89733         2.02500         6.89951
     2021.90006       -10.61769         7.03730
     2021.90280        -6.54439         6.89074
     2021.90554        -3.10208         6.93082
     2021.90828         7.17822         7.25150
     2021.91102         1.77753         7.00222
     2021.91375        -1.70417         6.94335
     2021.91649        -1.31186         6.89450
     2021.91923         2.01144         7.06485
     2021.92197        -8.13425         7.27655
     2021.92470       -10.75995         7.02727
     2021.92744        -4.85064         7.04732
     2021.93018       -10.97934         7.16757
     2021.93292         0.92797         7.20891
     2021.93566        11.44327         7.49325
     2021.93839         0.08758         7.16757
     2021.94113         7.66688         7.26778
     2021.94387        11.34319         7.19889
     2021.94661        -1.22651         7.08991
     2021.94935         6.20080         7.01475
     2021.95208         6.52410         7.04606
     2021.95482        -1.42959         7.01099
     2021.95756         1.65371         7.05233
     2021.96030        -3.29898         7.02853
     2021.96303         0.61332         7.09617
     2021.96577         2.51163         7.20139
     2021.96851        -1.25007         7.13500
     2021.97125         0.80824         7.06360
     2021.97399         4.10254         7.15003
     2021.97672         7.47385         7.09492
     2021.97946        10.09015         7.05233
     2021.98220        10.10346         7.16256
     2021.98494        13.05776         7.00974
     2021.98767         8.90207         7.01099
     2021.99041         9.62737         7.04606
     2021.99315         6.55468         7.02978
     2021.99589        10.53198         7.03354
     2021.99863         2.23829         6.97091
     2022.00136         2.83159         7.05734
     2022.00410         2.82290         7.07863
     2022.00684        -9.94180         7.21517
     2022.00958        -0.83949         7.16757
     2022.01232       -15.11719         7.05859
     2022.01505         1.38512         7.14252
     2022.01779         5.09642         7.28782
     2022.01937       -12.25906        19.77908
     2022.02345        -7.72622         8.22980
     2022.02600        -8.60566         7.34920
     2022.02874        -6.91735         7.14126
     2022.03148       -16.25605         7.18260
     2022.03422        -5.56474         7.11997
     2022.03696       -12.18644         7.14377
     2022.03969       -11.31713         7.36173
     2022.04243        -5.10383         7.00598
     2022.04517        -4.46352         7.13124
     2022.04791        -4.17622         7.09617
     2022.05065        -7.70191         7.05609
     2022.05338        -6.07161         7.05609
     2022.05612       -15.89030         6.99596
     2022.05886       -15.42000         7.00723
     2022.06160       -14.60569         7.01600
     2022.06433        -5.26439         7.06861
     2022.06707       -12.22208         7.01099
     2022.06981        -3.61178         7.04481
     2022.07255       -12.73647         6.92456
     2022.07529        -4.97817         6.95713
     2022.07802        -2.65286         6.96214
     2022.08076        -1.05856         7.04982
     2022.08350         1.83475         6.98719
     2022.08624        -4.96995         6.94585
     2022.08898        -4.44164         6.93708
     2022.09171        -7.72734         6.95587
     2022.09445        -7.42903         6.98469
     2022.09719        -5.20673         6.88573
     2022.09993        -6.30242         7.19262
     2022.10266       -10.52712         7.35296
     2022.10540        -4.23981         6.87320
     2022.10814         2.03049         6.88322
     2022.11088        -2.66720         6.96088
     2022.11362        -0.11790         7.28406
     2022.11635         2.92641         6.95086
     2022.11909        -1.53929         6.86568
     2022.12183         1.89502         6.98970
     2022.12457        -4.62068         7.07237
     2022.12731        -3.87637         6.94335
     2022.13004        -6.89707         7.03730
     2022.13278        -6.05376         6.88197
     2022.13552        -3.57046         6.98469
     2022.13826         5.13285         6.91704
     2022.14099         1.21415         6.93207
     2022.14373        -9.02654         6.88322
     2022.14647        -0.19124         6.86944
     2022.14921         1.46707         7.19513
     2022.15195        -1.67463         7.21266
     2022.15468         1.98468         6.96965
     2022.15742        -0.18902         6.99220
     2022.16016        -1.63471         6.88072
     2022.16290       -10.58941         7.02853
     2022.16564        -5.29010         6.91454
     2022.16837        -3.02979         6.94961
     2022.17111        -5.50449         6.87821
     2022.17385         0.79282         6.91078
     2022.17659        -2.48888         6.89074
     2022.17932        -8.63657         6.88948
     2022.18206        -3.07327         7.67238
     2022.18480        -8.13296         6.90827
     2022.18754         2.06534         6.98469
     2022.19028        -6.10535         7.03229
     2022.19301        -1.50405         7.00849
     2022.19575         4.61126         6.98469
     2022.19849        -6.81344         6.90702
     2022.20123        -1.17213         6.99471
     2022.20397         2.32717         6.89575
     2022.20670        -4.95952         7.55213
     2022.20944         1.14878         7.17258
     2022.21218         0.43409         7.08615
     2022.21492        -7.14361         7.01851
     2022.21765        -3.52730         6.93333
     2022.22039        -7.52600         6.87821
     2022.22313         2.46331         7.14252
     2022.22587        -8.19339         7.26903
     2022.22861        -0.36408         7.02978
     2022.23134         2.66222         6.98093
     2022.23408         2.04153         7.03229
     2022.23682         1.24883         7.23271
     2022.23956        -1.07386         7.03604
     2022.24227        -2.34966         7.70495
     2022.24450         8.49253        12.17184
     2022.25051        -6.32264         9.12544
     2022.25325         0.80866         8.49661
     2022.25598         3.83997         7.20014
     2022.25872        -3.95473         7.54336
     2022.26146        -2.14142         6.98970
     2022.26420        -0.60412         7.04732
     2022.26694        -8.56581         7.76007
     2022.26967        -1.41151         7.16381
     2022.27241         4.53880         7.07613
     2022.27515         5.75810         7.25776
     2022.27789         3.47841         6.99972
     2022.28062        -6.48929         7.00097
     2022.28336         1.47002         6.90953
     2022.28610         0.91932         7.12122
     2022.28884         1.17663         7.18135
     2022.29158        -4.06807         6.96339
     2022.29431        -3.77476         6.95337
     2022.29705        -1.46546         7.04982
     2022.29979         3.60685         6.97216
     2022.30253        -1.23985         7.22519
     2022.30527        -1.18354         7.14252
     2022.30800        -5.49024         7.09116
     2022.31074        -0.60493         7.03730
     2022.31348        -2.21963         7.05233
     2022.31622        -0.72232         6.96214
     2022.31895       -18.01101         7.17133
     2022.32169         0.38229         7.19513
     2022.32443         2.13360         6.96840
     2022.32717        -6.83810         7.02602
     2022.32991        -1.21179         6.95838
     2022.33264        -2.17549         7.21016
     2022.33538        -3.14718         7.14252
     2022.33812        -3.43488         7.33041
     2022.34086        -3.36957         7.06611
     2022.34360        -4.75427         6.96715
     2022.34633        -0.79496         7.01475
     2022.34907         1.46934         6.93458
     2022.35181         0.22365         6.96464
     2022.35455        -2.11005         7.07989
     2022.35728        -8.48774         7.08114
     2022.36002         0.13356         7.03229
     2022.36276         0.38487         6.91454
     2022.36550        -1.24083         7.06235
     2022.36824         1.71248         7.08865
     2022.37097        -8.54922         7.01224
     2022.37371       -10.40491         6.94961
     2022.37645        -1.73561         7.05483
     2022.37919        -1.36330         7.26903
     2022.38193       -11.25700         7.54211
     2022.38466        -9.03369         7.04231
     2022.38740       -16.71939         7.09993
     2022.39014        -5.94708         6.95587
     2022.39288        -2.35078         6.96715
     2022.39561        -7.94147         6.99095
     2022.39835        -5.08917         6.92581
     2022.40109        -4.65186         7.24523
     2022.40383        -3.40356         6.86694
     2022.40657        -6.16025         6.92832
     2022.40930       -13.59195         7.03980
     2022.41204        -4.32264         7.03730
     2022.41478        -6.67634         6.90452
     2022.41752        -7.21103         7.05984
     2022.42026        -7.15773         7.08740
     2022.42299        -8.36042         6.91579
     2022.42573        -8.38512         7.14627
     2022.42847        -3.61981         6.97967
     2022.43121        -7.47251         7.02477
     2022.43394         3.28180         7.09241
     2022.43668       -14.38290         6.86944
     2022.43942        -2.91359         7.03479
     2022.44216        -4.66429         7.15880
     2022.44490         4.60802         7.07362
     2022.44763         1.81332         6.82059
     2022.45037        -4.80837         6.90201
     2022.45311       -11.44207         6.93834
     2022.45585        -2.82676         6.99846
     2022.45859       -20.25446         6.81307
     2022.46132        -5.87915         6.85441
     2022.46406        -8.72784         6.83687
     2022.46680       -10.92654         6.86067
     2022.46954        -9.87723         6.90452
     2022.47227       -16.23493         6.90702
     2022.47501         1.70338         6.86568
     2022.47775        -7.78232         7.06986
     2022.48049        -8.62401         7.01099
     2022.48323         3.71929         6.88573
     2022.48596         6.00160         6.90452
     2022.48870        -6.26610         7.06360
     2022.49144        -4.12479         6.84439
     2022.49418        -4.03249         7.06736
     2022.49692        -8.70918         6.88072
     2022.49965        -3.08688         6.87320
     2022.50239       -12.40957         6.94335
     2022.50513        -7.81127         7.23646
     2022.50787        10.14504         7.33918
     2022.51060        -4.29266         7.25400
     2022.51334        -8.88335         7.00222
     2022.51608       -12.06305         7.04105
     2022.51882       -12.27074         6.95587
     2022.52156       -11.62444         6.95086
     2022.52429        -1.03113         6.91955
     2022.52703        -0.25983         7.08239
     2022.52977         7.90448         7.00473
     2022.53251        -8.81022         6.94961
     2022.53525        -5.55791         7.29033
     2022.53798        -4.96161         6.99095
     2022.54072        -6.90430         6.95838
     2022.54347        -6.42796         6.92832
     2022.54620        -8.17169         6.90201
     2022.54893         1.38661         6.85441
     2022.55167         5.21392         6.90577
     2022.55441         2.71422         6.97466
     2022.55715         7.63953         6.95337
     2022.55989        -6.78417         6.90827
     2022.56262        -5.11286         6.90201
     2022.56536       -17.67056         6.99471
     2022.56810        -1.91625         6.83687
     2022.57084        -2.43395         6.81307
     2022.57357         0.19436         7.06485
     2022.57631        -9.33434         6.98970
     2022.57905        -6.39003         7.24899
     2022.58179         1.99127         6.95963
     2022.58453        -1.61042         7.30160
     2022.58726        -8.81612         6.89199
     2022.59000         2.68819         7.07112
     2022.59274        -8.55751         6.78677
     2022.59548        -4.45520         6.88197
     2022.59822        -7.04690         7.04606
     2022.60095        -9.94559         6.86819
     2022.60369        -0.60629         6.95838
     2022.60643         2.95402         7.06360
     2022.60917        -2.02467         6.94335
     2022.61190         4.40863         7.11120
     2022.61464         1.11294         6.90452
     2022.61738         2.42624         6.81558
     2022.62012        -2.89845         6.78927
     2022.62286        -0.35015         6.97717
     2022.62559         2.82316         6.84815
     2022.62833        -2.38854         6.80932
     2022.63107         5.76877         6.92456
     2022.63381         9.28407         6.89575
     2022.63655         2.66838         6.85191
     2022.63928         4.32968         6.82685
     2022.64202         3.64199         7.33542
     2022.64476         7.37829         7.42185
     2022.64750         4.88260         6.95963
     2022.65023         9.14090         7.08615
     2022.65297         4.67721         7.11621
     2022.65571        10.94751         7.04606
     2022.65845         9.30282         7.00974
     2022.66119         6.68612         6.77675
     2022.66392         7.24443         6.84188
     2022.66666        12.66573         6.81433
     2022.66940         6.00904         6.96464
     2022.67214         3.85034         6.77675
     2022.67488        11.72665         6.80806
     2022.67761        10.81795         6.81433
     2022.68035         9.91826         6.76547
     2022.68309        13.03756         7.03479
     2022.68583         9.43687         7.09742
     2022.68856        12.05617         6.86193
     2022.69130        11.48348         6.84815
     2022.69404        15.21778         7.12623
     2022.69678         5.60409         7.21642
     2022.69952         8.30439         6.91078
     2022.70225        14.49170         7.10369
     2022.70499        10.60800         7.07237
     2022.70773         9.20831         7.00849
     2022.71047        10.85261         6.84564
     2022.71321        19.17292         6.80932
     2022.71594        15.79122         6.85191
     2022.71868        10.96553         6.79804
     2022.72142        15.95783         6.82435
     2022.72416         9.97314         6.87946
     2022.72689        15.32944         6.89199
     2022.72963        15.00375         7.11120
     2022.73238        11.99807         6.90076
     2022.73511         9.62636         6.82435
     2022.73785         6.34666         6.82685
     2022.74058         6.04797         7.31538
     2022.74332        16.01827         7.18511
     2022.74606        14.19958         7.02477
     2022.74880         9.13388         6.79303
